Time,P3,C3,F3,Fz,F4,C4,P4,Cz,CM,A1,Fp1,Fp2,T3,T5,O1,O2,X3,X2,F7,F8,X1,A2,T6,T4,Trigger,Time_Offset,ADC_Status,ADC_Sequence,Event,Comments
0.0033,500.1,38.7,156.9,60.0,7173.6,-90.3,557.1,9830.1,59428.2,332.4,4971.9,7123.8,227.1,9827.1,9830.1,9830.1,-7.2,-6.0,9830.1,9830.1,-0.6,427.8,2981.7,438.6,0,6,36219190820864,79,0, 
0.0067,549.6,28.8,180.3,117.9,-6423.0,-325.2,617.4,-2121.3,-13412.1,451.8,-2440.5,-2742.9,-254.1,-3415.2,-6081.9,-2220.0,-7.2,-6.0,-3165.3,-3121.2,-0.3,555.0,-7519.5,378.9,0,12,36219190820864,80,0, 
0.0100,522.9,-1.2,165.6,96.9,-9819.9,-375.3,615.3,-9830.1,-73729.5,441.9,-7366.8,-9350.4,-424.2,-9827.4,-9830.1,-9830.1,-6.6,-6.3,-9830.1,-9830.1,-0.9,543.0,-9830.1,366.0,0,18,36219190820864,81,0, 
0.0133,466.8,21.0,141.9,39.3,-4460.4,-185.7,551.7,-5926.5,-37865.1,319.5,-2725.8,-3228.0,-55.5,-6629.1,-8942.7,-5825.4,-6.9,-6.0,-5536.8,-5508.0,-0.3,417.3,-2935.5,417.6,0,24,36219190820864,82,0, 
0.0167,447.0,39.3,136.8,12.3,8959.8,-12.9,513.6,8994.3,44904.6,243.3,4338.0,6180.6,339.3,8361.3,6809.7,9028.2,-7.2,-5.7,7977.6,8435.4,-1.2,344.4,6413.4,457.2,0,30,36219190820864,83,0, 
0.0200,498.6,38.4,160.8,66.9,7212.9,-91.2,558.6,9830.1,59502.3,343.8,5181.9,7278.9,230.1,9827.1,9830.1,9830.1,-7.2,-6.0,9830.1,9830.1,-1.2,441.9,3001.5,454.2,0,36,36219190820864,84,0, 
0.0233,541.8,25.2,181.8,123.9,-6389.1,-320.1,625.2,-2124.0,-13263.9,456.3,-2241.0,-2631.0,-251.4,-3317.1,-5909.4,-2148.6,-6.6,-5.7,-2890.5,-2987.4,-0.9,564.9,-7491.9,397.2,0,42,36219190820864,85,0, 
0.0267,519.9,15.9,166.2,109.2,-9819.9,-377.1,620.1,-9830.1,-73581.3,441.9,-7188.6,-9211.2,-429.6,-9827.4,-9830.1,-9830.1,-6.6,-6.0,-9830.1,-9830.1,-0.9,550.5,-9830.1,379.8,0,48,36219190820864,86,0, 
0.0300,466.8,30.3,134.1,39.6,-4457.4,-185.1,550.8,-5870.4,-37865.1,322.8,-2705.1,-3177.9,-51.3,-6644.7,-8876.4,-5851.2,-6.6,-6.3,-5346.6,-5389.2,-0.3,423.3,-2907.6,424.8,0,54,36219190820864,87,0, 
0.0333,446.7,45.9,123.9,5.4,8983.5,-9.0,508.2,9027.3,45052.8,246.9,4392.6,6372.3,336.9,8354.4,6859.8,9009.3,-7.2,-5.7,8198.4,8541.3,-0.9,346.5,6519.0,459.9,0,60,36219190820864,88,0, 
0.0367,494.7,40.2,152.7,64.2,7254.0,-81.9,559.2,9830.1,59946.9,342.0,5176.8,7441.2,237.6,9827.1,9830.1,9830.1,-6.9,-6.0,9830.1,9830.1,-0.9,443.7,3035.4,454.2,0,66,36219190820864,89,0, 
0.0400,538.8,22.5,173.7,122.4,-6331.5,-312.6,624.3,-2030.4,-12893.4,456.9,-2361.3,-2585.4,-248.4,-3247.5,-5772.0,-2134.2,-6.9,-6.0,-2719.5,-2759.7,-0.9,556.5,-7453.5,394.2,0,72,36219190820864,90,0, 
0.0433,513.9,15.0,154.8,101.1,-9819.9,-372.3,615.0,-9830.1,-73210.8,433.8,-7326.9,-9148.8,-443.1,-9827.4,-9830.1,-9830.1,-7.2,-6.0,-9830.1,-9830.1,-0.6,543.3,-9830.1,374.7,0,78,36219190820864,91,0, 
0.0467,463.2,28.5,135.3,38.4,-4405.2,-164.1,554.4,-5882.4,-37865.1,315.3,-2692.5,-3061.2,-64.2,-6649.8,-8851.2,-5847.9,-7.2,-6.3,-5232.9,-5312.1,-0.6,418.8,-2933.7,426.0,0,84,36219190820864,92,0, 
0.0500,449.7,41.7,130.5,17.1,8986.8,9.3,516.3,9017.7,45349.2,248.1,4366.2,6355.5,340.8,8342.1,6859.5,9004.8,-6.9,-6.0,8169.0,8487.6,-1.2,344.7,6482.7,468.6,0,90,36219190820864,93,0, 
0.0533,495.0,43.8,157.2,72.0,7279.5,-66.6,560.7,9830.1,60095.1,334.2,5172.3,7423.8,228.0,9827.1,9830.1,9830.1,-6.9,-5.7,9830.1,9830.1,-0.6,430.5,3067.8,456.3,0,96,36219190820864,94,0, 
0.0567,533.7,16.8,171.6,121.8,-6317.4,-307.2,624.0,-1980.9,-12597.0,450.6,-2332.5,-2510.1,-260.4,-3254.7,-5633.7,-2087.1,-6.9,-5.7,-2661.0,-2850.9,-0.6,559.2,-7437.3,401.4,0,102,36219190820864,95,0, 
0.0600,514.8,15.9,170.1,109.2,-9819.9,-346.8,623.4,-9830.1,-73210.8,446.7,-7213.8,-8975.4,-440.7,-9827.4,-9830.1,-9830.1,-6.6,-6.3,-9830.1,-9830.1,-0.6,557.1,-9830.1,392.4,0,108,36219190820864,96,0, 
0.0633,456.0,26.7,134.4,36.3,-4471.5,-165.6,552.3,-5949.3,-37939.2,318.0,-2759.1,-3102.3,-74.1,-6756.0,-8861.7,-5958.3,-6.6,-5.7,-5266.2,-5405.4,-0.9,418.8,-2990.4,425.4,0,114,36219190820864,97,0, 
0.0667,438.9,42.0,129.0,7.5,8909.7,5.1,518.1,8969.7,44830.5,245.1,4361.7,6286.2,330.3,8240.7,6787.5,8929.8,-6.6,-6.3,8150.4,8440.5,-0.9,351.0,6389.7,463.8,0,120,36219190820864,98,0, 
0.0700,479.4,33.3,143.1,51.6,7245.3,-86.7,557.7,9830.1,59872.8,328.8,5185.5,7524.0,219.0,9827.1,9830.1,9830.1,-7.2,-5.4,9830.1,9830.1,-0.9,432.3,3031.2,446.1,0,126,36219190820864,99,0, 
0.0733,525.6,13.2,165.3,113.7,-6403.8,-324.0,626.1,-2039.1,-12819.3,450.9,-2348.4,-2495.4,-260.7,-3349.8,-5664.0,-2186.4,-6.9,-6.0,-2694.9,-2903.4,-0.9,561.3,-7431.3,396.3,0,132,36219190820864,100,0, 
0.0767,511.2,15.0,165.9,104.1,-9819.9,-372.9,623.4,-9830.1,-73729.5,450.9,-7291.8,-9120.0,-424.5,-9827.4,-9830.1,-9830.1,-6.6,-5.7,-9830.1,-9830.1,-1.2,554.7,-9830.1,392.4,0,138,36219190820864,101,0, 
0.0800,459.9,40.5,138.6,42.3,-4602.6,-169.5,564.3,-6095.1,-38902.5,322.2,-2745.0,-3122.4,-64.2,-6862.2,-8889.0,-6107.4,-6.3,-6.0,-5399.1,-5511.9,-1.5,435.0,-3074.1,432.3,0,144,36219190820864,102,0, 
0.0833,436.8,50.4,120.6,9.9,8877.0,-3.6,519.0,8882.4,43793.1,248.4,4298.1,6267.6,327.6,8187.6,6794.7,8845.5,-6.3,-6.0,8049.6,8399.7,-1.2,353.1,6336.0,468.9,0,150,36219190820864,103,0, 
0.0867,480.3,32.4,141.9,57.6,7178.4,-87.3,563.4,9830.1,59131.8,330.0,5093.4,7407.9,227.7,9827.1,9830.1,9830.1,-7.2,-6.0,9830.1,9830.1,-0.9,434.4,2995.8,447.3,0,156,36219190820864,104,0, 
0.0900,524.1,22.5,165.9,114.6,-6380.7,-319.2,627.6,-2154.0,-13486.2,449.7,-2373.9,-2582.1,-261.6,-3443.1,-5729.4,-2300.4,-6.9,-5.7,-2718.3,-2895.6,-0.6,564.6,-7464.3,396.3,0,162,36219190820864,105,0, 
0.0933,509.4,16.8,157.2,102.0,-9819.9,-366.0,630.0,-9830.1,-74544.6,449.7,-7337.1,-9251.4,-433.5,-9827.4,-9830.1,-9830.1,-6.9,-6.0,-9830.1,-9830.1,-0.9,556.5,-9830.1,378.9,0,168,36219190820864,106,0, 
0.0967,447.3,27.3,126.9,34.5,-4683.3,-180.9,559.5,-6228.0,-39791.7,312.6,-2893.8,-3378.6,-65.4,-6901.8,-9014.4,-6243.0,-6.9,-6.0,-5564.1,-5638.8,-0.9,423.0,-3132.6,416.1,0,174,36219190820864,107,0, 
0.1000,433.2,40.8,114.9,3.6,8831.1,-10.8,521.1,8803.5,43052.1,248.1,4200.0,6105.6,326.7,8150.7,6603.9,8769.3,-7.2,-6.6,7945.2,8328.9,-0.9,354.6,6317.4,456.3,0,180,36219190820864,108,0, 
0.1033,480.9,34.8,141.9,54.9,7269.0,-96.9,561.9,9830.1,58539.0,328.8,5007.6,7317.6,213.9,9827.1,9830.1,9830.1,-6.9,-6.0,9830.1,9830.1,-0.9,435.9,3003.6,444.9,0,186,36219190820864,109,0, 
0.1067,527.1,21.9,167.4,118.5,-6333.6,-323.1,625.5,-2222.7,-13708.5,451.5,-2330.4,-2538.0,-261.0,-3437.4,-5907.6,-2348.7,-7.2,-6.0,-2721.9,-2803.8,-0.9,565.8,-7464.3,390.0,0,192,36219190820864,110,0, 
0.1100,505.8,13.8,151.8,105.0,-9819.9,-385.5,615.0,-9830.1,-74766.9,438.3,-7321.2,-9218.1,-449.1,-9827.4,-9830.1,-9830.1,-7.2,-6.0,-9830.1,-9830.1,-1.2,549.9,-9830.1,370.8,0,198,36219190820864,111,0, 
0.1133,452.1,23.7,127.5,38.7,-4632.6,-185.1,553.5,-6242.4,-39939.9,315.0,-2885.7,-3282.9,-85.8,-6886.2,-9108.3,-6227.7,-6.9,-6.3,-5440.8,-5492.7,-0.9,425.7,-3141.0,421.2,0,204,36219190820864,112,0, 
0.1167,436.5,36.0,121.5,11.4,8843.7,-9.6,516.3,8814.6,42755.7,250.8,4218.3,6276.3,318.3,8197.8,6467.4,8797.5,-6.6,-6.0,8082.3,8408.4,-0.9,358.8,6316.2,458.1,0,210,36219190820864,113,0, 
0.1200,479.4,30.0,141.3,53.1,7275.9,-89.4,555.6,9830.1,58835.4,325.8,5136.3,7416.6,215.7,9827.1,9830.1,9830.1,-6.9,-6.3,9830.1,9830.1,-0.6,435.6,3097.5,437.7,0,216,36219190820864,114,0, 
0.1233,519.9,20.7,161.4,110.1,-6344.4,-322.5,612.6,-2104.5,-13115.7,446.1,-2347.5,-2529.6,-269.4,-3150.0,-5816.1,-2086.5,-7.5,-6.3,-2535.6,-2649.3,-0.9,556.8,-7372.8,381.9,0,222,36219190820864,115,0, 
0.1267,502.8,6.9,158.1,104.4,-9819.9,-369.0,613.5,-9830.1,-74470.5,441.0,-7302.3,-9230.4,-445.8,-9827.4,-9830.1,-9830.1,-7.2,-6.0,-9830.1,-9830.1,-0.3,550.2,-9830.1,378.3,0,228,36219190820864,116,0, 
0.1300,444.9,6.6,129.6,31.8,-4664.4,-182.1,543.3,-6184.2,-39717.6,314.1,-2885.1,-3284.4,-77.1,-6775.2,-9079.5,-6123.0,-6.6,-6.0,-5376.9,-5581.8,-0.9,418.8,-3116.7,412.5,0,234,36219190820864,117,0, 
0.1333,427.8,26.4,115.5,5.1,8826.9,-13.2,508.8,8851.2,43200.3,241.2,4319.4,6264.3,330.0,8232.0,6507.9,8839.2,-6.9,-6.0,8094.3,8398.8,-0.9,347.1,6357.6,452.4,0,240,36219190820864,118,0, 
0.1367,478.8,30.9,147.0,59.7,7349.1,-97.5,559.5,9830.1,59502.3,331.8,5269.5,7620.0,225.3,9827.1,9830.1,9830.1,-6.6,-5.7,9830.1,9830.1,-0.9,435.9,3131.4,437.7,0,246,36219190820864,119,0, 
0.1400,525.0,10.8,166.5,122.1,-6268.2,-335.7,624.9,-1866.9,-12522.9,453.0,-2164.8,-2329.5,-256.5,-3040.5,-5777.4,-1948.5,-6.9,-5.7,-2440.2,-2592.3,-0.6,556.2,-7359.9,383.4,0,252,36219190820864,120,0, 
0.1433,509.4,8.4,152.4,109.2,-9819.9,-384.3,620.1,-9830.1,-74025.9,444.9,-7188.3,-9035.4,-447.0,-9827.4,-9830.1,-9830.1,-7.2,-6.0,-9830.1,-9830.1,-0.6,547.8,-9830.1,363.9,0,258,36219190820864,121,0, 
0.1467,456.9,38.7,130.8,40.5,-4689.0,-195.3,554.7,-6200.7,-39791.7,309.0,-2760.0,-3102.9,-88.5,-6791.7,-9065.1,-6105.6,-6.6,-5.7,-5503.5,-5626.5,-0.6,413.7,-3148.2,409.2,0,264,36219190820864,122,0, 
0.1500,432.0,28.2,112.2,8.7,8812.5,-24.0,516.6,8804.7,43274.4,245.1,4390.2,6273.3,320.7,8184.0,6514.2,8823.3,-6.9,-6.3,7937.1,8322.0,-0.6,347.4,6327.0,447.9,0,270,36219190820864,123,0, 
0.1533,481.8,33.6,138.0,64.5,7381.2,-103.8,560.7,9830.1,59428.2,330.0,5443.8,7605.6,207.9,9827.1,9830.1,9830.1,-6.9,-5.7,9830.1,9830.1,-0.9,433.8,3137.7,435.3,0,276,36219190820864,124,0, 
0.1567,533.4,20.7,165.9,123.3,-6244.2,-326.7,625.2,-1958.7,-12152.4,459.6,-2084.7,-2328.3,-261.6,-3037.8,-5691.6,-1941.6,-7.5,-6.3,-2656.5,-2672.1,-1.2,563.7,-7356.0,387.6,0,282,36219190820864,125,0, 
0.1600,514.8,11.7,162.3,114.6,-9819.9,-379.5,624.6,-9830.1,-73877.7,450.0,-7088.1,-8949.6,-448.5,-9827.4,-9830.1,-9830.1,-6.9,-6.0,-9830.1,-9830.1,-0.6,558.6,-9830.1,376.5,0,288,36219190820864,126,0, 
0.1633,461.1,28.8,134.7,47.1,-4734.9,-193.5,558.0,-6224.4,-39791.7,328.5,-2704.8,-3022.2,-85.5,-6891.3,-9051.3,-6167.1,-6.9,-6.0,-5492.1,-5456.4,-0.6,435.3,-3160.5,421.2,0,294,36219190820864,127,0, 
0.1667,443.4,42.6,127.8,18.9,8754.3,-20.4,523.5,8800.5,43274.4,253.5,4371.0,6501.0,323.4,8118.3,6502.2,8790.0,-6.6,-6.3,8074.8,8438.4,-0.3,363.0,6312.3,462.3,0,300,36219190820864,128,0, 
0.1700,489.3,44.1,149.1,68.4,7389.3,-109.5,565.5,9830.1,59724.6,335.4,5411.1,7761.3,214.5,9827.1,9830.1,9830.1,-6.9,-5.4,9830.1,9830.1,-0.9,442.8,3166.5,441.3,0,306,36219190820864,129,0, 
0.1733,531.0,15.6,165.6,121.5,-6245.7,-345.6,626.7,-1882.2,-12078.3,450.6,-2016.3,-2235.3,-262.2,-3006.6,-5663.4,-1908.6,-6.9,-6.0,-2415.3,-2385.6,-0.9,562.8,-7354.5,383.1,0,312,36219190820864,130,0, 
0.1767,515.1,15.0,158.4,115.5,-9819.9,-399.3,627.9,-9830.1,-73729.5,446.4,-7066.5,-8969.4,-451.8,-9827.4,-9830.1,-9830.1,-6.9,-6.3,-9830.1,-9830.1,-0.9,553.2,-9830.1,370.2,0,318,36219190820864,131,0, 
0.1800,461.1,20.7,127.5,51.3,-4779.6,-202.2,562.5,-6196.2,-39717.6,315.3,-2646.6,-3132.3,-82.5,-6838.8,-9057.3,-6152.7,-6.9,-6.3,-5356.8,-5505.3,-0.9,430.2,-3189.9,412.2,0,324,36219190820864,132,0, 
0.1833,444.0,41.7,115.8,22.2,8737.8,-32.7,522.9,8820.3,43274.4,252.6,4403.4,6315.6,318.3,8154.9,6505.8,8798.7,-6.9,-5.7,8082.0,8343.9,-0.9,355.2,6345.6,456.3,0,330,36219190820864,133,0, 
0.1867,491.4,48.0,139.2,71.7,7401.6,-100.8,572.1,9830.1,60021.0,332.7,5364.9,7626.0,218.1,9827.1,9830.1,9830.1,-7.2,-5.7,9830.1,9830.1,-0.9,442.2,3192.0,445.2,0,336,36219190820864,134,0, 
0.1900,536.1,28.8,167.4,129.3,-6255.3,-336.3,632.1,-1750.2,-11485.5,452.7,-2083.2,-2194.5,-257.4,-2941.2,-5595.3,-1818.9,-7.2,-6.0,-2240.4,-2423.4,-0.9,558.9,-7323.3,384.6,0,342,36219190820864,135,0, 
0.1933,517.2,23.1,158.7,116.1,-9819.9,-393.3,630.3,-9830.1,-73359.0,453.0,-7175.1,-8965.2,-443.7,-9827.4,-9830.1,-9830.1,-6.9,-6.3,-9830.1,-9830.1,-0.9,559.2,-9830.1,364.5,0,348,36219190820864,136,0, 
0.1967,452.7,32.7,132.9,44.7,-4770.3,-206.4,555.9,-6269.7,-40088.1,315.6,-2802.9,-3096.6,-100.5,-6891.6,-9084.3,-6246.9,-6.9,-5.7,-5385.0,-5577.9,-0.3,422.7,-3183.6,408.3,0,354,36219190820864,137,0, 
0.2000,434.7,44.1,121.2,12.6,8740.8,-33.3,514.2,8756.7,42978.0,247.5,4232.4,6274.5,305.1,8119.8,6423.3,8733.6,-6.9,-6.0,8056.5,8327.1,-0.6,354.9,6286.2,446.7,0,360,36219190820864,138,0, 
0.2033,486.3,49.2,150.0,68.7,7440.6,-112.2,559.5,9830.1,59946.9,334.5,5258.1,7755.9,206.4,9827.1,9830.1,9830.1,-7.2,-6.0,9830.1,9830.1,-0.9,439.5,3188.1,429.3,0,366,36219190820864,139,0, 
0.2067,532.2,38.7,177.9,132.9,-6210.6,-338.4,623.4,-1803.9,-11485.5,460.5,-2132.4,-2262.6,-270.3,-2945.7,-5606.1,-1928.1,-6.9,-6.0,-2420.7,-2515.5,-0.6,567.6,-7325.1,379.5,0,372,36219190820864,140,0, 
0.2100,512.7,25.8,170.1,117.3,-9819.9,-399.0,620.7,-9830.1,-73581.3,449.4,-7165.5,-8930.4,-441.6,-9827.4,-9830.1,-9830.1,-6.9,-6.3,-9830.1,-9830.1,-1.2,560.1,-9830.1,366.3,0,378,36219190820864,141,0, 
0.2133,454.2,27.0,137.7,53.1,-4825.8,-201.9,555.6,-6336.9,-40310.4,324.9,-2873.4,-3283.8,-89.4,-6977.7,-9131.1,-6284.7,-6.6,-6.0,-5577.6,-5649.3,-0.6,432.6,-3249.0,408.0,0,384,36219190820864,142,0, 
0.2167,433.5,48.9,119.7,19.2,8699.7,-26.4,511.8,8707.8,42533.4,252.0,4304.1,6276.3,314.7,8023.2,6375.0,8721.9,-6.9,-6.0,8030.4,8312.4,-0.6,357.9,6281.7,447.9,0,390,36219190820864,143,0, 
0.2200,481.8,46.5,139.8,65.1,7381.5,-101.1,561.6,9830.1,59502.3,332.1,5297.4,7681.8,210.6,9827.1,9830.1,9830.1,-6.9,-6.0,9830.1,9830.1,-0.9,437.7,3217.8,439.8,0,396,36219190820864,144,0, 
0.2233,531.6,46.2,162.6,122.1,-6234.0,-334.5,625.8,-1814.4,-11930.1,453.6,-2086.2,-2127.0,-269.7,-3018.6,-5616.6,-1875.9,-6.6,-5.7,-2341.8,-2515.8,-0.9,562.8,-7291.5,387.9,0,402,36219190820864,145,0, 
0.2267,511.2,23.4,157.8,112.2,-9819.9,-379.8,623.4,-9830.1,-74174.1,452.7,-7277.4,-8991.3,-442.2,-9827.4,-9830.1,-9830.1,-6.9,-6.0,-9830.1,-9830.1,-0.9,555.3,-9830.1,372.9,0,408,36219190820864,146,0, 
0.2300,449.4,33.6,127.8,46.5,-4959.9,-190.8,557.1,-6396.0,-41347.8,335.7,-2918.1,-3125.7,-100.8,-7024.2,-9199.5,-6375.3,-6.9,-5.4,-5730.3,-5794.2,-0.6,435.6,-3304.2,415.8,0,414,36219190820864,147,0, 
0.2333,431.4,57.3,124.5,15.6,8625.6,-12.6,517.5,8669.1,41496.0,255.6,4144.2,6250.2,312.9,7996.8,6246.0,8650.2,-7.2,-5.7,7827.6,8213.4,-0.6,352.8,6217.2,455.7,0,420,36219190820864,148,0, 
0.2367,475.5,46.2,143.4,65.4,7383.3,-88.8,556.2,9830.1,58909.5,335.1,5219.1,7506.0,195.6,9827.1,9830.1,9830.1,-6.6,-5.7,9830.1,9830.1,-0.9,438.3,3143.4,443.1,0,426,36219190820864,149,0, 
0.2400,525.6,36.6,170.7,130.5,-6291.6,-315.3,631.5,-1851.6,-12597.0,462.3,-2190.9,-2293.5,-273.6,-3027.9,-5694.3,-2078.7,-7.5,-5.7,-2531.4,-2585.4,-1.2,565.2,-7338.3,397.2,0,432,36219190820864,150,0, 
0.2433,510.3,33.6,169.2,123.0,-9819.9,-372.3,625.5,-9830.1,-75285.6,458.1,-7386.9,-9229.2,-460.8,-9827.4,-9830.1,-9830.1,-6.6,-6.3,-9830.1,-9830.1,-0.6,567.3,-9830.1,389.1,0,438,36219190820864,151,0, 
0.2467,454.5,43.2,140.1,50.7,-5033.4,-185.1,557.1,-6524.7,-42607.5,325.5,-3134.4,-3361.8,-100.5,-7129.5,-9357.3,-6578.7,-6.9,-6.3,-5853.3,-5921.7,-0.6,428.7,-3439.2,424.5,0,444,36219190820864,152,0, 
0.2500,438.9,60.6,132.6,21.0,8557.2,-7.5,517.2,8589.0,40458.6,264.6,3912.9,6127.2,312.3,7896.0,5995.2,8523.6,-6.9,-5.7,7691.1,8077.8,-0.6,362.4,6146.7,464.7,0,450,36219190820864,153,0, 
0.2533,485.7,55.8,159.0,75.3,7418.7,-80.4,564.3,9830.1,57946.2,342.3,5015.1,7539.0,222.0,9827.1,9830.1,9830.1,-7.2,-6.0,9830.1,9830.1,-1.2,441.9,3142.2,457.2,0,456,36219190820864,154,0, 
0.2567,537.3,42.0,182.4,132.3,-6238.8,-309.0,626.1,-1897.5,-13189.8,463.8,-2302.8,-2269.2,-262.8,-3136.8,-5945.4,-2105.1,-6.6,-5.4,-2704.5,-2610.0,-0.6,571.8,-7331.4,398.1,0,462,36219190820864,155,0, 
0.2600,517.2,30.3,171.0,120.9,-9819.9,-365.7,625.2,-9830.1,-75656.1,458.7,-7504.5,-9077.4,-450.6,-9827.4,-9830.1,-9830.1,-6.9,-6.0,-9830.1,-9830.1,-1.2,553.5,-9830.1,384.3,0,468,36219190820864,156,0, 
0.2633,462.9,44.4,149.1,59.4,-4947.9,-176.7,567.6,-6492.3,-42903.9,336.6,-3156.6,-3345.0,-97.2,-7169.7,-9377.1,-6527.1,-6.9,-5.4,-5889.0,-5821.8,-0.6,436.5,-3411.3,436.2,0,474,36219190820864,157,0, 
0.2667,442.2,62.4,138.6,26.4,8603.7,0.0,524.1,8624.4,40458.6,258.6,4100.7,6227.1,312.6,7903.2,5974.8,8562.0,-6.9,-6.3,7736.1,8194.2,-0.9,358.5,6208.2,476.7,0,480,36219190820864,158,0, 
0.2700,490.5,65.1,165.6,83.1,7494.9,-70.2,571.5,9830.1,58390.8,344.4,5216.1,7674.6,221.7,9827.1,9830.1,9830.1,-6.9,-5.7,9830.1,9830.1,-0.9,447.3,3205.8,468.6,0,486,36219190820864,159,0, 
0.2733,535.2,35.1,181.5,136.8,-6147.3,-312.0,632.7,-1672.2,-12448.8,462.0,-2103.9,-2148.3,-258.9,-2850.0,-5938.8,-1865.1,-6.9,-6.0,-2418.0,-2493.3,-0.9,567.6,-7287.6,409.5,0,492,36219190820864,160,0, 
0.2767,524.7,37.2,179.1,135.6,-9819.9,-359.1,637.8,-9830.1,-74915.1,465.3,-7206.9,-9006.3,-445.2,-9827.4,-9830.1,-9830.1,-6.6,-6.0,-9830.1,-9830.1,-0.3,566.4,-9830.1,398.4,0,498,36219190820864,161,0, 
0.2800,461.7,48.6,149.7,62.4,-4964.1,-171.6,565.2,-6388.5,-42237.0,338.4,-2960.7,-3358.2,-93.0,-7052.4,-9351.3,-6404.7,-6.9,-6.3,-5793.3,-5767.5,-0.9,438.0,-3379.2,432.6,0,504,36219190820864,162,0, 
0.2833,437.7,63.3,135.9,21.6,8626.8,0.3,518.7,8689.8,41051.4,255.9,4177.8,6108.6,316.2,7953.6,6025.8,8655.9,-6.9,-5.7,7796.1,8231.4,-0.9,357.9,6213.9,466.8,0,510,36219190820864,163,0, 
0.2867,482.7,60.3,158.1,72.0,7563.9,-69.0,562.8,9830.1,59205.9,334.2,5298.6,7642.5,222.9,9827.1,9830.1,9830.1,-6.6,-5.7,9830.1,9830.1,-0.9,436.2,3271.2,449.1,0,516,36219190820864,164,0, 
0.2900,532.8,39.9,185.7,131.1,-6035.1,-301.8,627.9,-1446.3,-11559.6,460.2,-1969.8,-2146.5,-259.5,-2720.1,-5804.1,-1577.1,-6.9,-5.7,-2202.6,-2165.7,-0.6,561.6,-7199.4,397.2,0,522,36219190820864,165,0, 
0.2933,516.3,37.5,176.1,125.7,-9819.9,-358.5,627.9,-9830.1,-73951.8,453.3,-7196.4,-9036.0,-451.8,-9827.4,-9830.1,-9830.1,-6.9,-6.0,-9830.1,-9830.1,-0.6,558.6,-9830.1,388.5,0,528,36219190820864,166,0, 
0.2967,454.8,41.4,134.7,47.4,-4879.5,-174.3,551.1,-6294.0,-41570.1,320.7,-2894.1,-3315.6,-106.5,-7008.9,-9282.3,-6311.4,-6.9,-6.0,-5565.3,-5652.0,-0.9,422.1,-3333.9,417.6,0,534,36219190820864,167,0, 
0.3000,433.8,53.1,133.8,22.5,8637.3,5.4,519.0,8741.1,41570.1,252.9,4154.7,6211.5,325.2,7979.4,6075.9,8685.0,-6.9,-6.3,7905.0,8265.9,-0.9,350.1,6289.8,459.9,0,540,36219190820864,168,0, 
0.3033,476.4,54.9,157.8,60.9,7681.5,-67.8,561.0,9830.1,60465.6,328.2,5352.3,7706.4,220.5,9827.1,9830.1,9830.1,-6.6,-6.0,9830.1,9830.1,-0.9,429.3,3405.9,449.4,0,546,36219190820864,169,0, 
0.3067,530.4,41.7,181.5,127.2,-5876.1,-297.6,631.8,-1221.0,-10077.6,461.4,-1861.8,-1969.5,-252.0,-2469.3,-5385.0,-1334.1,-6.9,-5.7,-1805.4,-1947.3,-0.6,559.8,-7108.2,402.0,0,552,36219190820864,170,0, 
0.3100,515.1,29.7,172.8,111.9,-9819.9,-356.7,627.9,-9830.1,-72543.9,458.1,-7093.2,-8947.2,-447.3,-9827.4,-9830.1,-9830.1,-6.6,-5.7,-9830.1,-9830.1,-0.6,555.6,-9830.1,378.9,0,558,36219190820864,171,0, 
0.3133,455.7,39.6,140.1,39.9,-4765.5,-171.6,556.5,-6162.6,-40162.2,325.8,-2868.6,-3274.2,-98.4,-6875.4,-9087.0,-6140.7,-6.6,-6.3,-5379.9,-5520.9,-0.6,429.6,-3221.7,417.9,0,564,36219190820864,172,0, 
0.3167,436.5,63.0,132.9,7.2,8698.2,-0.6,515.4,8824.8,43348.5,252.3,4375.8,6240.9,321.3,8078.7,6314.1,8797.5,-6.6,-5.7,8044.5,8342.4,-0.9,350.7,6373.5,455.4,0,570,36219190820864,173,0, 
0.3200,484.5,52.8,152.1,63.9,7794.3,-66.6,564.6,9830.1,62392.2,337.5,5570.4,7833.6,231.0,9827.1,9830.1,9830.1,-7.2,-6.3,9830.1,9830.1,-0.6,441.6,3534.3,447.0,0,576,36219190820864,174,0, 
0.3233,532.8,36.6,180.9,121.2,-5756.4,-296.4,629.4,-908.1,-7706.4,461.1,-1775.4,-1998.0,-237.9,-2191.8,-4950.3,-1007.4,-6.9,-5.7,-1503.9,-1721.1,-0.9,565.2,-7048.2,398.1,0,582,36219190820864,175,0, 
0.3267,517.2,26.4,165.6,109.5,-9819.9,-359.4,623.7,-9830.1,-70024.5,458.1,-6888.9,-8790.6,-428.4,-9827.4,-9830.1,-9830.1,-7.2,-5.7,-9830.1,-9830.1,-0.6,559.2,-9830.1,383.7,0,588,36219190820864,176,0, 
0.3300,458.1,35.7,134.4,40.5,-4679.1,-174.9,553.8,-5987.4,-37642.8,328.5,-2673.3,-3205.8,-87.3,-6681.6,-8790.9,-5997.3,-6.9,-6.3,-5162.4,-5373.9,-1.2,429.9,-3219.0,421.5,0,594,36219190820864,177,0, 
0.3333,438.0,54.6,125.1,13.8,8711.1,9.9,514.8,8939.4,45719.7,252.3,4464.0,6375.3,320.7,8212.2,6657.3,8898.0,-6.9,-6.3,8197.5,8421.0,-0.6,354.9,6431.4,466.2,0,600,36219190820864,178,0, 
0.3367,484.2,45.3,151.8,59.7,7898.4,-66.6,557.7,9830.1,65059.8,334.2,5829.0,8135.1,242.7,9827.1,9830.1,9830.1,-6.6,-6.0,9830.1,9830.1,-1.2,434.1,3642.6,454.8,0,606,36219190820864,179,0, 
0.3400,530.1,26.7,172.5,116.4,-5649.6,-294.3,623.1,-467.7,-4742.4,457.8,-1486.8,-1717.2,-237.6,-1770.3,-4086.6,-567.3,-6.6,-6.0,-1000.2,-1343.4,-0.9,558.0,-6992.1,402.3,0,612,36219190820864,180,0, 
0.3433,513.3,16.2,166.2,102.6,-9819.9,-356.4,623.4,-9830.1,-67134.6,444.0,-6542.1,-8419.5,-433.5,-9827.4,-9830.1,-9830.1,-6.9,-6.0,-9830.1,-9830.1,-0.9,556.5,-9830.1,386.7,0,618,36219190820864,181,0, 
0.3467,460.5,32.7,139.5,41.1,-4534.5,-168.9,561.6,-5754.0,-34975.2,327.9,-2496.0,-2883.0,-83.4,-6425.4,-8218.5,-5748.9,-6.6,-5.4,-4853.1,-5256.6,-0.9,430.5,-3139.8,428.4,0,624,36219190820864,182,0, 
0.3500,432.9,44.1,122.4,5.7,8760.3,3.9,515.4,9066.3,48980.1,245.4,4679.7,6751.5,325.5,8402.1,7266.0,9032.1,-6.3,-6.0,8368.5,8477.7,-1.2,345.0,6515.7,460.5,0,630,36219190820864,183,0, 
0.3533,486.6,51.3,156.9,64.8,8051.1,-59.7,567.9,9830.1,68616.6,332.4,6143.4,8630.1,244.8,9827.1,9830.1,9830.1,-6.9,-6.0,9830.1,9830.1,-0.6,437.7,3803.4,451.2,0,636,36219190820864,184,0, 
0.3567,531.9,32.1,169.5,123.6,-5450.7,-292.8,633.9,-48.3,-1111.5,449.7,-1329.3,-1396.8,-234.0,-1203.0,-3114.0,-129.0,-6.9,-5.7,-428.7,-1101.6,-0.6,552.9,-6889.8,400.2,0,642,36219190820864,185,0, 
0.3600,519.9,21.0,157.2,112.8,-9819.9,-350.7,636.3,-9830.1,-63429.6,453.3,-6357.9,-8175.0,-426.6,-9827.4,-9830.1,-9830.1,-6.3,-5.7,-9830.1,-9830.1,-0.6,552.6,-9830.1,384.9,0,648,36219190820864,186,0, 
0.3633,458.1,23.1,120.6,29.4,-4353.3,-168.3,560.4,-5494.8,-31270.2,312.3,-2364.0,-2772.9,-88.5,-6114.9,-7628.1,-5483.4,-6.9,-6.3,-4350.3,-5023.5,-0.6,418.5,-2998.8,409.8,0,654,36219190820864,187,0, 
0.3667,435.6,36.0,109.2,-8.1,8834.7,7.5,518.1,9212.1,52536.9,238.2,4778.1,6760.2,323.1,8583.3,7834.8,9168.0,-7.2,-5.7,8488.2,8566.5,-0.6,339.9,6642.0,453.0,0,660,36219190820864,188,0, 
0.3700,485.7,50.1,142.5,45.9,8187.9,-58.2,562.5,9830.1,72469.8,317.1,6285.0,8836.8,228.0,9827.1,9830.1,9830.1,-6.6,-5.7,9830.1,9830.1,-0.9,417.3,3932.7,437.4,0,666,36219190820864,189,0, 
0.3733,535.2,24.0,168.3,105.3,-5262.6,-297.9,625.2,445.8,2889.9,444.0,-1257.3,-1319.7,-236.7,-735.9,-1798.5,239.7,-6.6,-6.0,-154.2,-837.0,-0.6,547.8,-6828.0,383.7,0,672,36219190820864,190,0, 
0.3767,516.6,12.6,159.9,99.6,-9819.9,-352.8,623.1,-9830.1,-59724.6,438.3,-6276.6,-8072.7,-432.6,-9827.4,-9830.1,-9830.1,-7.2,-5.7,-9830.1,-9830.1,-0.6,545.4,-9830.1,371.1,0,678,36219190820864,191,0, 
0.3800,462.6,30.9,126.0,38.7,-4282.2,-178.2,556.5,-5365.2,-28158.0,318.3,-2271.3,-2820.3,-93.6,-5882.4,-6912.9,-5352.3,-6.9,-5.7,-4353.3,-4963.2,-0.6,419.4,-3011.7,416.1,0,684,36219190820864,192,0, 
0.3833,444.0,48.6,122.7,13.5,8861.4,1.5,515.4,9218.7,55649.1,241.2,4961.7,6835.5,326.1,8703.3,8388.6,9198.3,-6.6,-5.7,8502.9,8584.8,-0.6,342.6,6639.9,462.0,0,690,36219190820864,193,0, 
0.3867,494.4,56.4,152.4,62.1,8215.2,-68.7,563.7,9830.1,75433.8,328.8,6435.3,8898.0,243.9,9827.1,9830.1,9830.1,-6.3,-5.7,9830.1,9830.1,-0.6,425.7,3978.6,440.1,0,696,36219190820864,194,0, 
0.3900,546.0,45.0,188.7,129.0,-5267.7,-293.7,630.9,351.9,5557.5,458.4,-1172.4,-1219.5,-218.7,-541.8,-687.3,276.9,-7.2,-6.0,-276.9,-811.8,-0.6,555.9,-6813.6,400.5,0,702,36219190820864,195,0, 
0.3933,528.6,31.2,175.8,116.1,-9819.9,-368.1,626.4,-9830.1,-57427.5,448.8,-6396.0,-8220.0,-431.4,-9827.4,-9830.1,-9830.1,-6.6,-6.3,-9830.1,-9830.1,-0.9,548.4,-9830.1,378.0,0,708,36219190820864,196,0, 
0.3967,465.9,43.5,150.9,42.3,-4443.6,-192.6,557.1,-5592.0,-26750.1,318.3,-2456.4,-2976.3,-90.0,-5901.9,-6458.4,-5530.2,-7.2,-6.3,-4549.8,-5243.4,-0.6,419.4,-3099.0,413.1,0,714,36219190820864,197,0, 
0.4000,446.7,62.1,140.1,17.7,8767.8,-1.8,517.8,9093.6,56760.6,253.8,4776.0,6677.4,327.9,8654.1,8649.6,9096.6,-6.9,-6.3,8391.9,8484.3,-0.9,351.9,6573.0,460.2,0,720,36219190820864,198,0, 
0.4033,495.9,69.9,174.6,72.0,8170.2,-66.6,569.7,9830.1,76619.4,343.8,6358.5,8794.5,251.1,9827.1,9830.1,9830.1,-6.9,-5.7,9830.1,9830.1,-0.9,437.4,3943.2,452.4,0,726,36219190820864,199,0, 
0.4067,543.9,40.5,194.7,126.6,-5325.9,-304.8,635.1,69.9,6891.3,457.5,-1237.8,-1375.8,-229.2,-737.7,-55.5,18.6,-6.9,-5.4,-485.4,-1015.8,-1.5,558.3,-6819.3,394.5,0,732,36219190820864,200,0, 
0.4100,528.3,37.5,190.8,114.0,-9819.9,-369.0,637.2,-9830.1,-56464.2,461.1,-6384.6,-8257.8,-425.7,-9827.4,-9830.1,-9830.1,-6.6,-6.0,-9830.1,-9830.1,-0.3,560.1,-9830.1,386.4,0,738,36219190820864,201,0, 
0.4133,470.1,50.4,153.3,48.0,-4474.8,-188.4,565.5,-5720.1,-25268.1,325.5,-2450.7,-2914.5,-76.8,-5995.2,-5909.7,-5625.0,-6.9,-6.3,-4636.5,-5245.2,-0.9,428.1,-3061.8,421.5,0,744,36219190820864,202,0, 
0.4167,451.5,65.7,147.6,20.1,8766.3,0.3,529.8,9088.5,58539.0,257.4,4807.2,6692.7,344.4,8660.4,9065.7,9105.0,-6.6,-6.3,8403.0,8418.3,-1.2,356.1,6651.6,468.9,0,750,36219190820864,203,0, 
0.4200,496.2,71.4,164.7,69.9,8269.8,-71.7,574.8,9830.1,79212.9,332.1,6382.2,8861.7,268.8,9827.1,9830.1,9830.1,-7.2,-5.4,9830.1,9830.1,-0.9,429.0,4072.2,456.3,0,756,36219190820864,204,0, 
0.4233,543.0,53.4,190.8,133.8,-5174.4,-288.6,642.9,375.3,10003.5,456.0,-1277.4,-1347.6,-211.5,-343.2,1035.6,343.5,-6.9,-6.3,-104.4,-906.6,-0.3,559.8,-6724.2,403.2,0,762,36219190820864,205,0, 
0.4267,531.0,50.4,191.1,130.8,-9819.9,-357.0,643.5,-9830.1,-52907.4,449.7,-6270.6,-8110.5,-399.0,-9827.4,-9830.1,-9830.1,-6.6,-5.7,-9830.1,-9830.1,-0.9,557.7,-9830.1,390.9,0,768,36219190820864,206,0, 
0.4300,472.2,63.0,158.1,55.8,-4263.0,-183.6,574.2,-5493.6,-21711.3,331.2,-2439.0,-2947.8,-60.0,-5687.1,-5134.5,-5393.1,-6.6,-5.7,-4410.9,-5156.7,-0.6,427.2,-2987.7,424.5,0,774,36219190820864,207,0, 
0.4333,447.0,75.0,140.1,20.1,8847.0,-0.9,533.7,9189.6,62095.8,246.3,4869.6,6746.1,359.4,8839.8,9483.0,9197.7,-6.9,-6.0,8500.2,8489.4,-0.9,345.9,6756.0,468.6,0,780,36219190820864,208,0, 
0.4367,499.2,75.0,160.5,66.9,8380.8,-71.4,573.9,9830.1,82917.9,322.2,6588.3,9048.3,270.9,9827.1,9830.1,9830.1,-6.9,-6.0,9830.1,9830.1,-1.2,424.8,4218.6,452.1,0,786,36219190820864,209,0, 
0.4400,541.2,48.6,189.0,129.3,-5058.3,-301.8,640.5,643.2,13708.5,445.5,-1133.7,-1227.9,-198.3,212.4,2178.3,606.0,-6.9,-6.3,130.5,-590.1,-0.3,546.9,-6635.1,399.9,0,792,36219190820864,210,0, 
0.4433,522.9,35.4,172.8,116.1,-9819.9,-365.4,636.6,-9830.1,-49795.2,435.9,-6204.9,-8137.8,-413.4,-9827.4,-9830.1,-9830.1,-6.9,-6.0,-9830.1,-9830.1,-0.6,538.2,-9830.1,376.5,0,798,36219190820864,211,0, 
0.4467,463.8,47.4,146.1,49.5,-4401.9,-186.3,570.3,-5580.6,-19266.0,313.2,-2404.5,-3023.7,-72.0,-5547.6,-4609.5,-5495.7,-6.9,-6.0,-4407.3,-5227.2,-0.9,414.9,-3039.6,413.4,0,804,36219190820864,212,0, 
0.4500,445.8,63.3,134.4,19.8,8769.0,-7.2,527.1,9110.1,64022.4,239.7,4938.9,6719.7,344.1,8858.7,9674.4,9112.5,-6.9,-6.3,8442.0,8410.8,-1.2,339.6,6652.2,462.9,0,810,36219190820864,213,0, 
0.4533,492.3,67.5,161.7,67.5,8336.1,-71.7,573.9,9830.1,84622.2,315.3,6567.3,9033.0,264.6,9827.1,9830.1,9830.1,-6.9,-6.0,9830.1,9830.1,-1.2,416.7,4175.7,454.5,0,816,36219190820864,214,0, 
0.4567,542.7,45.0,181.2,134.4,-5151.9,-298.2,636.3,429.0,15338.7,446.7,-1252.2,-1256.4,-214.2,145.2,2711.4,378.3,-6.9,-6.0,-181.2,-541.8,-0.9,548.1,-6712.5,399.9,0,822,36219190820864,215,0, 
0.4600,524.4,35.7,174.0,121.2,-9819.9,-367.2,633.3,-9830.1,-48461.4,437.4,-6437.4,-8174.4,-405.9,-9827.4,-9830.1,-9830.1,-7.2,-6.0,-9830.1,-9830.1,-1.2,549.6,-9830.1,384.3,0,828,36219190820864,216,0, 
0.4633,473.7,49.8,146.7,60.6,-4544.1,-182.7,567.6,-5823.6,-18525.0,323.7,-2526.6,-3102.6,-64.2,-5695.5,-4343.1,-5692.2,-6.3,-5.7,-4602.6,-5402.4,-0.3,426.9,-3176.1,432.3,0,834,36219190820864,217,0, 
0.4667,447.6,64.5,131.1,23.4,8685.0,-4.5,525.0,8977.2,64615.2,241.5,4860.9,6548.7,349.5,8801.4,9826.5,9000.9,-6.9,-6.3,8378.7,8278.2,-1.2,349.2,6572.4,470.1,0,840,36219190820864,218,0, 
0.4700,490.2,64.2,151.5,71.1,8307.6,-74.7,564.6,9830.1,85437.3,324.3,6475.2,8844.6,270.3,9827.1,9830.1,9830.1,-6.9,-6.0,9830.1,9830.1,-0.9,427.2,4139.4,455.7,0,846,36219190820864,219,0, 
0.4733,541.2,47.1,182.4,131.1,-5202.0,-298.5,633.9,219.6,16302.0,450.3,-1314.6,-1380.0,-210.6,219.0,3260.4,169.5,-7.2,-6.0,-540.6,-711.9,-0.9,558.9,-6699.3,406.2,0,852,36219190820864,220,0, 
0.4767,524.7,37.5,171.6,121.8,-9819.9,-362.4,630.6,-9830.1,-47720.4,447.3,-6543.0,-8292.9,-415.2,-9827.4,-9830.1,-9830.1,-7.2,-6.0,-9830.1,-9830.1,-1.2,555.6,-9830.1,384.6,0,858,36219190820864,221,0, 
0.4800,465.3,42.9,144.6,51.0,-4734.6,-189.3,565.2,-6076.2,-18228.6,325.5,-2603.4,-3338.4,-86.1,-5775.6,-4166.4,-5968.8,-6.3,-5.7,-4880.7,-5730.6,-0.3,435.3,-3239.7,423.0,0,864,36219190820864,222,0, 
0.4833,445.2,52.2,127.8,21.9,8593.2,3.6,517.2,8802.6,64467.0,248.1,4665.3,6408.0,327.6,8692.2,9830.1,8832.6,-6.9,-6.3,8238.0,8010.6,-0.3,352.2,6453.9,461.1,0,870,36219190820864,223,0, 
0.4867,492.9,58.2,157.2,71.1,8226.3,-68.4,561.3,9830.1,85215.0,331.8,6425.1,8789.1,256.8,9827.1,9830.1,9830.1,-6.6,-6.0,9830.1,9830.1,-0.9,436.2,4031.7,462.0,0,876,36219190820864,224,0, 
0.4900,538.2,43.8,177.6,129.6,-5307.3,-301.2,624.3,-116.7,16227.9,450.0,-1449.3,-1311.6,-213.3,-116.1,3422.1,-144.9,-6.9,-5.7,-1067.7,-983.1,-0.9,557.7,-6727.5,405.0,0,882,36219190820864,225,0, 
0.4933,520.8,28.8,171.0,118.5,-9819.9,-363.9,627.3,-9830.1,-48165.0,450.0,-6780.0,-8384.7,-416.7,-9827.4,-9830.1,-9830.1,-6.9,-6.0,-9830.1,-9830.1,-0.9,557.7,-9830.1,389.7,0,888,36219190820864,226,0, 
0.4967,459.6,38.7,138.9,51.0,-4935.0,-184.2,555.6,-6388.2,-19266.0,324.3,-2880.9,-3410.1,-92.4,-6104.4,-4077.6,-6292.5,-6.9,-6.3,-5466.9,-5940.3,-0.9,429.6,-3403.8,422.4,0,894,36219190820864,227,0, 
0.5000,437.1,54.0,130.2,14.4,8470.2,-1.8,512.1,8595.3,63281.4,245.7,4482.6,6222.6,331.5,8515.8,9830.1,8613.0,-7.2,-6.0,8001.3,7915.2,-0.6,352.8,6348.6,465.0,0,900,36219190820864,228,0, 
0.5033,483.0,57.0,156.9,65.7,8171.7,-73.2,560.1,9830.1,84251.7,327.6,6132.0,8718.9,264.0,9827.1,9830.1,9830.1,-7.2,-6.0,9830.1,9830.1,-0.6,431.1,3970.5,452.4,0,906,36219190820864,229,0, 
0.5067,536.7,46.5,186.0,129.6,-5437.2,-299.1,627.9,-549.6,15042.3,459.3,-1739.4,-1420.5,-199.8,-206.7,3366.6,-560.4,-6.9,-6.0,-1416.9,-1221.0,-0.6,565.5,-6774.0,400.5,0,912,36219190820864,230,0, 
0.5100,522.9,40.5,176.4,120.0,-9819.9,-365.7,631.5,-9830.1,-49350.6,453.9,-7077.3,-8424.6,-415.8,-9827.4,-9830.1,-9830.1,-6.3,-5.7,-9830.1,-9830.1,-0.3,563.4,-9830.1,383.7,0,918,36219190820864,231,0, 
0.5133,463.5,44.4,141.6,50.7,-5150.4,-182.1,566.4,-6666.3,-20822.1,329.4,-3101.1,-3465.0,-69.6,-6215.7,-4345.5,-6592.2,-6.9,-5.7,-5780.4,-6117.0,-0.9,438.0,-3479.7,429.6,0,924,36219190820864,232,0, 
0.5167,444.0,54.0,134.4,17.4,8360.1,-4.8,520.5,8397.0,61651.2,254.7,4230.6,6130.2,348.9,8439.9,9729.9,8416.2,-6.3,-6.0,7692.9,7805.1,-0.9,360.3,6287.4,464.7,0,930,36219190820864,233,0, 
0.5200,486.0,59.1,152.1,58.2,8058.9,-84.3,557.4,9830.1,82917.9,327.9,5881.8,8407.2,273.6,9827.1,9830.1,9830.1,-7.2,-5.7,9830.1,9830.1,-0.9,429.0,3917.7,450.3,0,936,36219190820864,234,0, 
0.5233,535.5,43.8,180.9,117.9,-5555.1,-311.4,622.2,-931.2,14153.1,447.3,-1872.3,-1593.0,-205.5,-422.1,2884.2,-894.0,-7.2,-6.0,-1862.7,-1281.3,-1.2,558.0,-6765.3,399.0,0,942,36219190820864,235,0, 
0.5267,522.0,36.6,176.7,110.7,-9819.9,-379.2,620.4,-9830.1,-50832.6,452.1,-7279.5,-8791.5,-414.3,-9827.4,-9830.1,-9830.1,-6.6,-6.0,-9830.1,-9830.1,-0.6,552.3,-9830.1,373.5,0,948,36219190820864,236,0, 
0.5300,466.8,45.3,150.0,48.6,-5311.8,-206.7,558.3,-6993.9,-22674.6,333.0,-3392.7,-3801.0,-83.7,-6415.8,-4734.3,-6913.5,-6.6,-6.0,-6176.7,-6270.3,-0.3,429.3,-3607.5,413.1,0,954,36219190820864,237,0, 
0.5333,450.3,72.0,138.9,21.6,8252.7,-15.9,519.0,8178.3,59798.7,259.5,3966.9,5914.5,343.5,8290.5,9536.4,8170.2,-7.2,-6.3,7473.0,7653.0,-0.6,351.9,6161.7,462.6,0,960,36219190820864,238,0, 
0.5367,495.6,77.4,167.4,71.4,7979.4,-73.5,564.0,9830.1,80917.2,339.6,5638.5,8294.7,273.0,9827.1,9830.1,9830.1,-6.9,-6.3,9830.1,9830.1,-0.6,432.9,3859.5,451.5,0,966,36219190820864,239,0, 
0.5400,543.3,55.2,181.8,128.7,-5679.3,-303.6,629.7,-1245.0,11930.1,466.5,-2049.6,-1601.7,-205.2,-663.9,2274.0,-1331.7,-6.9,-5.7,-2368.5,-1623.9,-0.6,552.9,-6836.7,398.1,0,972,36219190820864,240,0, 
0.5433,525.3,38.1,170.4,115.8,-9819.9,-392.1,624.0,-9830.1,-53500.2,457.2,-7502.1,-8794.8,-419.1,-9827.4,-9830.1,-9830.1,-6.9,-5.7,-9830.1,-9830.1,-0.6,545.7,-9830.1,361.8,0,978,36219190820864,241,0, 
0.5467,467.1,41.4,138.6,48.0,-5561.1,-205.5,552.9,-7343.7,-25712.7,340.8,-3554.1,-3787.8,-93.6,-6685.8,-5423.1,-7237.5,-6.6,-6.3,-6597.3,-6581.7,-0.9,419.1,-3751.8,405.6,0,984,36219190820864,242,0, 
0.5500,447.3,60.0,136.5,18.0,8077.8,-15.6,518.4,7845.0,56316.0,267.9,3711.6,5657.7,329.1,8075.4,9145.8,7903.2,-7.2,-6.3,7106.7,7372.8,-0.9,341.4,5970.3,449.4,0,990,36219190820864,243,0, 
0.5533,492.3,63.9,155.4,66.3,7834.5,-87.6,558.3,9830.1,77582.7,343.2,5243.7,7849.5,259.5,9827.1,9830.1,9830.1,-7.2,-5.7,9830.1,9830.1,-0.9,414.9,3647.7,438.0,0,996,36219190820864,244,0, 
0.5567,534.9,40.8,182.1,128.1,-5879.1,-311.1,625.8,-1874.7,8299.2,454.8,-2408.1,-2011.8,-224.7,-1101.9,1121.1,-1788.0,-6.6,-5.4,-2952.9,-2052.3,-0.6,542.7,-6948.6,390.0,0,1002,36219190820864,245,0, 
0.5600,525.6,40.2,186.9,128.1,-9819.9,-368.4,631.5,-9830.1,-57279.3,444.6,-7791.3,-9201.3,-431.4,-9827.4,-9830.1,-9830.1,-6.9,-5.7,-9830.1,-9830.1,-0.6,558.9,-9830.1,377.7,0,1008,36219190820864,246,0, 
0.5633,466.5,44.4,158.7,62.7,-5852.4,-189.6,566.1,-7765.2,-30232.8,315.3,-3840.0,-4137.3,-107.1,-7001.4,-6337.8,-7650.0,-6.9,-5.7,-6967.5,-6878.4,-0.9,438.6,-3971.1,418.5,0,1014,36219190820864,247,0, 
0.5667,442.8,63.0,151.5,35.4,7830.9,-5.1,526.8,7461.3,51721.8,236.7,3408.9,5184.6,310.5,7806.3,8562.6,7516.5,-6.9,-5.7,6710.1,7077.0,-0.6,371.7,5790.3,466.8,0,1020,36219190820864,248,0, 
0.5700,488.4,69.0,173.1,85.2,7612.5,-68.7,569.1,9830.1,72469.8,318.6,4841.4,7414.8,236.7,9827.1,9830.1,9830.1,-7.2,-6.0,9830.1,9830.1,-1.2,451.2,3444.9,459.3,0,1026,36219190820864,249,0, 
0.5733,540.0,56.7,194.1,147.9,-6153.6,-291.3,642.3,-2518.2,3112.2,446.7,-2676.0,-2374.5,-233.1,-1791.9,-325.8,-2550.6,-7.2,-6.0,-3695.1,-2563.5,-0.6,585.0,-7065.3,413.7,0,1032,36219190820864,250,0, 
0.5767,531.3,42.9,186.6,141.3,-9819.9,-367.2,639.0,-9830.1,-62910.9,450.9,-8158.8,-9701.4,-448.8,-9827.4,-9830.1,-9830.1,-6.6,-6.0,-9830.1,-9830.1,-0.9,587.4,-9830.1,395.7,0,1038,36219190820864,251,0, 
0.5800,473.7,52.8,154.8,73.2,-6072.0,-191.7,566.7,-8146.5,-35938.5,330.9,-4155.3,-4506.3,-115.2,-7512.9,-7329.6,-8066.4,-6.6,-5.7,-7481.4,-7184.7,-0.9,457.5,-4168.5,439.2,0,1044,36219190820864,252,0, 
0.5833,452.4,69.6,145.8,44.4,7644.6,-2.1,528.3,7101.9,46016.1,260.4,3038.4,4982.7,299.7,7392.0,7795.8,7144.2,-6.3,-6.3,6250.8,6913.8,-0.6,379.2,5629.8,482.4,0,1050,0,253,0, 
0.5867,495.9,67.5,172.2,87.6,7402.2,-60.9,565.2,9830.1,67431.0,346.2,4478.7,7005.0,237.0,9827.1,9830.1,9830.1,-6.9,-6.3,9830.1,9830.1,-0.9,455.4,3315.0,474.0,0,1056,0,254,0, 
0.5900,547.2,54.3,198.0,153.9,-6295.2,-286.2,636.3,-2994.0,-1852.5,464.1,-2885.4,-2517.9,-246.3,-2266.2,-1849.5,-2944.2,-6.9,-6.0,-4153.8,-2643.0,-0.9,580.2,-7098.6,423.0,0,1062,344939577344,255,0, 
0.5933,530.7,34.2,188.1,141.3,-9819.9,-366.0,635.7,-9830.1,-67801.5,466.2,-8458.5,-9817.8,-454.5,-9827.4,-9830.1,-9830.1,-6.9,-5.7,-9830.1,-9830.1,-0.9,575.1,-9830.1,396.6,0,1068,344939577344,0,0, 
0.5967,475.8,39.6,159.3,75.9,-6269.1,-174.6,572.4,-8392.5,-41125.5,347.7,-4377.6,-4859.4,-129.3,-7760.7,-8299.8,-8300.7,-6.3,-6.0,-7673.4,-7244.4,-0.6,452.1,-4245.9,436.8,0,1074,36219190820864,1,0, 
0.6000,450.6,57.9,143.7,34.5,7471.8,-0.6,522.9,6843.6,40829.1,263.7,3000.0,4704.6,288.3,7146.3,6831.6,6903.6,-6.9,-6.0,6118.2,6849.6,-0.3,364.2,5529.3,469.2,0,1080,36219190820864,2,0, 
0.6033,492.9,57.0,172.8,77.7,7216.8,-61.5,566.7,9830.1,62540.4,333.6,4380.9,6714.6,225.6,9827.1,9830.1,9830.1,-6.9,-6.0,9830.1,9830.1,-1.2,441.6,3199.8,462.0,0,1086,36219190820864,3,0, 
0.6067,540.3,37.5,194.1,140.7,-6358.8,-297.0,629.4,-3137.4,-6224.4,453.0,-2867.7,-2616.6,-244.5,-2540.1,-3367.2,-3141.0,-6.9,-6.0,-4227.9,-2651.7,-0.6,561.6,-7092.6,408.3,0,1092,36219190820864,4,0, 
0.6100,529.5,33.0,191.7,135.9,-9819.9,-367.5,636.6,-9830.1,-72173.4,460.5,-8606.7,-9817.8,-463.5,-9827.4,-9830.1,-9830.1,-6.3,-6.0,-9830.1,-9830.1,-0.9,568.2,-9830.1,390.9,0,1098,36219190820864,5,0, 
0.6133,471.9,43.8,157.2,62.4,-6285.3,-197.7,564.9,-8420.4,-45349.2,329.4,-4496.7,-4934.1,-135.9,-7891.8,-9156.0,-8359.8,-6.9,-6.0,-7703.1,-7303.5,-0.3,435.0,-4284.3,421.5,0,1104,36219190820864,6,0, 
0.6167,446.4,65.1,140.7,25.5,7427.1,-9.9,515.1,6838.5,36679.5,244.8,2767.8,4738.8,286.8,7036.8,5749.5,6856.2,-6.9,-6.3,6136.2,6774.9,-0.9,356.1,5490.9,460.8,0,1110,36219190820864,7,0, 
0.6200,493.5,54.6,168.9,77.7,7188.6,-64.2,561.9,9830.1,58761.3,327.6,4108.2,6636.9,228.6,9827.1,9830.1,9830.1,-6.9,-6.0,9830.1,9830.1,-0.9,429.6,3151.2,458.1,0,1116,36219190820864,8,0, 
0.6233,541.8,44.1,197.4,138.3,-6362.7,-290.4,630.9,-3142.2,-10003.5,457.8,-3058.5,-2425.5,-237.9,-2667.3,-4729.5,-3171.0,-6.9,-5.7,-4100.1,-2777.4,-0.9,560.1,-7133.7,402.3,0,1122,36219190820864,9,0, 
0.6267,526.8,30.3,189.9,132.9,-9819.9,-368.4,631.2,-9830.1,-76174.8,457.2,-8753.7,-9817.8,-467.4,-9827.4,-9830.1,-9830.1,-7.2,-5.1,-9830.1,-9830.1,-0.9,564.0,-9830.1,375.9,0,1128,36219190820864,10,0, 
0.6300,468.3,43.2,154.8,57.3,-6312.6,-189.9,565.5,-8462.7,-49498.8,329.1,-4590.3,-4785.6,-127.2,-7966.2,-9808.8,-8378.4,-6.6,-6.0,-7609.2,-7329.3,-0.6,436.2,-4403.4,415.5,0,1134,36219190820864,11,0, 
0.6333,447.6,55.5,144.9,26.7,7356.3,-12.3,519.9,6762.6,32826.3,258.6,2718.9,4776.9,292.2,6949.5,4689.9,6825.6,-6.9,-5.4,6239.7,6772.8,-0.9,357.3,5421.9,465.9,0,1140,36219190820864,12,0, 
0.6367,495.6,62.7,169.2,73.2,7132.5,-72.3,561.3,9830.1,55204.5,330.9,3949.8,6579.3,225.9,9827.1,9830.1,9830.1,-6.6,-6.0,9830.1,9830.1,-0.9,435.0,3116.1,454.2,0,1146,36219190820864,13,0, 
0.6400,546.6,53.4,198.6,140.4,-6344.1,-299.7,625.2,-3177.9,-13782.6,453.9,-2997.0,-2380.2,-232.5,-2795.4,-5972.7,-3200.7,-6.3,-6.0,-4232.1,-2773.5,-0.3,559.5,-7156.2,397.5,0,1152,36219190820864,14,0, 
0.6433,535.5,50.4,196.2,134.1,-9819.9,-358.8,635.7,-9830.1,-81065.4,465.6,-8059.2,-9303.6,-451.2,-9827.4,-9830.1,-9830.1,-7.2,-6.0,-9830.1,-9830.1,-0.6,568.2,-9830.1,384.9,0,1158,36219190820864,15,0, 
0.6467,476.4,55.5,169.5,66.0,-6353.4,-189.3,571.2,-8477.1,-54093.0,341.7,-4151.7,-4397.4,-117.6,-8078.7,-9830.1,-8381.1,-6.9,-5.7,-7421.7,-7141.5,-0.9,445.5,-4410.3,426.9,0,1164,36219190820864,16,0, 
0.6500,452.1,66.0,147.3,23.4,7381.5,-13.8,519.3,6767.4,28454.4,257.7,3248.1,5294.1,293.1,6827.7,3520.5,6864.3,-6.9,-6.0,6531.0,7011.0,-0.9,357.6,5465.7,462.6,0,1170,36219190820864,17,0, 
0.6533,492.9,64.5,173.1,69.9,7218.6,-66.9,559.8,9830.1,51721.8,333.9,4232.4,6895.8,223.5,9827.1,9830.1,9830.1,-7.2,-6.0,9830.1,9830.1,-0.9,432.0,3177.9,447.6,0,1176,36219190820864,18,0, 
0.6567,537.6,43.8,198.6,132.6,-6208.8,-284.7,629.7,-2904.6,-16524.3,459.6,-2531.1,-1954.8,-243.3,-2849.1,-6879.9,-2844.3,-6.9,-5.7,-3605.1,-2346.9,-0.9,561.3,-7057.5,401.4,0,1182,36219190820864,19,0, 
0.6600,522.6,33.3,190.8,119.4,-9819.9,-368.1,630.9,-9830.1,-82547.4,459.6,-8372.4,-9609.9,-463.2,-9827.4,-9817.8,-9830.1,-6.9,-5.7,-9830.1,-9830.1,-0.9,569.1,-9830.1,374.7,0,1188,36219190820864,20,0, 
0.6633,468.0,42.9,166.2,61.8,-6258.0,-176.4,572.1,-8297.7,-55426.8,342.6,-4275.9,-4473.3,-126.0,-8104.8,-9830.1,-8161.5,-7.2,-6.0,-7290.3,-7174.2,-0.6,445.2,-4365.6,421.5,0,1194,36219190820864,21,0, 
0.6667,438.9,60.0,138.0,20.1,7493.1,-1.2,525.0,6987.0,27342.9,258.6,3177.9,5218.5,287.7,6822.3,2798.7,7094.1,-7.2,-5.7,6615.9,6971.1,-0.9,358.8,5496.9,456.3,0,1200,36219190820864,22,0, 
0.6700,483.0,61.5,157.8,63.0,7482.9,-71.7,558.3,9830.1,50980.8,324.9,4387.5,6918.9,218.4,9827.1,9830.1,9830.1,-7.2,-6.0,9830.1,9830.1,-0.9,429.0,3287.4,448.5,0,1206,36219190820864,23,0, 
0.6733,535.5,36.9,189.9,133.5,-6034.8,-287.7,633.6,-2445.6,-16524.3,464.1,-2510.1,-1928.4,-226.5,-2547.6,-7449.6,-2389.2,-6.6,-5.7,-3298.2,-2303.4,-0.6,567.3,-6945.6,403.8,0,1212,36219190820864,24,0, 
0.6767,518.4,26.1,186.6,128.4,-9819.9,-368.1,637.2,-9830.1,-82547.4,465.6,-8239.5,-9548.1,-467.1,-9827.4,-9633.0,-9830.1,-6.9,-6.3,-9830.1,-9830.1,-0.6,568.5,-9830.1,381.6,0,1218,36219190820864,25,0, 
0.6800,468.0,38.1,159.3,62.1,-6122.1,-183.9,574.5,-8046.9,-55649.1,341.7,-4049.7,-4327.8,-126.6,-7931.1,-9830.1,-7923.6,-6.6,-5.7,-7058.1,-7065.6,-0.6,447.6,-4266.9,418.5,0,1224,36219190820864,26,0, 
0.6833,447.0,58.8,145.5,26.4,7669.5,1.2,531.9,7262.4,27491.1,257.7,3503.4,5325.0,291.0,7017.0,2465.7,7335.9,-6.3,-6.0,6878.7,7098.6,-1.2,357.6,5643.0,467.7,0,1230,36219190820864,27,0, 
0.6867,497.7,60.3,162.9,72.0,7765.8,-57.6,576.6,9830.1,51277.2,331.8,4843.8,7129.5,235.8,9827.1,9830.1,9830.1,-6.3,-6.0,9830.1,9830.1,-0.6,435.3,3406.8,460.5,0,1236,36219190820864,28,0, 
0.6900,541.2,44.4,192.0,131.4,-5848.2,-279.6,638.1,-1897.2,-16005.6,447.0,-2064.9,-1808.4,-233.7,-2168.7,-7602.9,-1811.1,-6.9,-5.7,-2635.8,-1905.0,-0.9,553.2,-6895.8,399.6,0,1242,36219190820864,29,0, 
0.6933,531.0,33.9,187.8,130.8,-9819.9,-357.9,638.7,-9830.1,-81954.6,453.3,-7850.7,-9417.9,-466.5,-9827.4,-9573.3,-9830.1,-6.9,-5.7,-9830.1,-9830.1,-0.6,561.3,-9830.1,387.6,0,1248,36219190820864,30,0, 
0.6967,479.1,50.4,164.7,69.3,-5975.4,-173.7,575.1,-7784.1,-55056.3,330.3,-3714.0,-4313.4,-128.4,-7759.5,-9830.1,-7692.9,-6.9,-6.3,-6606.0,-6962.7,-0.9,435.6,-4211.1,427.8,0,1254,36219190820864,31,0, 
0.7000,460.8,78.0,156.9,32.1,7764.9,17.4,536.7,7531.5,28306.2,258.0,3806.7,5333.4,306.6,7200.0,2434.2,7566.0,-6.9,-6.0,7305.6,7151.4,-0.9,360.6,5619.3,469.8,0,1260,36219190820864,32,0, 
0.7033,502.2,70.5,180.3,75.3,7898.7,-44.1,575.1,9830.1,52240.5,329.7,5155.5,7232.7,248.4,9827.1,9830.1,9830.1,-7.2,-6.0,9830.1,9830.1,-1.2,434.7,3518.4,459.0,0,1266,36219190820864,33,0, 
0.7067,549.6,56.7,212.1,142.8,-5676.0,-276.3,639.6,-1347.6,-14820.0,450.6,-1810.8,-1704.3,-211.2,-1941.3,-7499.4,-1368.0,-6.6,-5.4,-1944.3,-1741.8,-0.6,561.3,-6829.8,407.1,0,1272,36219190820864,34,0, 
0.7100,533.4,38.4,201.9,138.0,-9819.9,-353.7,645.3,-9830.1,-80917.2,461.1,-7571.1,-9400.2,-440.1,-9827.4,-9595.5,-9830.1,-6.6,-6.0,-9830.1,-9830.1,-0.9,566.4,-9830.1,381.0,0,1278,36219190820864,35,0, 
0.7133,476.7,55.2,170.4,65.4,-5890.2,-179.7,576.3,-7579.2,-54315.3,333.0,-3531.3,-4260.3,-112.2,-7711.5,-9830.1,-7540.2,-6.6,-6.0,-6378.3,-6961.5,-0.3,437.1,-4196.7,415.2,0,1284,36219190820864,36,0, 
0.7167,454.2,66.9,153.9,27.9,7849.2,5.1,532.8,7697.1,28602.6,252.9,3979.5,5535.6,311.1,7203.3,2526.3,7660.5,-6.6,-6.0,7474.8,7174.8,-0.3,358.2,5681.4,451.5,0,1290,36219190820864,37,0, 
0.7200,500.1,73.5,180.0,68.7,7963.8,-50.7,569.4,9830.1,53055.6,329.7,5295.0,7449.9,252.6,9827.1,9830.1,9830.1,-6.9,-6.0,9830.1,9830.1,-0.9,427.2,3622.5,438.0,0,1296,36219190820864,38,0, 
0.7233,543.9,42.3,201.3,126.6,-5561.1,-291.0,629.4,-881.1,-13634.4,451.2,-1709.4,-1471.8,-219.9,-1771.5,-7284.6,-1053.6,-6.9,-5.7,-1556.4,-1623.6,-0.6,552.9,-6763.8,386.4,0,1302,36219190820864,39,0, 
0.7267,525.9,33.0,197.1,122.1,-9819.9,-370.5,632.4,-9830.1,-79435.2,459.0,-7369.2,-9051.9,-453.0,-9827.4,-9650.4,-9830.1,-6.9,-5.7,-9830.1,-9830.1,-0.9,555.6,-9830.1,366.6,0,1308,36219190820864,40,0, 
0.7300,466.5,35.4,159.0,49.5,-5755.8,-197.7,559.5,-7297.5,-52833.3,331.5,-3321.6,-4073.4,-125.4,-7620.0,-9830.1,-7266.9,-6.3,-6.3,-6085.8,-6835.2,-0.6,426.3,-4039.8,400.2,0,1314,36219190820864,41,0, 
0.7333,441.6,61.5,150.6,19.8,7947.9,-0.6,519.0,7970.4,30677.4,253.5,4268.7,5587.8,298.5,7321.2,2994.3,7960.2,-7.2,-6.3,7694.4,7296.6,-0.9,343.8,5865.0,450.0,0,1320,36219190820864,42,0, 
0.7367,484.2,66.0,169.8,63.3,8166.6,-66.3,561.3,9830.1,55649.1,325.2,5720.7,7644.6,252.6,9827.1,9830.1,9830.1,-6.9,-5.7,9830.1,9830.1,-0.6,422.1,3804.0,441.0,0,1326,36219190820864,43,0, 
0.7400,538.2,43.5,197.7,128.7,-5285.1,-280.2,633.3,-275.7,-10596.3,450.9,-1256.4,-1239.3,-211.2,-1390.8,-6665.7,-372.0,-6.9,-6.0,-976.8,-1038.9,-0.9,551.4,-6607.8,404.7,0,1332,36219190820864,44,0, 
0.7433,527.7,51.6,192.3,128.4,-9819.9,-356.1,640.8,-9830.1,-76323.0,456.3,-6994.5,-8828.7,-449.1,-9827.4,-9818.7,-9830.1,-6.9,-6.0,-9830.1,-9830.1,-0.9,554.1,-9830.1,382.8,0,1338,36219190820864,45,0, 
0.7467,469.8,52.5,166.8,62.4,-5465.4,-180.9,576.6,-6912.6,-49424.7,335.7,-3009.9,-3880.5,-102.3,-7393.2,-9830.1,-6904.2,-7.2,-6.0,-5731.5,-6477.0,-0.9,431.4,-3894.6,419.7,0,1344,36219190820864,46,0, 
0.7500,449.4,69.9,149.7,24.9,8132.4,0.6,540.3,8337.6,34456.5,256.2,4527.3,5760.9,328.5,7587.0,3792.3,8301.0,-6.9,-6.0,7909.2,7635.9,-0.9,347.4,6010.2,465.3,0,1350,36219190820864,47,0, 
0.7533,496.5,79.2,177.9,70.2,8436.9,-49.5,572.7,9830.1,59946.9,326.7,6171.0,8162.1,271.2,9827.1,9830.1,9830.1,-6.9,-5.7,9830.1,9830.1,-0.9,426.9,4050.6,454.2,0,1356,36219190820864,48,0, 
0.7567,541.2,54.6,199.5,127.2,-4954.8,-273.0,640.5,569.7,-6076.2,459.0,-888.3,-960.9,-204.9,-759.0,-5616.3,418.8,-7.2,-5.7,-473.1,-558.3,-0.6,549.3,-6509.1,399.3,0,1362,36219190820864,49,0, 
0.7600,528.9,47.4,201.9,130.2,-9819.9,-344.4,648.0,-9830.1,-71580.6,462.9,-6448.8,-8377.5,-413.4,-9827.4,-9830.1,-9830.1,-6.6,-5.4,-9830.1,-9830.1,-0.9,558.0,-9830.1,384.3,0,1368,36219190820864,50,0, 
0.7633,473.7,48.6,169.2,66.6,-5222.1,-174.6,585.0,-6456.3,-44756.4,345.0,-2579.7,-3495.3,-86.7,-7096.2,-9830.1,-6514.5,-6.6,-5.7,-5300.1,-6213.9,-0.3,434.4,-3771.6,423.0,0,1374,36219190820864,51,0, 
0.7667,447.9,66.0,150.9,27.9,8254.5,5.1,539.7,8650.8,38976.6,257.7,4810.2,6166.8,335.4,7835.4,4796.1,8559.3,-6.6,-6.3,8179.8,7743.0,-0.6,348.6,6140.1,471.9,0,1380,36219190820864,52,0, 
0.7700,489.0,71.1,171.3,74.1,8555.7,-47.7,582.3,9830.1,64244.7,337.8,6567.9,8654.7,287.1,9827.1,9830.1,9830.1,-6.9,-6.0,9830.1,9830.1,-0.6,427.5,4223.4,466.8,0,1386,36219190820864,53,0, 
0.7733,547.5,65.7,199.8,138.0,-4785.9,-268.2,648.6,1158.0,-1556.1,465.0,-695.1,-690.3,-178.2,-205.5,-4370.1,923.4,-6.9,-5.4,-2.7,-155.1,-0.9,558.6,-6360.6,420.9,0,1392,36219190820864,54,0, 
0.7767,534.0,54.9,185.7,127.5,-9819.9,-349.8,648.6,-9830.1,-67356.9,467.1,-6310.8,-8268.0,-407.4,-9827.4,-9830.1,-9830.1,-6.9,-6.0,-9830.1,-9830.1,-0.6,563.1,-9830.1,387.9,0,1398,36219190820864,55,0, 
0.7800,476.1,63.3,150.9,59.4,-5169.3,-176.1,578.1,-6222.9,-40829.1,340.8,-2528.7,-3489.3,-94.5,-6866.1,-9330.0,-6255.9,-6.6,-5.7,-5105.4,-6013.8,-0.9,428.7,-3670.2,423.0,0,1404,36219190820864,56,0, 
0.7833,451.2,69.9,138.0,19.5,8235.0,9.0,536.1,8798.4,42978.0,262.8,4869.6,6016.2,333.6,7986.9,5698.8,8729.4,-6.9,-6.3,8236.2,7851.9,-0.9,348.6,6193.5,465.3,0,1410,36219190820864,57,0, 
0.7867,499.5,81.3,156.6,62.4,8628.3,-50.7,571.5,9830.1,68394.3,326.4,6705.9,8776.8,273.6,9827.1,9830.1,9830.1,-7.2,-6.0,9830.1,9830.1,-0.9,414.3,4337.4,457.5,0,1416,36219190820864,58,0, 
0.7900,545.4,52.8,177.6,118.2,-4671.3,-288.3,636.9,1457.4,2815.8,447.0,-732.9,-844.8,-206.4,113.4,-2896.2,1307.7,-6.9,-5.7,340.2,104.1,-1.2,541.8,-6312.9,395.4,0,1422,36219190820864,59,0, 
0.7933,532.8,45.0,176.1,110.7,-9819.9,-367.5,639.0,-9830.1,-63355.5,452.1,-6359.1,-8280.0,-430.2,-9827.4,-9830.1,-9830.1,-6.9,-6.0,-9830.1,-9830.1,-0.6,542.7,-9830.1,370.2,0,1428,36219190820864,60,0, 
0.7967,474.0,47.4,146.1,46.2,-5101.2,-200.7,574.2,-6177.9,-37420.5,323.1,-2467.2,-3482.7,-108.0,-6783.0,-8652.9,-6177.6,-6.9,-6.3,-4848.0,-5987.4,-0.3,417.6,-3688.5,409.5,0,1434,36219190820864,61,0, 
0.8000,450.6,69.0,133.5,14.1,8292.3,-3.6,531.0,8821.8,46164.3,250.8,4910.7,6082.8,321.6,8018.4,6639.0,8765.1,-6.9,-6.0,8336.1,7866.6,-0.9,333.6,6225.9,457.5,0,1440,36219190820864,62,0, 
0.8033,492.9,71.4,157.5,60.6,8655.3,-65.4,565.8,9830.1,71728.8,317.4,6830.4,8783.4,281.4,9827.1,9830.1,9830.1,-7.2,-6.3,9830.1,9830.1,-0.9,408.3,4386.0,453.3,0,1446,36219190820864,63,0, 
0.8067,542.1,61.5,181.2,128.4,-4661.4,-287.4,634.5,1561.5,5853.9,450.0,-643.8,-818.1,-196.2,141.6,-1462.2,1376.4,-6.9,-5.4,314.7,166.8,-0.9,544.2,-6266.4,401.1,0,1452,36219190820864,64,0, 
0.8100,528.0,48.9,174.3,120.6,-9819.9,-370.8,636.9,-9830.1,-60539.7,453.9,-6282.3,-8302.5,-427.8,-9827.4,-9830.1,-9830.1,-6.9,-6.0,-9830.1,-9830.1,-0.6,548.1,-9830.1,376.8,0,1458,36219190820864,65,0, 
0.8133,475.8,58.2,144.9,60.0,-5204.1,-193.2,572.1,-6280.8,-34975.2,331.5,-2572.8,-3546.3,-99.0,-6855.9,-8088.6,-6242.4,-6.6,-5.7,-5049.0,-6057.9,-0.6,434.1,-3705.6,418.5,0,1464,36219190820864,66,0, 
0.8167,447.3,69.9,125.7,18.0,8183.1,-3.0,525.0,8730.6,48313.2,255.0,4740.3,6054.3,319.5,7974.9,7184.1,8707.5,-6.9,-6.3,8174.1,7752.6,-0.9,347.7,6210.9,454.2,0,1470,36219190820864,67,0, 
0.8200,491.7,79.5,156.3,68.7,8680.2,-48.9,565.5,9830.1,74025.9,330.3,6670.8,8917.8,276.6,9827.1,9830.1,9830.1,-6.9,-5.4,9830.1,9830.1,-0.9,428.4,4445.7,459.9,0,1476,36219190820864,68,0, 
0.8233,541.8,66.6,181.2,133.5,-4674.0,-282.0,634.5,1339.5,7780.5,458.7,-787.5,-756.9,-193.2,15.9,-693.3,1229.4,-6.6,-5.7,53.7,-167.1,-0.9,558.9,-6310.8,411.9,0,1482,36219190820864,69,0, 
0.8267,533.7,63.0,179.7,126.6,-9819.9,-353.4,637.8,-9830.1,-58761.3,459.6,-6341.4,-8115.3,-421.5,-9827.4,-9830.1,-9830.1,-6.6,-6.0,-9830.1,-9830.1,-0.9,562.5,-9830.1,388.2,0,1488,36219190820864,70,0, 
0.8300,465.3,46.2,147.3,61.5,-5271.0,-185.1,567.0,-6448.2,-33715.5,337.2,-2634.3,-3521.4,-100.8,-6957.3,-7690.8,-6452.1,-6.6,-5.7,-5485.2,-6354.6,-0.6,435.3,-3759.0,417.0,0,1494,36219190820864,71,0, 
0.8333,449.1,67.8,130.8,20.1,8154.0,0.0,519.9,8615.1,49795.2,253.5,4688.1,6135.3,331.8,7891.8,7587.3,8566.2,-6.9,-6.3,7963.8,7524.3,-0.3,351.3,6179.7,457.8,0,1500,36219190820864,72,0, 
0.8367,491.1,68.1,155.7,64.8,8666.4,-48.9,562.5,9830.1,75285.6,326.4,6658.2,8936.7,282.0,9827.1,9830.1,9830.1,-6.9,-5.7,9830.1,9830.1,-0.9,426.3,4422.0,449.7,0,1506,36219190820864,73,0, 
0.8400,548.4,57.9,178.2,134.7,-4641.9,-271.2,634.2,1167.6,9484.8,455.7,-810.0,-650.7,-185.4,-27.0,0.0,1077.3,-6.6,-5.7,-123.6,-405.0,-0.6,558.6,-6255.9,402.9,0,1512,36219190820864,74,0, 
0.8433,539.4,47.7,177.3,129.0,-9819.9,-344.1,640.8,-9830.1,-57205.2,464.4,-6453.9,-8278.8,-408.6,-9827.4,-9830.1,-9830.1,-6.6,-6.0,-9830.1,-9830.1,-0.6,564.6,-9830.1,375.9,0,1518,36219190820864,75,0, 
0.8467,474.3,56.4,141.3,60.0,-5230.5,-177.3,571.5,-6489.3,-31937.1,337.8,-2700.0,-3698.4,-103.5,-6885.3,-7299.6,-6498.9,-6.9,-5.7,-5438.1,-6488.4,-0.9,439.8,-3735.0,417.9,0,1524,36219190820864,76,0, 
0.8500,446.1,63.3,121.2,18.0,8168.7,4.5,521.4,8609.7,51573.6,244.2,4615.2,5976.0,314.4,7981.2,8025.3,8540.4,-7.2,-5.7,7974.9,7480.5,-1.2,348.9,6192.6,453.0,0,1530,36219190820864,77,0, 
0.8533,485.4,55.5,142.2,56.7,8691.9,-53.7,555.0,9830.1,77212.2,320.1,6704.4,8952.6,264.9,9827.1,9830.1,9830.1,-6.6,-5.7,9830.1,9830.1,-0.9,419.1,4488.9,450.9,0,1536,36219190820864,78,0, 
0.8567,537.3,32.7,167.7,126.0,-4632.9,-276.3,624.9,1263.3,11559.6,442.8,-851.1,-701.7,-207.9,233.1,987.6,1073.1,-6.9,-5.7,-33.0,-309.0,-0.9,550.8,-6248.7,393.3,0,1542,36219190820864,79,0, 
0.8600,524.1,21.9,162.0,116.4,-9819.9,-360.9,628.8,-9830.1,-55204.5,445.8,-6527.4,-8128.8,-440.4,-9827.4,-9830.1,-9830.1,-6.6,-6.0,-9830.1,-9830.1,-1.2,554.7,-9830.1,369.6,0,1548,36219190820864,80,0, 
0.8633,468.0,36.9,136.8,56.7,-5306.4,-180.6,566.7,-6550.5,-30381.0,324.3,-2762.7,-3503.1,-119.7,-6819.9,-6897.9,-6545.4,-6.9,-5.7,-5531.7,-6444.9,-1.2,433.2,-3762.3,408.6,0,1554,36219190820864,81,0, 
0.8667,446.7,54.0,125.4,21.3,8129.4,10.8,521.4,8554.5,53352.0,240.3,4714.2,6130.2,317.4,8039.7,8353.8,8522.4,-6.9,-6.3,7845.3,7497.3,-0.6,341.1,6255.3,450.6,0,1560,36219190820864,82,0, 
0.8700,492.0,53.7,147.6,59.4,8759.1,-40.8,560.4,9830.1,79509.3,307.5,6850.2,9130.8,270.6,9827.1,9830.1,9830.1,-6.9,-6.0,9830.1,9830.1,-0.9,415.8,4558.8,439.5,0,1566,36219190820864,83,0, 
0.8733,542.1,47.1,174.6,120.9,-4543.2,-282.3,630.0,1248.6,14153.1,436.5,-702.3,-741.0,-193.8,570.0,1605.0,1191.0,-7.5,-6.3,-236.4,-135.3,-0.6,545.1,-6183.6,391.5,0,1572,36219190820864,84,0, 
0.8767,530.4,35.4,171.6,120.3,-9819.9,-358.5,633.9,-9830.1,-52907.4,444.9,-6299.7,-8199.9,-418.8,-9827.4,-9830.1,-9830.1,-6.9,-6.0,-9830.1,-9830.1,-0.9,553.8,-9830.1,371.4,0,1578,36219190820864,85,0, 
0.8800,468.3,30.0,138.6,52.5,-5262.6,-188.4,563.7,-6618.0,-28083.9,315.3,-2655.9,-3606.0,-114.3,-6732.9,-6504.3,-6534.9,-6.9,-6.0,-5610.3,-6375.3,-0.6,426.9,-3738.9,403.5,0,1584,36219190820864,86,0, 
0.8833,439.5,46.2,121.8,8.1,8109.3,3.9,517.5,8500.8,55056.3,225.0,4631.7,5856.0,308.7,8068.8,8675.7,8506.8,-6.9,-6.0,7862.1,7466.7,-0.6,337.2,6173.7,445.2,0,1590,36219190820864,87,0, 
0.8867,484.8,48.0,148.5,51.6,8753.7,-42.6,559.2,9830.1,81361.8,307.2,6775.5,9044.7,270.3,9827.1,9830.1,9830.1,-6.6,-6.0,9830.1,9830.1,-1.2,414.0,4589.7,439.8,0,1596,36219190820864,88,0, 
0.8900,538.2,32.1,173.7,115.5,-4579.8,-269.4,628.2,1152.3,15635.1,430.8,-880.2,-651.0,-213.0,574.8,2253.6,1089.3,-6.9,-6.0,-55.5,-205.5,-0.9,545.1,-6179.7,385.8,0,1602,36219190820864,89,0, 
0.8933,535.8,30.6,169.2,115.8,-9819.9,-349.8,637.2,-9830.1,-51647.7,442.2,-6536.7,-8139.9,-433.5,-9827.4,-9830.1,-9830.1,-6.6,-5.7,-9830.1,-9830.1,-0.6,560.4,-9830.1,373.2,0,1608,36219190820864,90,0, 
0.8967,478.2,41.1,145.2,51.6,-5384.1,-175.5,570.9,-6756.9,-27268.8,325.5,-2940.0,-3651.9,-112.2,-6810.3,-6288.3,-6714.3,-6.6,-5.7,-5730.6,-6546.3,-0.6,436.8,-3756.9,408.6,0,1614,36219190820864,91,0, 
0.9000,454.5,69.9,131.7,15.3,8048.1,4.5,525.9,8375.1,55797.3,241.8,4464.0,5944.5,306.9,8025.9,8815.8,8352.0,-6.6,-5.7,7748.7,7382.4,-0.9,347.1,6230.7,446.7,0,1620,36219190820864,92,0, 
0.9033,493.8,63.3,152.4,60.9,8720.7,-42.3,563.4,9830.1,82028.7,306.3,6633.9,8919.0,278.1,9827.1,9830.1,9830.1,-7.2,-6.6,9830.1,9830.1,-0.9,412.8,4542.3,433.5,0,1626,36219190820864,93,0, 
0.9067,546.6,51.6,182.4,128.7,-4676.4,-269.7,633.9,854.1,15931.5,437.7,-904.2,-756.9,-201.0,480.6,2496.9,795.0,-6.9,-6.0,-329.7,-361.8,-0.6,550.8,-6199.8,386.4,0,1632,36219190820864,94,0, 
0.9100,532.5,36.6,173.4,119.7,-9819.9,-357.3,634.5,-9830.1,-51721.8,440.7,-6669.6,-8359.2,-431.7,-9827.4,-9830.1,-9830.1,-6.9,-6.0,-9830.1,-9830.1,-0.9,555.9,-9830.1,366.3,0,1638,36219190820864,95,0, 
0.9133,474.3,52.2,141.6,58.5,-5610.0,-189.6,579.0,-7100.7,-28232.1,330.9,-3009.9,-3956.4,-121.8,-7016.4,-6156.0,-7026.0,-6.6,-6.0,-6141.9,-6791.7,-0.9,438.3,-3917.7,408.3,0,1644,36219190820864,96,0, 
0.9167,448.5,64.5,123.0,15.0,7927.5,-2.4,529.2,8052.3,54611.7,234.3,4339.2,5568.3,306.9,7811.7,8850.0,8067.9,-6.9,-6.0,7446.3,7136.4,-0.9,348.0,5986.8,452.7,0,1650,36219190820864,97,0, 
0.9200,494.4,69.6,146.7,57.6,8618.4,-51.0,563.4,9830.1,80620.8,307.8,6417.9,8384.4,259.8,9827.1,9830.1,9830.1,-6.9,-5.4,9830.1,9830.1,-0.9,416.7,4391.7,443.7,0,1656,36219190820864,98,0, 
0.9233,533.7,46.2,171.0,119.1,-4893.9,-280.5,625.2,349.8,14894.1,418.2,-1061.4,-1295.4,-220.8,98.7,2304.6,275.4,-6.9,-6.0,-948.0,-756.0,-0.9,538.2,-6278.1,387.9,0,1662,36219190820864,99,0, 
0.9267,523.2,32.4,160.2,114.3,-9819.9,-367.8,630.6,-9830.1,-53352.0,434.1,-6833.7,-8925.0,-463.2,-9827.4,-9830.1,-9830.1,-6.9,-5.7,-9830.1,-9830.1,-0.6,546.3,-9830.1,367.2,0,1668,36219190820864,100,0, 
0.9300,465.6,42.3,138.6,51.3,-5841.3,-196.2,565.8,-7398.6,-29936.4,315.6,-3246.0,-4422.0,-155.4,-7291.2,-6438.3,-7353.3,-6.6,-5.7,-6459.0,-7016.1,-0.9,424.8,-4073.4,402.9,0,1674,36219190820864,101,0, 
0.9333,442.2,64.2,122.7,14.7,7776.0,-8.7,522.6,7776.6,52833.3,228.0,4095.0,5260.2,281.1,7527.6,8651.4,7756.8,-6.6,-6.0,7143.6,6965.7,-0.6,335.1,5901.9,450.3,0,1680,36219190820864,102,0, 
0.9367,486.6,60.3,150.0,57.6,8525.7,-52.2,561.9,9830.1,79064.7,297.0,6115.8,8142.3,243.6,9827.1,9830.1,9830.1,-6.6,-5.7,9830.1,9830.1,-0.9,408.3,4300.2,444.6,0,1686,36219190820864,103,0, 
0.9400,537.9,54.3,176.4,126.6,-5065.8,-279.6,634.5,-189.9,12671.1,428.4,-1365.6,-1387.5,-230.1,-309.0,1879.5,-181.2,-6.6,-5.7,-1501.5,-1115.4,-0.6,537.3,-6402.6,396.0,0,1692,36219190820864,104,0, 
0.9433,527.1,37.8,168.6,122.7,-9819.9,-357.6,639.6,-9830.1,-55723.2,432.3,-7243.5,-9042.0,-474.0,-9827.4,-9830.1,-9830.1,-6.9,-6.0,-9830.1,-9830.1,-0.6,546.0,-9830.1,377.1,0,1698,36219190820864,105,0, 
0.9467,466.8,42.3,132.0,55.8,-6063.6,-193.8,574.5,-7720.5,-32974.5,312.9,-3597.3,-4447.5,-163.2,-7539.6,-6918.3,-7631.1,-6.9,-5.7,-6844.5,-7217.1,-0.3,427.5,-4278.6,414.6,0,1704,36219190820864,106,0, 
0.9500,445.2,62.4,120.6,20.4,7574.4,7.8,527.7,7432.5,49498.8,223.5,3751.2,5160.3,274.5,7284.9,8196.0,7461.6,-6.9,-6.0,6748.5,6713.4,-1.2,342.0,5716.2,459.0,0,1710,36219190820864,107,0, 
0.9533,486.9,61.8,143.7,56.4,8346.6,-51.0,561.3,9830.1,75359.7,305.1,5722.8,8032.5,220.8,9827.1,9830.1,9830.1,-6.9,-6.3,9830.1,9830.1,-0.9,406.5,4066.5,458.4,0,1716,36219190820864,108,0, 
0.9567,536.4,36.3,170.4,123.3,-5358.9,-282.9,630.0,-757.2,9188.4,423.9,-1740.3,-1409.7,-245.1,-747.3,849.6,-807.3,-7.2,-6.0,-1984.8,-1400.7,-0.9,540.3,-6546.9,396.3,0,1722,36219190820864,109,0, 
0.9600,524.4,36.6,167.1,124.8,-9819.9,-378.0,629.7,-9830.1,-59724.6,429.6,-7594.8,-9205.2,-483.0,-9827.4,-9830.1,-9830.1,-6.6,-5.7,-9830.1,-9830.1,-0.9,542.1,-9830.1,373.2,0,1728,36219190820864,110,0, 
0.9633,468.6,40.2,139.2,61.8,-6304.5,-192.9,569.1,-8087.1,-37124.1,310.8,-3907.5,-4659.9,-169.2,-7847.7,-7641.9,-8044.5,-7.2,-6.0,-7198.5,-7433.1,-0.6,422.4,-4484.4,409.5,0,1734,36219190820864,111,0, 
0.9667,445.5,67.8,140.1,34.5,7392.6,3.0,521.1,7017.6,45275.1,229.2,3471.0,4897.2,268.2,6939.6,7480.2,7024.2,-6.6,-6.0,6500.7,6461.7,-0.6,338.1,5552.1,457.2,0,1740,36219190820864,112,0, 
0.9700,486.3,75.0,168.3,81.3,8185.5,-38.4,562.5,9830.1,71284.2,297.0,5289.9,7598.4,229.2,9827.1,9830.1,9830.1,-7.2,-6.0,9830.1,9830.1,-0.6,402.9,3946.8,446.7,0,1746,36219190820864,113,0, 
0.9733,538.8,59.1,199.8,147.9,-5497.8,-271.8,632.1,-1307.4,5261.1,425.1,-1980.6,-1764.3,-238.5,-1292.4,-345.6,-1350.0,-6.9,-6.3,-2410.2,-1760.7,-0.6,536.4,-6600.9,398.7,0,1752,36219190820864,114,0, 
0.9767,530.7,51.3,196.5,139.2,-9819.9,-348.0,640.8,-9830.1,-63948.3,438.9,-7899.3,-9567.0,-490.8,-9827.4,-9830.1,-9830.1,-7.5,-6.0,-9830.1,-9830.1,-0.6,546.6,-9830.1,379.2,0,1758,36219190820864,115,0, 
0.9800,470.7,53.7,158.4,72.0,-6474.9,-180.9,572.4,-8345.4,-41347.8,321.0,-4171.5,-4932.0,-174.0,-8074.2,-8261.4,-8300.1,-6.6,-6.0,-7441.2,-7612.2,-0.3,425.1,-4556.7,414.6,0,1764,36219190820864,116,0, 
0.9833,439.5,71.7,141.0,29.4,7252.8,9.0,521.1,6723.0,41125.5,225.3,3175.8,4618.8,248.4,6719.4,6733.5,6707.7,-6.9,-5.7,6162.0,6250.5,-1.2,327.3,5444.1,450.3,0,1770,36219190820864,117,0, 
0.9867,485.4,79.5,165.3,78.6,8133.0,-36.6,558.3,9830.1,67727.4,295.5,5118.3,7304.7,214.8,9827.1,9830.1,9830.1,-6.9,-5.7,9830.1,9830.1,-0.6,405.6,3855.9,446.7,0,1776,36219190820864,118,0, 
0.9900,544.5,73.8,194.7,150.3,-5561.1,-263.1,627.6,-1543.8,1926.6,421.5,-1989.3,-1861.2,-249.0,-1369.8,-1503.9,-1587.9,-7.2,-6.3,-2764.5,-1694.7,-0.9,532.5,-6607.2,394.8,0,1782,36219190820864,119,0, 
0.9933,530.4,49.8,191.4,144.9,-9819.9,-348.9,634.2,-9830.1,-66986.4,436.5,-8037.3,-9701.4,-480.3,-9827.4,-9830.1,-9830.1,-6.6,-5.7,-9830.1,-9830.1,-0.6,547.2,-9830.1,372.9,0,1788,36219190820864,120,0, 
0.9967,475.2,69.9,165.0,81.9,-6498.6,-172.5,570.9,-8421.0,-44385.9,310.5,-4215.0,-5036.4,-170.1,-8097.9,-8811.0,-8361.3,-7.2,-6.0,-7603.8,-7525.8,-0.6,421.8,-4576.5,407.7,0,1794,36219190820864,121,0, 
1.0000,448.8,81.3,152.7,40.2,7228.8,13.8,518.4,6672.0,38828.4,228.3,3199.8,4624.2,267.3,6691.5,5959.5,6710.1,-6.9,-6.0,6134.7,6417.0,-0.9,336.9,5509.8,454.2,0,1800,36219190820864,122,0, 
1.0033,493.8,94.8,177.0,79.8,8194.2,-41.1,553.2,9830.1,66023.1,300.9,5157.3,7345.8,239.4,9827.1,9830.1,9830.1,-6.9,-6.0,9830.1,9830.1,-1.5,403.8,3936.9,445.5,0,1806,36219190820864,123,0, 
1.0067,542.1,68.1,202.2,144.0,-5433.3,-263.7,621.9,-1348.8,444.6,424.8,-1886.4,-1641.6,-229.5,-1222.2,-2302.8,-1428.3,-6.9,-6.3,-2656.5,-1451.1,-0.3,534.3,-6495.3,392.1,0,1812,36219190820864,124,0, 
1.0100,536.7,62.7,203.4,144.6,-9819.9,-347.4,632.1,-9830.1,-67949.7,441.0,-7789.8,-9437.1,-466.5,-9827.4,-9830.1,-9830.1,-6.9,-5.7,-9830.1,-9830.1,-0.6,541.8,-9830.1,373.5,0,1818,36219190820864,125,0, 
1.0133,475.8,68.7,167.4,75.9,-6318.6,-173.1,565.8,-8238.6,-44978.7,311.1,-4070.7,-4825.2,-155.1,-7991.4,-9048.0,-8206.2,-6.6,-5.7,-7468.5,-7368.9,-0.9,421.5,-4487.4,408.3,0,1824,36219190820864,126,0, 
1.0167,454.2,90.9,158.4,48.0,7469.4,20.7,520.2,6985.5,38532.0,228.6,3470.4,4888.8,280.5,6886.8,5681.4,6957.3,-7.5,-6.0,6340.2,6649.8,-1.2,336.9,5625.3,457.5,0,1830,36219190820864,127,0, 
1.0200,492.6,87.0,180.3,90.3,8397.3,-28.8,557.4,9830.1,66245.4,292.8,5340.3,7578.9,242.1,9827.1,9830.1,9830.1,-7.2,-6.0,9830.1,9830.1,-0.9,405.6,4097.7,458.1,0,1836,36219190820864,128,0, 
1.0233,540.0,66.0,200.1,155.1,-5105.4,-264.0,625.5,-704.7,1630.2,422.4,-1695.9,-1354.8,-229.8,-750.3,-2417.1,-798.3,-6.6,-6.0,-2087.7,-1010.4,-0.9,528.3,-6383.1,399.6,0,1842,36219190820864,129,0, 
1.0267,539.1,63.3,198.3,155.7,-9819.9,-344.4,638.7,-9830.1,-66690.0,439.8,-7650.0,-9303.9,-463.8,-9827.4,-9830.1,-9830.1,-6.9,-6.0,-9830.1,-9830.1,-0.6,548.1,-9830.1,385.2,0,1848,36219190820864,130,0, 
1.0300,488.1,80.1,169.8,94.2,-6099.3,-171.3,580.2,-7964.4,-43793.1,319.5,-3908.7,-4668.9,-144.9,-7763.4,-9053.1,-7922.4,-7.2,-6.0,-7186.2,-7176.0,-0.6,428.7,-4355.1,426.9,0,1854,36219190820864,131,0, 
1.0333,460.8,94.8,149.1,57.0,7623.3,14.4,521.7,7296.0,40236.3,230.4,3579.3,4956.3,292.2,7158.0,5738.7,7302.9,-6.6,-6.3,6569.1,6900.0,-1.2,337.8,5735.1,469.5,0,1860,36219190820864,132,0, 
1.0367,502.8,88.5,173.4,93.3,8629.5,-34.8,561.6,9830.1,68246.1,299.4,5684.4,8015.7,268.2,9827.1,9830.1,9830.1,-6.6,-6.3,9830.1,9830.1,-0.6,405.9,4272.0,462.0,0,1866,36219190820864,133,0, 
1.0400,549.9,70.5,192.6,151.8,-4813.8,-258.6,621.3,-40.2,4223.7,420.9,-1456.8,-1090.2,-208.8,-88.5,-2064.0,-12.3,-7.2,-5.7,-1564.8,-495.9,-0.9,530.4,-6258.9,402.6,0,1872,36219190820864,134,0, 
1.0433,537.3,56.1,185.1,146.4,-9819.9,-357.0,625.8,-9830.1,-63948.3,429.9,-7484.1,-8946.6,-457.2,-9827.4,-9830.1,-9830.1,-6.9,-6.0,-9830.1,-9830.1,-0.6,543.3,-9830.1,374.4,0,1878,36219190820864,135,0, 
1.0467,481.2,71.4,157.8,82.5,-5824.8,-183.6,566.1,-7584.0,-40680.9,310.8,-3761.1,-4532.4,-138.6,-7315.8,-8790.9,-7519.8,-6.3,-5.7,-6850.5,-6929.1,-0.6,417.0,-4251.3,408.3,0,1884,36219190820864,136,0, 
1.0500,453.3,83.4,144.0,43.5,7818.0,12.0,512.4,7764.9,43644.9,219.9,3778.5,5254.5,297.6,7676.1,6268.8,7770.3,-6.6,-6.0,7046.1,7168.5,-0.9,326.7,5949.3,450.0,0,1890,36219190820864,137,0, 
1.0533,500.7,92.7,176.1,92.1,8815.2,-33.9,554.4,9830.1,72395.7,297.9,5968.2,8301.9,268.2,9827.1,9830.1,9830.1,-6.6,-5.7,9830.1,9830.1,-0.9,402.3,4545.6,456.0,0,1896,36219190820864,138,0, 
1.0567,547.8,79.2,206.7,159.0,-4432.8,-263.7,628.2,933.0,8595.6,421.5,-1168.8,-798.0,-186.0,850.8,-1020.6,890.1,-7.2,-5.7,-698.4,174.6,-0.9,533.7,-6053.1,405.9,0,1902,36219190820864,139,0, 
1.0600,542.1,73.8,207.9,159.6,-9819.9,-341.1,634.5,-9830.1,-59354.1,435.6,-6997.2,-8603.7,-424.2,-9827.4,-9830.1,-9830.1,-6.9,-6.0,-9830.1,-9830.1,-1.5,552.0,-9830.1,387.3,0,1908,36219190820864,140,0, 
1.0633,481.5,74.1,177.3,99.9,-5565.6,-165.6,573.6,-7116.9,-36012.6,315.6,-3379.2,-4082.1,-120.0,-6892.2,-8271.9,-7087.8,-6.9,-6.0,-6320.7,-6563.7,-0.6,426.0,-4012.2,416.7,0,1914,36219190820864,141,0, 
1.0667,453.6,90.9,167.7,57.9,7936.2,27.3,525.3,8193.0,48165.0,234.9,4082.1,5632.5,315.9,8063.4,7060.5,8157.9,-6.6,-6.3,7437.9,7462.8,-0.9,343.5,6100.5,461.4,0,1920,36219190820864,142,0, 
1.0700,490.8,92.7,187.2,103.5,8999.7,-15.3,559.8,9830.1,77212.2,296.7,6421.8,9012.3,286.8,9827.1,9830.1,9830.1,-6.9,-6.3,9830.1,9830.1,-0.9,408.0,4764.3,452.7,0,1926,36219190820864,143,0, 
1.0733,546.6,79.5,214.2,167.7,-4118.4,-236.7,627.6,1658.7,13560.3,421.8,-909.0,-501.3,-203.1,1635.0,507.6,1532.4,-6.6,-6.0,29.4,643.8,-0.3,532.8,-5952.0,406.2,0,1932,36219190820864,144,0, 
1.0767,534.0,52.5,208.2,163.2,-9819.9,-328.8,631.8,-9830.1,-54759.9,429.3,-6750.3,-8251.2,-430.2,-9827.4,-9830.1,-9830.1,-6.9,-6.0,-9830.1,-9830.1,-0.6,545.1,-9830.1,387.3,0,1938,36219190820864,145,0, 
1.0800,476.1,63.6,175.5,95.7,-5407.2,-156.6,569.7,-6812.7,-31566.6,308.4,-3246.0,-3943.5,-129.0,-6541.5,-7484.4,-6775.8,-6.9,-5.7,-5961.3,-6451.8,-0.9,424.2,-3924.6,420.6,0,1944,36219190820864,146,0, 
1.0833,444.0,75.0,161.7,57.6,8003.1,34.5,523.5,8406.3,52314.6,229.8,4229.7,5845.5,313.8,8291.4,7951.5,8390.4,-6.6,-6.0,7612.5,7551.3,-0.6,338.4,6161.1,466.2,0,1950,36219190820864,147,0, 
1.0867,492.6,83.4,188.4,104.4,9068.1,-12.9,559.5,9830.1,81435.9,293.4,6598.2,9113.4,288.3,9827.1,9830.1,9830.1,-7.2,-6.3,9830.1,9830.1,-0.9,407.4,4818.3,459.6,0,1956,36219190820864,148,0, 
1.0900,537.9,61.8,205.8,162.6,-4098.6,-247.2,622.5,1845.9,17191.2,416.1,-858.6,-401.1,-186.9,1855.5,1933.2,1844.4,-6.6,-6.0,208.8,682.5,-0.9,531.0,-5943.0,406.2,0,1962,36219190820864,149,0, 
1.0933,532.2,56.4,203.4,165.9,-9819.9,-330.0,632.4,-9830.1,-51499.5,429.6,-6816.0,-8270.4,-427.5,-9827.4,-9830.1,-9830.1,-6.9,-5.7,-9830.1,-9830.1,-0.9,549.9,-9830.1,387.9,0,1968,36219190820864,150,0, 
1.0967,475.2,58.5,170.4,96.9,-5516.7,-166.5,571.8,-6924.0,-29269.5,315.3,-3326.4,-3978.0,-128.7,-6553.5,-6903.9,-6841.8,-6.3,-6.0,-6018.6,-6521.7,-0.6,427.8,-4041.0,422.4,0,1974,36219190820864,151,0, 
1.1000,447.3,77.1,153.0,54.0,7905.9,29.1,519.3,8296.2,54241.2,221.1,4112.7,5605.8,300.9,8293.8,8432.4,8304.6,-6.9,-6.0,7531.8,7412.1,-0.6,339.3,6082.5,465.3,0,1980,36219190820864,152,0, 
1.1033,486.6,74.4,171.3,91.2,9043.5,-20.1,555.3,9830.1,82992.0,292.8,6456.0,9062.4,267.9,9827.1,9830.1,9830.1,-7.2,-5.7,9830.1,9830.1,-1.2,407.4,4779.0,462.9,0,1986,36219190820864,153,0, 
1.1067,530.4,48.0,194.1,151.2,-4238.1,-255.3,621.9,1615.5,18747.3,408.0,-1011.3,-653.1,-210.9,1822.8,2692.2,1613.7,-7.2,-5.7,-67.2,534.6,-0.6,531.6,-6025.5,403.8,0,1992,36219190820864,154,0, 
1.1100,523.5,48.9,177.6,145.5,-9819.9,-347.4,630.3,-9830.1,-50462.1,431.4,-6874.2,-8392.8,-456.3,-9827.4,-9830.1,-9830.1,-6.9,-6.3,-9830.1,-9830.1,-0.9,548.4,-9830.1,389.1,0,1998,36219190820864,155,0, 
1.1133,468.6,59.7,143.7,77.1,-5735.1,-178.8,570.0,-7173.3,-28676.7,311.4,-3495.0,-4169.7,-162.9,-6750.9,-6619.2,-7093.8,-6.6,-6.0,-6396.9,-6770.1,-0.6,425.4,-4200.6,419.1,0,2004,36219190820864,156,0, 
1.1167,439.8,61.5,123.0,39.3,7795.8,13.5,522.6,8041.2,54389.4,213.6,3906.9,5491.2,276.6,8063.7,8660.1,8051.4,-6.6,-6.0,7187.7,7171.8,-0.9,332.4,5943.0,460.2,0,2010,36219190820864,157,0, 
1.1200,486.6,70.8,151.2,81.9,8952.9,-25.8,567.0,9830.1,83140.2,293.7,6279.9,8884.2,245.7,9827.1,9830.1,9830.1,-7.2,-6.3,9830.1,9830.1,-0.6,404.7,4695.3,459.3,0,2016,36219190820864,158,0, 
1.1233,537.3,56.7,177.9,150.6,-4425.6,-258.6,637.2,1197.6,18376.8,423.0,-1164.6,-687.0,-221.4,1320.6,3085.8,1135.8,-6.9,-5.7,-483.6,76.5,-0.9,542.4,-6087.9,411.3,0,2022,36219190820864,159,0, 
1.1267,527.4,48.9,176.7,143.7,-9819.9,-345.6,637.8,-9830.1,-51054.9,434.1,-7061.4,-8562.9,-466.5,-9827.4,-9830.1,-9830.1,-6.9,-5.7,-9830.1,-9830.1,-0.9,557.1,-9830.1,384.9,0,2028,36219190820864,160,0, 
1.1300,474.3,64.8,155.4,86.4,-5972.7,-182.1,570.3,-7487.4,-30158.7,318.0,-3706.8,-4485.9,-156.6,-7066.5,-6621.0,-7446.9,-6.6,-5.7,-6724.5,-7115.1,-0.3,437.1,-4307.1,414.3,0,2034,36219190820864,161,0, 
1.1333,446.1,77.1,135.9,45.9,7612.5,21.6,519.0,7713.6,52907.4,233.1,3829.8,5219.7,277.5,7796.7,8595.9,7693.8,-7.2,-6.3,6857.1,6838.2,-0.6,346.8,5855.4,458.4,0,2040,36219190820864,162,0, 
1.1367,490.2,86.7,161.1,91.8,8831.4,-25.2,562.2,9830.1,81435.9,301.8,6108.9,8519.4,261.6,9827.1,9830.1,9830.1,-6.6,-5.7,9830.1,9830.1,-0.6,421.2,4606.8,453.6,0,2046,36219190820864,163,0, 
1.1400,539.1,60.6,183.0,149.4,-4636.8,-263.7,627.0,674.7,16968.9,429.3,-1279.2,-939.3,-215.7,896.1,2815.8,593.4,-6.9,-5.7,-1218.6,-356.4,-0.6,546.3,-6122.7,397.8,0,2052,36219190820864,164,0, 
1.1433,533.4,55.2,173.1,144.6,-9819.9,-342.3,634.2,-9830.1,-52981.5,440.1,-7350.0,-8910.6,-460.8,-9827.4,-9830.1,-9830.1,-6.6,-5.7,-9830.1,-9830.1,-0.9,563.7,-9830.1,380.1,0,2058,36219190820864,165,0, 
1.1467,476.7,58.5,138.9,75.9,-6134.1,-177.0,563.4,-7767.0,-32159.4,324.0,-3821.1,-4613.7,-164.4,-7385.4,-6846.9,-7749.0,-6.6,-5.7,-7159.8,-7368.6,-0.9,446.1,-4392.0,410.7,0,2064,36219190820864,166,0, 
1.1500,449.7,78.6,133.2,40.8,7503.6,20.1,519.0,7422.3,50980.8,239.7,3571.8,5148.3,273.0,7494.3,8412.3,7406.1,-6.6,-5.7,6497.7,6518.1,-0.6,357.9,5782.2,462.6,0,2070,36219190820864,167,0, 
1.1533,489.9,75.6,153.3,77.7,8765.4,-20.4,555.0,9830.1,79879.8,298.8,5967.9,8446.5,240.0,9827.1,9830.1,9830.1,-6.9,-5.7,9830.1,9830.1,-0.9,421.2,4552.5,458.7,0,2076,36219190820864,168,0, 
1.1567,542.4,55.8,186.6,148.8,-4694.4,-246.0,630.9,342.3,15709.2,422.4,-1367.7,-916.2,-227.4,694.8,2457.3,330.3,-7.8,-6.0,-1379.1,-637.2,-0.9,552.0,-6109.8,411.3,0,2082,36219190820864,169,0, 
1.1600,541.5,53.7,178.5,149.1,-9819.9,-334.8,639.9,-9830.1,-53944.8,436.2,-7323.3,-8858.7,-488.1,-9827.4,-9830.1,-9830.1,-6.6,-6.0,-9830.1,-9830.1,-0.9,562.5,-9830.1,387.3,0,2088,36219190820864,170,0, 
1.1633,478.8,58.5,142.8,76.8,-6167.7,-184.8,568.8,-7868.4,-32900.4,306.9,-3851.4,-4556.1,-179.4,-7449.6,-7020.9,-7783.8,-6.9,-5.7,-7077.9,-7447.2,-0.6,434.1,-4356.6,416.1,0,2094,36219190820864,171,0, 
1.1667,444.0,62.4,118.2,31.8,7509.3,0.3,522.0,7358.1,50536.2,226.8,3594.0,5063.4,265.5,7439.7,8310.9,7391.7,-6.9,-6.0,6558.3,6527.1,-0.6,350.4,5785.5,467.4,0,2100,36219190820864,172,0, 
1.1700,486.9,70.2,142.5,67.8,8811.9,-42.0,557.4,9830.1,79953.9,285.6,5948.4,8371.8,234.3,9827.1,9830.1,9830.1,-6.9,-6.0,9830.1,9830.1,-0.6,411.9,4599.3,454.2,0,2106,36219190820864,173,0, 
1.1733,531.6,43.2,169.5,128.7,-4633.5,-279.6,614.7,462.3,16079.7,415.8,-1344.0,-1034.7,-229.8,746.7,2410.2,447.6,-7.2,-6.0,-1137.6,-536.1,-0.9,544.2,-6040.8,402.0,0,2112,36219190820864,174,0, 
1.1767,530.7,39.0,178.8,139.2,-9819.9,-365.4,631.5,-9830.1,-53574.3,437.1,-7373.7,-8861.1,-471.3,-9827.4,-9830.1,-9830.1,-7.2,-5.7,-9830.1,-9830.1,-0.3,562.5,-9830.1,387.3,0,2118,36219190820864,175,0, 
1.1800,471.9,51.3,141.6,70.5,-6135.6,-198.6,564.9,-7810.8,-32381.7,313.5,-3881.7,-4457.7,-171.3,-7386.3,-7121.4,-7725.3,-6.6,-5.7,-7018.2,-7354.2,-0.9,437.7,-4359.0,417.0,0,2124,36219190820864,176,0, 
1.1833,444.9,64.8,128.1,30.9,7508.1,-2.4,515.4,7477.5,51203.1,225.9,3510.6,5184.0,269.4,7620.3,8266.2,7529.7,-6.9,-6.3,6690.0,6653.7,-0.9,351.9,5845.5,463.2,0,2130,36219190820864,177,0, 
1.1867,480.6,62.4,144.0,61.2,8941.5,-47.7,547.5,9830.1,81287.7,287.4,5898.6,8732.1,232.5,9827.1,9830.1,9830.1,-6.6,-6.0,9830.1,9830.1,-1.2,411.9,4704.9,448.5,0,2136,36219190820864,178,0, 
1.1900,531.3,43.8,164.7,126.6,-4365.9,-267.9,616.2,904.2,17858.1,408.9,-1254.0,-643.8,-233.1,1289.7,2706.6,873.9,-7.2,-5.7,-688.2,-199.5,-1.2,543.3,-5985.6,403.5,0,2142,36219190820864,179,0, 
1.1933,522.6,31.5,161.7,126.3,-9819.9,-354.6,630.3,-9830.1,-51203.1,423.3,-7255.5,-8604.0,-479.4,-9827.4,-9830.1,-9830.1,-6.6,-6.0,-9830.1,-9830.1,-0.6,558.3,-9830.1,381.9,0,2148,36219190820864,180,0, 
1.1967,470.4,48.9,143.1,64.2,-5884.2,-184.5,571.5,-7576.2,-29788.2,308.4,-3823.8,-4355.7,-173.1,-7079.7,-6839.4,-7510.2,-6.9,-5.7,-6621.9,-7345.8,-0.9,442.2,-4237.2,422.4,0,2154,36219190820864,181,0, 
1.2000,438.9,63.3,123.6,21.3,7681.8,13.2,520.5,7749.3,53870.7,208.8,3686.7,5361.9,261.6,7910.1,8608.2,7752.3,-6.6,-5.7,7185.6,6641.4,-0.9,347.1,6006.0,464.1,0,2160,36219190820864,182,0, 
1.2033,479.1,51.3,142.8,62.7,9076.2,-24.9,557.4,9830.1,84474.0,279.0,6327.3,8760.3,242.4,9827.1,9830.1,9830.1,-6.9,-6.0,9830.1,9830.1,-0.9,415.8,4842.0,459.9,0,2166,36219190820864,183,0, 
1.2067,535.2,42.3,169.5,128.4,-4098.6,-256.5,626.4,1457.7,21340.8,411.6,-894.9,-545.7,-223.8,1942.2,3603.0,1355.4,-6.9,-5.7,418.5,-70.5,-0.3,551.1,-5816.1,405.9,0,2172,36219190820864,184,0, 
1.2100,525.0,30.9,166.5,124.8,-9819.9,-351.9,628.8,-9830.1,-47572.2,423.6,-6899.7,-8421.0,-468.9,-9827.4,-9830.1,-9830.1,-7.2,-5.4,-9830.1,-9830.1,-0.6,566.7,-9830.1,385.2,0,2178,36219190820864,185,0, 
1.2133,473.1,46.8,141.0,63.9,-5704.5,-187.5,564.6,-7313.7,-26231.4,312.3,-3609.9,-4363.5,-168.6,-6688.2,-6226.8,-7286.7,-6.3,-6.0,-6103.5,-7287.0,-0.6,446.1,-4103.7,428.1,0,2184,36219190820864,186,0, 
1.2167,443.1,58.8,117.9,13.8,7755.6,9.0,509.7,8042.7,57575.7,216.3,4070.7,5565.6,269.7,8296.8,9170.7,8015.4,-6.6,-5.7,7528.8,6777.9,-1.2,350.1,6110.1,457.8,0,2190,36219190820864,187,0, 
1.2200,489.3,67.2,149.7,64.8,9211.8,-25.8,552.3,9830.1,88401.3,284.4,6714.0,9195.3,260.1,9827.1,9830.1,9830.1,-7.2,-6.3,9830.1,9830.1,-0.6,423.3,5079.3,453.9,0,2196,36219190820864,188,0, 
1.2233,540.9,52.5,178.2,132.0,-3897.0,-248.7,619.2,1985.7,25712.7,421.2,-675.3,-315.6,-206.4,2687.1,4908.0,1965.0,-6.9,-6.0,773.4,331.8,-0.6,553.5,-5706.3,399.3,0,2202,36219190820864,189,0, 
1.2267,531.6,40.5,173.4,131.4,-9819.9,-339.9,629.1,-9830.1,-43126.2,433.8,-6807.3,-8211.9,-450.9,-9827.4,-9830.1,-9830.1,-6.9,-5.7,-9830.1,-9830.1,-0.6,564.6,-9830.1,374.4,0,2208,36219190820864,190,0, 
1.2300,476.1,48.3,144.0,66.9,-5571.6,-182.1,567.9,-7086.0,-21933.6,320.7,-3469.2,-4115.4,-154.2,-6370.5,-5430.9,-6970.8,-7.2,-5.7,-5827.2,-7109.4,-0.6,452.4,-4027.2,413.1,0,2214,36219190820864,191,0, 
1.2333,447.0,61.8,129.0,26.7,7869.3,18.0,523.2,8277.3,61873.5,231.0,4113.3,5807.7,299.4,8559.9,9776.1,8319.9,-6.6,-6.0,7810.5,7044.3,-0.6,364.8,6246.9,463.8,0,2220,36219190820864,192,0, 
1.2367,491.7,73.5,145.5,69.9,9311.1,-14.4,560.4,9830.1,93143.7,295.2,6782.4,9493.2,269.1,9827.1,9830.1,9830.1,-7.2,-5.7,9830.1,9830.1,-0.6,429.0,5235.9,458.7,0,2226,36219190820864,193,0, 
1.2400,526.8,42.0,165.6,125.7,-3668.4,-250.5,622.5,2524.2,30306.9,414.0,-623.1,-17.1,-202.8,3149.4,6267.3,2499.6,-6.9,-6.3,1277.7,725.4,-0.9,547.5,-5576.7,397.8,0,2232,36219190820864,194,0, 
1.2433,516.0,19.2,164.4,124.8,-9819.9,-345.3,629.4,-9830.1,-38754.3,425.7,-6649.8,-8083.2,-454.5,-9827.4,-9830.1,-9830.1,-6.9,-6.3,-9830.1,-9830.1,-0.9,564.9,-9830.1,372.0,0,2238,36219190820864,195,0, 
1.2467,465.6,39.6,138.0,59.7,-5401.2,-178.5,568.5,-6865.2,-17561.7,308.1,-3465.9,-4059.6,-168.6,-6052.5,-4475.1,-6784.5,-6.9,-6.6,-5713.2,-6838.5,-0.6,444.6,-3940.8,410.1,0,2244,36219190820864,196,0, 
1.2500,442.2,62.7,129.3,19.5,7963.5,16.8,520.2,8490.3,66541.8,216.3,4279.2,5907.6,286.8,8860.2,9830.1,8523.0,-6.9,-6.0,7864.2,7290.9,-0.3,351.6,6368.4,457.8,0,2250,36219190820864,197,0, 
1.2533,480.9,56.7,150.6,59.1,9421.2,-24.9,559.8,9830.1,98182.5,284.7,7066.8,9703.8,268.8,9827.1,9536.1,9830.1,-6.6,-6.3,9830.1,9830.1,-0.9,420.6,5414.1,456.9,0,2256,36219190820864,198,0, 
1.2567,537.0,49.5,177.9,126.6,-3365.4,-248.7,631.5,3028.5,35716.2,418.8,-361.2,243.6,-193.2,3927.0,7872.0,3045.3,-7.2,-6.3,1400.7,1210.2,-0.6,555.6,-5417.4,402.6,0,2262,36219190820864,199,0, 
1.2600,527.1,36.0,171.6,127.5,-9819.9,-348.3,644.1,-9830.1,-33048.6,426.0,-6465.0,-7859.4,-455.1,-9827.4,-9830.1,-9830.1,-7.5,-6.3,-9830.1,-9830.1,-0.9,564.9,-9830.1,370.2,0,2268,36219190820864,200,0, 
1.2633,465.9,44.4,138.9,59.4,-5281.2,-180.3,573.0,-6664.8,-12152.4,308.4,-3512.4,-4170.6,-157.2,-5667.6,-3280.5,-6560.1,-6.6,-5.4,-5730.3,-6779.4,-0.6,448.5,-3843.0,398.7,0,2274,36219190820864,201,0, 
1.2667,443.1,63.0,135.0,25.2,8024.1,20.7,526.8,8631.0,71432.4,219.3,4411.5,6005.7,280.5,9096.9,9830.1,8661.9,-6.6,-6.3,7853.4,7342.2,-0.6,354.6,6478.2,450.6,0,2280,36219190820864,202,0, 
1.2700,486.6,62.7,159.3,66.9,9474.9,-13.5,566.1,9830.1,102924.9,290.7,7059.9,9751.8,274.5,9827.1,9155.1,9830.1,-6.9,-5.7,9830.1,9830.1,-1.2,423.0,5511.6,449.7,0,2286,36219190820864,203,0, 
1.2733,536.7,41.1,179.4,129.0,-3313.5,-246.6,635.1,3172.8,40236.3,420.6,-338.7,262.2,-203.4,4334.4,9078.9,3189.6,-7.5,-6.0,1441.2,1446.0,-0.9,556.8,-5360.7,399.9,0,2292,36219190820864,204,0, 
1.2767,530.4,33.6,181.8,126.9,-9819.9,-334.5,639.9,-9830.1,-29195.4,436.5,-6577.2,-8080.5,-451.2,-9827.4,-9830.1,-9830.1,-6.6,-5.7,-9830.1,-9830.1,-0.3,573.6,-9830.1,379.8,0,2298,36219190820864,205,0, 
1.2800,473.1,44.4,155.4,68.1,-5336.1,-162.6,580.5,-6741.6,-8892.0,316.2,-3542.1,-4385.4,-161.4,-5527.8,-1997.7,-6594.0,-6.9,-6.3,-6001.8,-6712.8,-0.9,462.6,-3891.3,419.1,0,2304,36219190820864,206,0, 
1.2833,445.5,65.7,144.6,28.5,8001.6,42.9,539.1,8549.4,74322.3,234.3,4477.8,5921.4,292.8,9149.4,9830.1,8605.2,-6.9,-5.7,7682.1,7416.3,-0.9,366.3,6451.8,468.9,0,2310,36219190820864,207,0, 
1.2867,491.7,67.5,164.1,68.1,9424.8,-5.1,566.7,9830.1,105518.4,304.8,7130.1,9617.4,271.5,9827.1,8971.8,9830.1,-7.5,-6.3,9830.1,9830.1,-0.6,441.9,5507.7,455.7,0,2316,36219190820864,208,0, 
1.2900,540.9,42.0,187.5,127.2,-3424.5,-231.9,632.4,2907.6,42385.2,424.8,-423.0,120.0,-193.2,4240.5,9711.3,2905.5,-6.9,-5.4,1110.6,1265.1,-0.6,560.1,-5416.2,405.3,0,2322,36219190820864,209,0, 
1.2933,531.0,34.2,184.8,129.3,-9819.9,-334.5,644.7,-9830.1,-27417.0,441.3,-6656.4,-8247.9,-450.6,-9827.4,-9189.0,-9830.1,-6.9,-6.0,-9830.1,-9830.1,-0.9,580.5,-9830.1,383.4,0,2328,36219190820864,210,0, 
1.2967,473.1,39.6,153.9,65.4,-5580.3,-175.5,580.8,-7015.5,-7484.1,321.9,-3715.8,-4537.5,-158.4,-5732.4,-1207.2,-6877.5,-6.6,-5.7,-6347.1,-7012.8,-0.6,458.1,-4026.6,412.8,0,2334,36219190820864,211,0, 
1.3000,446.1,55.2,134.1,20.4,7843.5,18.6,521.1,8296.8,75359.7,222.0,4233.9,5798.4,288.9,9023.4,9830.1,8362.8,-6.9,-6.0,7406.4,7095.6,-0.9,359.1,6275.7,451.8,0,2340,36219190820864,212,0, 
1.3033,487.2,60.6,158.4,69.3,9349.2,-20.7,558.3,9830.1,106259.4,290.1,6886.8,9576.0,275.7,9827.1,8935.8,9830.1,-6.9,-6.0,9830.1,9830.1,-0.6,426.6,5330.7,457.8,0,2346,36219190820864,213,0, 
1.3067,535.5,42.3,180.9,134.4,-3670.2,-254.7,623.1,2471.7,43126.2,415.2,-657.0,-78.0,-200.4,3969.6,9830.1,2474.7,-6.9,-6.0,550.8,837.3,-0.6,554.1,-5490.6,399.6,0,2352,36219190820864,214,0, 
1.3100,532.8,39.3,182.1,141.0,-9819.9,-349.8,636.0,-9830.1,-27342.9,428.1,-7023.9,-8522.4,-454.2,-9827.4,-8779.5,-9830.1,-6.9,-6.0,-9830.1,-9830.1,-0.6,572.7,-9830.1,377.7,0,2358,36219190820864,215,0, 
1.3133,472.8,35.4,149.4,73.5,-5874.0,-183.9,572.7,-7377.0,-8299.2,312.9,-3981.6,-4904.4,-177.9,-6108.6,-1006.2,-7279.8,-6.6,-6.0,-6757.2,-7350.6,-0.6,452.7,-4167.9,402.9,0,2364,36219190820864,216,0, 
1.3167,446.4,69.0,135.9,40.5,7628.1,22.8,527.7,7913.4,73803.6,220.2,3970.8,5463.9,261.6,8747.7,9830.1,7959.0,-6.9,-6.0,7022.1,6725.4,-0.6,360.6,6120.6,457.2,0,2370,36219190820864,217,0, 
1.3200,481.5,50.7,154.5,69.0,9221.4,-23.1,554.7,9830.1,104629.2,284.7,6588.0,9125.1,265.5,9827.1,8990.7,9830.1,-6.6,-5.7,9830.1,9830.1,-0.6,422.7,5152.2,446.1,0,2376,36219190820864,218,0, 
1.3233,538.8,42.6,184.8,139.2,-3953.7,-255.0,630.0,1732.2,41421.9,420.9,-848.7,-345.9,-204.9,3392.4,9753.6,1815.0,-7.2,-5.7,-130.5,484.8,-0.9,556.5,-5609.1,396.3,0,2382,36219190820864,219,0, 
1.3267,534.9,34.5,189.0,145.8,-9819.9,-341.1,644.4,-9830.1,-29343.6,438.9,-7236.0,-8799.9,-464.1,-9827.4,-8873.4,-9830.1,-6.9,-5.7,-9830.1,-9830.1,-0.3,576.0,-9830.1,374.4,0,2388,36219190820864,220,0, 
1.3300,474.0,42.3,156.3,83.1,-6158.7,-182.7,575.4,-7807.5,-10744.5,318.0,-4203.6,-5194.8,-182.4,-6503.1,-1465.2,-7669.2,-6.6,-6.0,-7239.9,-7572.3,-0.9,456.3,-4380.9,405.0,0,2394,36219190820864,221,0, 
1.3333,443.4,56.1,138.9,41.1,7458.9,26.4,525.9,7399.2,71284.2,225.9,3647.1,5173.5,265.5,8444.1,9830.1,7519.2,-6.6,-6.3,6462.6,6452.7,-0.6,364.2,5952.0,458.4,0,2400,36219190820864,222,0, 
1.3367,492.9,65.1,169.5,90.6,9111.3,-12.3,565.5,9830.1,101961.6,295.8,6320.1,8789.1,257.7,9827.1,9065.1,9830.1,-6.6,-5.7,9830.1,9830.1,-0.9,435.3,5035.2,459.6,0,2406,36219190820864,223,0, 
1.3400,543.0,47.4,192.0,148.2,-4187.7,-243.0,631.2,998.4,39347.1,427.2,-1188.6,-705.0,-207.3,2990.1,9480.6,1131.3,-6.9,-6.0,-903.0,-51.0,-0.3,561.0,-5722.8,397.8,0,2412,36219190820864,224,0, 
1.3433,528.6,27.0,180.9,147.0,-9819.9,-341.4,636.9,-9830.1,-30677.4,432.9,-7859.4,-9445.2,-474.0,-9827.4,-9173.4,-9830.1,-6.6,-6.0,-9830.1,-9830.1,-0.9,571.2,-9830.1,375.9,0,2418,36219190820864,225,0, 
1.3467,469.2,37.5,153.6,83.4,-6375.3,-187.2,573.9,-8157.0,-12745.2,311.4,-4783.2,-5668.2,-193.2,-6752.4,-2126.4,-8022.0,-6.9,-6.0,-7772.7,-7970.1,-0.9,455.4,-4473.3,406.5,0,2424,36219190820864,226,0, 
1.3500,447.0,57.6,146.4,48.6,7304.4,23.1,528.6,6993.9,69431.7,234.3,3030.3,4680.6,267.3,8233.8,9830.1,7118.1,-6.3,-6.0,5919.0,5975.1,-1.2,364.5,5845.5,457.8,0,2430,36219190820864,227,0, 
1.3533,483.9,55.5,155.1,81.0,9043.8,-24.6,556.2,9830.1,100479.6,286.2,5760.6,8433.6,249.6,9827.1,9174.6,9830.1,-6.9,-6.0,9830.1,9830.1,-0.6,424.2,4921.5,450.9,0,2436,36219190820864,228,0, 
1.3567,537.3,48.3,187.2,150.6,-4303.5,-234.3,628.5,681.9,37716.9,422.4,-1522.8,-865.5,-213.6,2716.2,9062.1,780.0,-6.6,-5.7,-1277.4,-350.7,-0.9,557.7,-5769.9,400.8,0,2442,36219190820864,229,0, 
1.3600,527.7,36.0,182.1,147.9,-9819.9,-333.3,638.1,-9830.1,-33122.7,429.0,-7804.5,-9239.1,-488.7,-9827.4,-9615.9,-9830.1,-6.9,-6.0,-9830.1,-9830.1,-0.3,569.7,-9830.1,378.0,0,2448,36219190820864,230,0, 
1.3633,469.8,44.4,156.0,84.3,-6407.7,-171.0,581.1,-8246.4,-14523.6,316.5,-4775.7,-5561.7,-189.0,-6865.2,-2727.9,-8083.8,-6.6,-6.0,-7731.6,-7896.0,-0.6,455.4,-4551.6,414.3,0,2454,36219190820864,231,0, 
1.3667,432.9,52.2,122.4,34.5,7281.9,21.0,523.2,6918.3,67801.5,217.2,3213.6,4835.7,250.8,8187.6,9830.1,7089.0,-7.2,-5.7,5974.8,6113.7,-0.9,354.6,5827.2,458.4,0,2460,36219190820864,232,0, 
1.3700,472.5,57.9,148.8,77.4,9106.8,-18.0,551.4,9830.1,99664.5,276.0,5839.2,8646.0,243.9,9827.1,9222.9,9830.1,-6.3,-6.3,9830.1,9830.1,-0.9,416.7,4987.8,456.6,0,2466,36219190820864,233,0, 
1.3733,525.0,44.7,173.1,138.0,-4194.6,-245.7,624.0,758.1,37272.3,418.2,-1371.6,-612.6,-215.1,2998.8,8871.0,920.7,-7.2,-6.0,-1111.5,-181.2,-0.9,550.2,-5691.9,400.8,0,2472,36219190820864,234,0, 
1.3767,519.3,38.4,169.2,140.4,-9819.9,-335.1,633.9,-9830.1,-33196.8,431.1,-7694.1,-9027.0,-476.1,-9827.4,-9798.0,-9830.1,-6.9,-6.3,-9830.1,-9830.1,-0.9,566.4,-9830.1,376.5,0,2478,36219190820864,235,0, 
1.3800,459.3,45.3,142.5,79.5,-6335.1,-174.3,573.0,-8182.8,-14449.5,314.1,-4712.4,-5391.6,-188.1,-6614.1,-3048.0,-8033.1,-6.9,-6.0,-7674.9,-7825.2,-0.9,450.0,-4496.4,411.0,0,2484,36219190820864,236,0, 
1.3833,432.3,60.0,127.8,33.9,7332.3,20.4,522.3,7026.6,68097.9,224.1,3165.9,4821.3,252.6,8434.8,9830.1,7163.1,-6.9,-6.0,6045.3,6205.5,-0.9,351.6,5856.0,453.9,0,2490,36219190820864,237,0, 
1.3867,472.5,66.3,148.2,74.4,9168.0,-10.5,555.6,9830.1,100257.3,288.9,5887.5,8811.9,255.9,9827.1,9175.5,9830.1,-7.2,-6.0,9830.1,9830.1,-0.9,422.7,5051.4,449.1,0,2496,36219190820864,238,0, 
1.3900,526.2,53.7,186.6,139.8,-4070.7,-233.7,627.3,1091.7,38457.9,425.4,-1299.3,-421.8,-198.0,3544.8,9012.3,1226.1,-7.2,-6.0,-858.3,243.6,-0.9,555.6,-5592.9,402.0,0,2502,36219190820864,239,0, 
1.3933,522.0,47.4,178.8,136.8,-9819.9,-338.4,641.4,-9830.1,-32011.2,435.3,-7742.7,-8974.5,-474.3,-9827.4,-9782.1,-9830.1,-6.9,-5.7,-9830.1,-9830.1,-1.2,574.8,-9830.1,382.5,0,2508,36219190820864,240,0, 
1.3967,464.4,47.1,141.9,64.5,-6261.3,-180.0,572.1,-8053.8,-13263.9,316.8,-4768.2,-5364.6,-175.5,-6372.9,-2887.2,-7920.0,-6.9,-6.0,-7622.7,-7724.1,-0.6,449.1,-4453.5,417.0,0,2514,36219190820864,241,0, 
1.4000,437.7,65.4,125.4,25.8,7375.8,17.4,522.9,7208.4,69505.8,229.8,3201.3,4944.9,272.7,8628.9,9830.1,7311.9,-6.6,-6.0,6083.7,6340.5,-0.9,359.1,5919.9,454.5,0,2520,36219190820864,242,0, 
1.4033,476.7,69.9,149.1,62.4,9235.2,-11.1,556.2,9830.1,101665.2,289.8,6044.7,8801.4,273.9,9827.1,9075.3,9830.1,-6.9,-5.4,9830.1,9830.1,-1.2,422.4,5132.4,455.7,0,2526,36219190820864,243,0, 
1.4067,528.3,48.9,172.2,129.6,-3902.1,-238.2,623.7,1364.7,40014.0,418.5,-1229.4,-603.0,-193.5,3876.0,9341.4,1450.8,-6.6,-6.0,-772.5,278.4,-0.6,554.7,-5520.3,394.2,0,2532,36219190820864,244,0, 
1.4100,521.4,42.6,167.4,128.1,-9819.9,-340.8,632.4,-9830.1,-30381.0,434.7,-7530.0,-9001.5,-462.6,-9827.4,-9522.6,-9830.1,-6.6,-5.7,-9830.1,-9830.1,-0.9,571.8,-9830.1,362.1,0,2538,36219190820864,245,0, 
1.4133,469.2,47.4,138.3,63.3,-6216.0,-180.9,569.4,-7960.8,-11930.1,324.3,-4607.4,-5300.7,-179.7,-6174.6,-2359.5,-7865.7,-6.9,-6.3,-7471.8,-7665.9,-0.9,450.0,-4404.9,395.1,0,2544,36219190820864,246,0, 
1.4167,438.0,60.3,118.8,20.1,7405.8,23.1,514.2,7331.7,70691.4,226.2,3276.0,4985.1,271.5,8792.4,9830.1,7402.8,-6.6,-6.3,6269.7,6394.5,-0.9,352.2,5946.9,440.4,0,2550,36219190820864,247,0, 
1.4200,480.3,66.3,142.8,60.9,9322.5,-10.5,549.3,9830.1,103147.2,290.4,6070.8,8878.2,271.8,9827.1,9023.7,9830.1,-6.6,-5.7,9830.1,9830.1,-0.9,421.2,5177.7,438.3,0,2556,36219190820864,248,0, 
1.4233,528.6,44.1,167.1,124.5,-3776.4,-244.2,613.8,1606.5,41570.1,414.0,-1148.1,-347.4,-188.1,4225.5,9591.0,1695.6,-6.9,-5.4,-506.7,409.8,-0.6,551.1,-5489.7,378.6,0,2562,36219190820864,249,0, 
1.4267,519.0,41.1,170.4,123.0,-9819.9,-345.6,630.9,-9830.1,-28973.1,438.0,-7586.1,-8814.3,-453.0,-9827.4,-9198.3,-9830.1,-6.9,-6.3,-9830.1,-9830.1,-0.9,576.0,-9830.1,359.4,0,2568,36219190820864,250,0, 
1.4300,460.5,43.2,128.7,57.6,-6170.7,-198.0,566.1,-7963.8,-10966.8,315.9,-4715.1,-5307.6,-175.5,-6073.2,-2284.2,-7808.7,-6.6,-5.7,-7542.6,-7767.3,-0.9,453.9,-4446.0,389.1,0,2574,36219190820864,251,0, 
1.4333,438.6,61.8,117.3,14.7,7409.4,3.3,522.3,7308.9,71432.4,221.4,3187.2,5019.9,272.1,8858.1,9830.1,7434.6,-7.2,-6.0,6195.3,6254.1,-0.9,359.4,5920.2,438.0,0,2580,36219190820864,252,0, 
1.4367,474.0,63.3,139.8,62.1,9276.6,-24.0,555.0,9830.1,103740.0,288.6,5998.8,8838.0,271.2,9827.1,8983.5,9830.1,-6.9,-6.3,9830.1,9830.1,-0.9,421.8,5146.8,438.0,0,2586,36219190820864,253,0, 
1.4400,526.2,42.3,173.1,127.2,-3855.3,-245.7,630.0,1576.5,42162.9,419.4,-1233.3,-444.3,-193.2,4275.3,9716.7,1625.7,-7.5,-6.0,-552.0,425.4,-0.6,561.6,-5516.7,395.1,0,2592,36219190820864,254,0, 
1.4433,522.0,33.9,167.4,132.6,-9819.9,-339.6,646.8,-9830.1,-28824.9,435.6,-7662.3,-8982.3,-463.8,-9827.4,-8971.5,-9830.1,-6.9,-6.0,-9830.1,-9830.1,-0.6,575.7,-9830.1,373.2,0,2598,36219190820864,255,0, 
1.4467,460.2,35.4,131.4,62.4,-6345.6,-188.4,579.0,-8058.9,-11263.2,315.6,-4756.8,-5443.8,-183.3,-6213.9,-2176.5,-7960.2,-7.2,-6.0,-7651.8,-7820.1,-0.6,455.4,-4515.3,405.0,0,2604,36219190820864,0,0, 
1.4500,427.5,47.7,107.7,18.0,7256.1,16.2,528.9,7162.2,70765.5,227.4,3030.6,4699.5,256.5,8755.5,9830.1,7232.4,-6.9,-5.7,6007.8,6211.8,-1.2,364.8,5818.8,447.3,0,2610,36219190820864,1,0, 
1.4533,467.7,54.0,138.6,60.0,9222.6,-25.8,557.4,9830.1,103147.2,284.1,5907.0,8623.2,254.4,9827.1,9024.6,9830.1,-6.9,-6.0,9830.1,9830.1,-0.9,421.8,5119.2,438.6,0,2616,36219190820864,2,0, 
1.4567,522.3,37.8,165.9,125.4,-4023.6,-249.0,625.8,1295.1,41496.0,418.5,-1394.1,-646.5,-219.0,4089.6,9596.1,1421.7,-7.2,-6.0,-1022.1,205.8,-0.6,558.3,-5583.9,388.8,0,2622,36219190820864,3,0, 
1.4600,517.2,33.3,158.1,120.3,-9819.9,-358.5,632.4,-9830.1,-29640.0,423.6,-7804.8,-9151.5,-495.9,-9827.4,-9086.7,-9830.1,-7.2,-6.0,-9830.1,-9830.1,-0.9,568.8,-9830.1,354.3,0,2628,36219190820864,4,0, 
1.4633,456.9,21.9,122.7,57.6,-6484.2,-192.6,569.4,-8220.3,-12448.8,310.2,-4930.5,-5587.2,-188.4,-6324.9,-2314.2,-8092.8,-6.6,-5.7,-7932.6,-7944.3,-0.9,453.3,-4617.6,392.1,0,2634,36219190820864,5,0, 
1.4667,432.9,42.6,115.8,15.3,7153.2,-0.3,522.6,6944.7,69209.4,223.8,2878.8,4725.3,260.7,8661.0,9830.1,7053.0,-6.9,-6.0,5684.4,6008.1,-0.9,357.3,5742.9,441.0,0,2640,36219190820864,6,0, 
1.4700,471.6,46.2,138.3,53.1,9149.4,-30.9,555.0,9830.1,101813.4,281.4,5691.3,8558.7,262.5,9827.1,9095.1,9830.1,-6.9,-5.7,9830.1,9830.1,-0.9,419.4,5030.7,436.8,0,2646,36219190820864,7,0, 
1.4733,525.9,35.4,171.0,118.2,-4116.6,-256.8,625.2,1029.3,39939.9,412.8,-1512.6,-657.3,-201.0,3909.3,9411.3,1117.8,-6.3,-5.7,-1316.1,-9.9,-0.9,550.2,-5607.6,384.3,0,2652,36219190820864,8,0, 
1.4767,518.7,29.1,167.4,123.3,-9819.9,-354.9,634.5,-9830.1,-31196.1,429.6,-7899.0,-9233.1,-469.8,-9827.4,-9225.3,-9830.1,-6.6,-5.4,-9830.1,-9830.1,-0.9,567.6,-9830.1,355.5,0,2658,36219190820864,9,0, 
1.4800,465.3,38.1,139.5,57.0,-6595.5,-195.6,573.9,-8367.3,-14301.3,319.8,-5038.5,-5669.1,-186.0,-6477.3,-2799.0,-8271.9,-7.2,-6.3,-8081.4,-8047.2,-0.9,458.1,-4692.9,390.9,0,2664,36219190820864,10,0, 
1.4833,433.8,53.4,119.1,11.7,7054.8,0.0,519.3,6734.1,67356.9,225.3,2890.2,4583.7,261.9,8536.8,9830.1,6807.3,-6.6,-6.6,5368.2,5851.5,-1.2,358.8,5617.2,431.4,0,2670,36219190820864,11,0, 
1.4867,476.4,63.9,144.9,51.9,9134.4,-22.2,555.6,9830.1,99960.9,285.9,5668.2,8474.4,260.7,9827.1,9199.5,9830.1,-6.9,-5.7,9830.1,9830.1,-0.9,418.8,4922.4,435.0,0,2676,36219190820864,12,0, 
1.4900,527.7,42.3,175.5,120.3,-4199.7,-249.0,627.0,765.9,38532.0,425.4,-1603.8,-663.9,-197.7,3742.5,9077.1,874.8,-7.2,-5.7,-1640.7,-35.4,-0.6,558.3,-5649.0,384.3,0,2682,36219190820864,13,0, 
1.4933,522.3,35.7,171.6,124.8,-9819.9,-356.7,638.7,-9830.1,-32900.4,443.4,-8066.4,-9231.3,-464.1,-9827.4,-9485.7,-9830.1,-6.6,-5.7,-9830.1,-9830.1,-0.6,568.5,-9830.1,362.1,0,2688,36219190820864,14,0, 
1.4967,467.1,41.1,144.0,60.3,-6675.6,-204.6,573.3,-8522.7,-16227.9,332.7,-5176.2,-5772.0,-176.4,-6674.1,-3455.4,-8404.5,-6.9,-6.3,-8253.6,-8041.5,-0.9,447.6,-4788.6,391.2,0,2694,36219190820864,15,0, 
1.5000,433.5,50.1,127.8,14.1,6990.9,-3.6,515.1,6490.5,65430.3,244.2,2652.6,4546.8,265.2,8391.0,9830.1,6609.6,-7.2,-6.3,5140.5,5820.6,-0.6,350.7,5558.4,433.2,0,2700,36219190820864,16,0, 
1.5033,470.4,55.5,143.4,50.1,9091.5,-39.0,549.0,9830.1,98108.4,302.4,5460.3,8401.5,268.8,9827.1,9330.0,9830.1,-6.9,-5.7,9830.1,9830.1,-0.9,405.6,4874.1,427.2,0,2706,36219190820864,17,0, 
1.5067,522.6,37.8,174.6,119.1,-4226.7,-259.8,615.9,579.6,37050.0,426.9,-1626.3,-650.4,-186.6,3574.5,8634.0,671.7,-6.9,-6.3,-1865.7,-132.3,-1.2,536.1,-5650.8,373.8,0,2712,36219190820864,18,0, 
1.5100,518.7,27.0,177.0,123.9,-9819.9,-360.9,631.5,-9830.1,-34160.1,431.4,-8109.0,-9238.5,-463.5,-9827.4,-9830.1,-9830.1,-7.5,-5.7,-9830.1,-9830.1,-0.6,565.2,-9830.1,349.5,0,2718,36219190820864,19,0, 
1.5133,459.9,32.1,145.2,66.0,-6711.6,-200.1,572.4,-8564.7,-17635.8,308.7,-5288.1,-5804.4,-183.3,-6741.0,-3880.2,-8473.8,-7.2,-6.0,-8269.5,-8117.1,-0.9,455.7,-4810.2,388.8,0,2724,36219190820864,20,0, 
1.5167,427.5,54.3,123.3,16.2,6934.2,-3.3,520.5,6459.6,64170.6,205.8,2518.5,4380.6,254.1,8334.3,9830.1,6536.1,-7.2,-5.7,5101.5,5721.0,-0.6,361.8,5517.3,430.8,0,2730,36219190820864,21,0, 
1.5200,464.7,48.6,143.4,56.4,9130.8,-23.4,557.7,9830.1,97145.1,265.8,5301.6,8370.0,262.2,9827.1,9426.9,9830.1,-7.2,-5.7,9830.1,9830.1,-0.9,434.7,4922.4,438.3,0,2736,36219190820864,22,0, 
1.5233,522.3,47.1,176.4,124.8,-4199.1,-238.5,627.9,614.7,36086.7,400.2,-1737.6,-669.6,-189.6,3685.2,8385.3,666.0,-7.2,-6.3,-1824.0,-18.3,-0.6,572.1,-5619.9,387.0,0,2742,36219190820864,23,0, 
1.5267,516.6,29.7,180.3,136.2,-9819.9,-339.3,639.3,-9830.1,-35049.3,427.2,-8164.5,-9274.5,-460.8,-9827.4,-9830.1,-9830.1,-6.9,-6.0,-9830.1,-9830.1,-0.9,596.7,-9830.1,369.3,0,2748,36219190820864,24,0, 
1.5300,465.6,35.7,151.5,73.8,-6769.2,-184.2,585.6,-8580.0,-18599.1,306.0,-5341.2,-5793.0,-181.8,-6755.4,-4211.4,-8491.5,-6.9,-6.0,-8355.6,-8075.1,-0.9,479.7,-4866.3,407.1,0,2754,36219190820864,25,0, 
1.5333,438.6,64.2,135.6,32.1,6908.7,16.5,537.9,6454.5,63059.1,221.7,2454.6,4421.7,257.7,8310.6,9830.1,6509.7,-6.9,-5.7,5010.3,5830.2,-0.9,380.1,5497.5,453.3,0,2760,36219190820864,26,0, 
1.5367,483.9,64.2,166.8,74.4,9124.8,-16.5,570.6,9830.1,96181.8,299.4,5259.0,8328.0,285.6,9827.1,9538.2,9830.1,-7.2,-6.0,9830.1,9830.1,-1.2,444.9,4918.8,458.7,0,2766,36219190820864,27,0, 
1.5400,531.0,41.4,195.6,137.4,-4171.8,-246.3,639.3,690.0,35123.4,430.5,-1843.2,-731.4,-176.1,3549.6,8122.5,720.3,-6.9,-5.7,-1974.3,149.1,-0.6,572.7,-5669.1,400.8,0,2772,36219190820864,28,0, 
1.5433,531.0,38.1,192.9,145.2,-9819.9,-344.7,650.4,-9830.1,-36012.6,454.8,-8194.5,-9293.1,-441.6,-9827.4,-9830.1,-9830.1,-7.2,-6.0,-9830.1,-9830.1,-0.6,592.8,-9830.1,380.4,0,2778,36219190820864,29,0, 
1.5467,481.8,51.9,173.4,90.9,-6808.8,-176.1,594.0,-8635.2,-19858.8,351.9,-5388.0,-5878.5,-162.6,-6866.7,-4538.4,-8537.7,-6.9,-6.0,-8540.7,-8088.3,-0.3,483.0,-4884.3,417.9,0,2784,36219190820864,30,0, 
1.5500,452.7,66.3,159.0,52.2,6777.9,33.6,545.4,6343.8,61132.5,256.8,2386.2,4208.4,277.5,8181.3,9830.1,6416.1,-6.3,-6.0,4563.3,5780.7,-0.3,387.9,5378.7,460.2,0,2790,36219190820864,31,0, 
1.5533,491.7,75.0,180.3,87.3,9033.6,-5.4,575.4,9830.1,93958.8,316.2,5214.3,8203.5,278.7,9827.1,9783.9,9830.1,-6.6,-5.1,9830.1,9830.1,-1.2,441.0,4816.2,449.4,0,2796,36219190820864,32,0, 
1.5567,541.5,55.8,196.8,151.5,-4390.2,-234.9,641.4,396.0,32900.4,441.6,-1846.8,-859.2,-179.7,3217.2,7436.1,508.2,-6.9,-6.3,-2655.0,222.0,-0.3,570.0,-5738.1,396.3,0,2802,36219190820864,33,0, 
1.5600,537.3,43.5,191.7,157.5,-9819.9,-335.1,655.5,-9830.1,-39198.9,464.7,-8374.2,-9441.0,-446.7,-9827.4,-9830.1,-9830.1,-6.9,-6.0,-9830.1,-9830.1,-0.3,593.1,-9830.1,371.7,0,2808,36219190820864,34,0, 
1.5633,489.6,59.4,165.3,93.3,-7100.7,-179.1,598.5,-8915.4,-23934.3,354.6,-5590.8,-6019.8,-165.6,-7294.8,-5388.9,-8787.0,-6.9,-5.4,-8994.3,-8098.5,-0.6,478.2,-5071.2,405.3,0,2814,36219190820864,35,0, 
1.5667,456.0,77.7,142.8,51.3,6455.1,12.3,545.7,5818.2,56538.3,262.8,1920.9,4116.6,279.9,7692.3,9829.5,5972.7,-7.2,-6.0,3657.6,5667.6,-0.9,377.7,5148.0,446.1,0,2820,36219190820864,36,0, 
1.5700,495.0,84.6,170.1,92.4,8784.3,-21.6,578.7,9830.1,89142.3,311.4,4635.3,7907.4,280.5,9827.1,9830.1,9830.1,-7.2,-6.3,9830.1,9830.1,-0.9,434.4,4541.7,447.6,0,2826,36219190820864,37,0, 
1.5733,543.6,62.7,201.6,153.3,-4825.5,-249.0,643.8,-421.2,27417.0,442.2,-2225.7,-933.3,-175.2,2303.1,6008.4,-260.4,-7.2,-6.3,-3800.7,-156.0,-0.6,565.5,-5874.3,387.6,0,2832,36219190820864,38,0, 
1.5767,541.5,49.2,214.2,164.4,-9819.9,-339.0,655.8,-9830.1,-45423.3,464.4,-8792.1,-9515.7,-452.7,-9827.4,-9830.1,-9830.1,-6.9,-6.3,-9830.1,-9830.1,-0.6,585.9,-9830.1,369.9,0,2838,36219190820864,39,0, 
1.5800,493.8,57.3,181.8,98.7,-7489.5,-187.8,594.9,-9377.7,-31640.7,352.8,-5960.4,-5915.1,-175.8,-7936.8,-6802.5,-9243.9,-6.6,-6.3,-9504.3,-8229.9,-0.3,477.9,-5377.5,410.7,0,2844,36219190820864,40,0, 
1.5833,459.3,69.6,156.9,47.7,5655.9,1.8,542.7,4837.8,47127.6,257.7,1109.1,3601.8,261.3,6838.8,8767.5,5051.4,-7.2,-5.7,1680.9,5358.6,-0.9,372.9,4590.6,450.3,0,2850,36219190820864,41,0, 
1.5867,495.3,70.5,172.5,85.5,7707.6,-29.4,571.8,9830.1,77360.4,315.3,3554.4,7338.6,253.5,9827.1,9830.1,9830.1,-6.9,-5.7,7635.9,9830.1,-0.9,430.5,3861.6,445.8,0,2856,36219190820864,42,0, 
1.5900,551.4,58.2,198.0,145.5,-5903.1,-257.7,641.4,-2361.6,12967.5,444.6,-3764.7,-1665.0,-204.6,86.1,2603.1,-2258.4,-7.2,-6.3,-6512.4,-739.2,-0.6,563.1,-6630.3,391.2,0,2862,36219190820864,43,0, 
1.5933,545.1,43.2,194.1,140.1,-9819.9,-378.3,656.7,-9830.1,-63429.6,468.6,-9830.1,-9817.8,-495.0,-9827.4,-9830.1,-9830.1,-6.6,-6.0,-9830.1,-9830.1,-0.6,584.1,-9830.1,361.2,0,2868,36219190820864,44,0, 
1.5967,492.0,59.1,164.1,79.5,-8440.2,-214.5,597.3,-9830.1,-52685.1,354.0,-7608.6,-6488.4,-224.7,-9294.6,-9273.3,-9830.1,-6.6,-5.7,-9830.1,-8453.1,-0.6,467.4,-6395.7,399.9,0,2874,36219192918016,45,0, 
1.6000,451.5,62.4,141.3,28.2,3807.3,-32.1,539.7,1627.2,24897.6,255.6,-727.2,2822.1,201.9,3864.9,5055.0,1907.4,-6.9,-6.0,-3373.5,4887.3,-0.6,371.7,3487.8,439.8,0,2880,36219192918016,46,0, 
1.6033,486.9,64.2,162.6,71.4,5991.0,-57.0,576.9,9830.1,54982.2,313.5,1362.6,5831.7,209.1,9827.1,9830.1,9830.1,-6.6,-6.0,2025.3,9830.1,-0.6,430.8,2854.8,436.2,0,2886,36219192918016,47,0, 
1.6067,546.9,54.9,197.7,142.8,-6723.6,-277.8,642.9,-5284.5,-8373.3,444.9,-5334.6,-2221.2,-239.7,-3307.2,-2506.8,-5186.7,-6.9,-6.0,-8714.4,-1233.3,-0.9,559.8,-7048.8,390.3,0,2892,36219192918016,48,0, 
1.6100,545.4,45.3,196.8,145.8,-9819.9,-381.6,659.7,-9830.1,-83733.0,464.7,-9830.1,-9817.8,-522.9,-9827.4,-9830.1,-9830.1,-6.6,-5.7,-9636.6,-9830.1,-0.9,585.3,-9830.1,362.1,0,2898,36219192918016,49,0, 
1.6133,496.5,64.5,173.1,85.8,-8648.1,-219.3,597.9,-9830.1,-71136.0,347.1,-8313.9,-6711.6,-251.4,-9827.4,-9830.1,-9830.1,-6.9,-6.0,-9830.1,-8514.0,-0.3,466.8,-6652.8,397.2,0,2904,36219192918016,50,0, 
1.6167,459.0,61.5,157.5,36.6,3520.5,-21.9,549.9,425.1,7854.6,261.0,-1153.8,3056.4,209.1,2363.4,-137.7,703.5,-6.3,-5.7,-4565.7,5028.0,-0.9,376.8,3429.9,453.9,0,2910,36219192918016,51,0, 
1.6200,490.8,63.6,183.3,72.6,5848.8,-48.0,579.6,9830.1,39939.9,316.5,732.9,5559.3,196.8,9827.1,9830.1,9830.1,-6.9,-6.0,939.9,9830.1,-0.3,430.5,2705.1,453.0,0,2916,36219192918016,52,0, 
1.6233,551.1,57.0,209.4,144.3,-6703.8,-261.3,647.4,-5966.7,-22081.8,444.9,-5319.6,-2144.1,-245.1,-4347.0,-7163.4,-5915.7,-6.9,-6.0,-8993.4,-1177.8,-0.6,566.4,-7045.2,407.4,0,2922,36219192918016,53,0, 
1.6267,548.1,43.5,210.3,148.5,-9819.9,-373.5,657.6,-9830.1,-96626.4,474.6,-9830.1,-9817.8,-529.8,-9827.4,-9830.1,-9830.1,-6.9,-6.0,-9540.6,-9830.1,-0.9,589.8,-9830.1,375.3,0,2928,36219192918016,54,0, 
1.6300,490.8,48.9,180.6,82.5,-8630.1,-212.4,593.7,-9830.1,-83214.3,352.5,-8279.4,-6859.8,-260.4,-9827.4,-9830.1,-9830.1,-6.6,-6.0,-9830.1,-8573.7,-0.6,468.9,-6681.3,405.9,0,2934,36219192918016,55,0, 
1.6333,455.1,60.9,157.8,32.7,3645.0,-26.4,537.6,425.7,-3482.7,254.1,-947.7,3099.9,185.4,1870.5,-5040.9,699.0,-6.9,-5.7,-4031.4,4951.2,-0.6,371.1,3426.9,445.8,0,2940,36219192918016,56,0, 
1.6367,489.6,60.3,178.2,62.7,6035.4,-57.9,565.5,9830.1,29343.6,316.8,942.3,5716.5,184.5,9827.1,4677.9,9830.1,-6.9,-5.7,1755.0,9830.1,-0.6,426.3,2719.8,433.5,0,2946,36219192918016,57,0, 
1.6400,544.5,49.2,203.1,124.8,-6604.5,-274.8,633.0,-5904.9,-32233.5,441.3,-5112.9,-2115.3,-258.0,-4698.6,-9830.1,-5731.2,-7.2,-6.0,-8704.5,-1262.7,-1.2,554.7,-7025.7,381.3,0,2952,36219192918016,58,0, 
1.6433,540.9,30.6,196.2,130.2,-9819.9,-381.6,643.8,-9830.1,-106333.5,461.4,-9830.1,-9817.8,-543.3,-9827.4,-9278.7,-9830.1,-6.9,-6.0,-9565.2,-9830.1,-0.3,572.7,-9830.1,345.6,0,2958,36219192918016,59,0, 
1.6467,495.3,49.2,185.1,79.8,-8638.2,-212.4,587.4,-9830.1,-93069.6,354.0,-8261.1,-7012.5,-261.6,-9827.4,-9830.1,-9830.1,-6.6,-6.0,-9830.1,-8713.5,-0.3,468.0,-6779.7,389.4,0,2964,36219192918016,60,0, 
1.6500,463.2,66.6,160.5,37.2,3675.3,-22.2,536.7,576.9,-13263.9,269.1,-821.7,3124.5,178.8,1432.2,-8177.4,882.6,-6.6,-6.3,-3477.9,4897.2,-0.3,367.5,3365.4,439.2,0,2970,36219192918016,61,0, 
1.6533,499.5,66.9,181.8,73.8,6057.0,-56.7,567.6,9830.1,19784.7,313.5,1224.3,5706.6,169.5,9827.1,-3797.1,9830.1,-6.9,-6.0,2362.5,9830.1,-0.9,427.5,2641.8,431.7,0,2976,36219192918016,62,0, 
1.6567,555.9,55.2,213.0,146.4,-6607.8,-272.4,641.7,-5706.0,-41718.3,449.7,-4976.1,-2276.4,-274.2,-5097.3,-9830.1,-5529.6,-6.3,-6.3,-8415.0,-1252.5,-1.2,559.8,-7104.3,389.7,0,2982,36219192918016,63,0, 
1.6600,555.6,41.4,213.9,146.7,-9819.9,-378.0,651.6,-9830.1,-115744.2,469.8,-9830.1,-9817.8,-560.4,-9827.4,-9314.7,-9830.1,-6.6,-5.7,-9621.3,-9830.1,-0.6,588.3,-9830.1,362.4,0,2988,36219192918016,64,0, 
1.6633,501.6,55.8,187.8,89.1,-8652.6,-211.2,598.2,-9830.1,-102554.4,366.6,-8194.8,-7090.2,-281.7,-9827.4,-9830.1,-9830.1,-6.6,-5.7,-9830.1,-8743.8,-1.2,475.8,-6816.9,397.5,0,2994,36219192918016,65,0, 
1.6667,467.4,77.7,166.2,52.8,3698.1,-7.5,543.3,763.8,-22600.5,269.1,-501.6,3257.7,166.5,995.7,-9575.7,996.6,-6.6,-6.0,-3126.0,4869.0,-0.9,380.1,3332.7,443.1,0,3000,36219192918016,66,0, 
1.6700,501.6,82.2,190.5,90.0,6169.2,-42.3,573.0,9830.1,11115.0,332.1,1646.7,5883.9,165.9,9827.1,-9305.1,9830.1,-6.9,-6.0,3094.8,9830.1,-1.2,439.5,2681.4,438.0,0,3006,36219192918016,67,0, 
1.6733,554.4,67.2,208.5,151.2,-6532.8,-258.9,636.6,-5387.4,-49572.9,452.7,-4557.3,-2043.3,-275.7,-5406.3,-9830.1,-5274.3,-6.9,-6.0,-8106.0,-1246.2,-1.2,567.6,-7096.5,393.6,0,3012,36219192918016,68,0, 
1.6767,546.0,48.0,207.0,154.5,-9819.9,-376.5,650.1,-9830.1,-123302.4,482.1,-9830.1,-9817.8,-566.4,-9827.4,-9745.8,-9830.1,-6.6,-6.0,-9654.6,-9830.1,-0.9,588.6,-9830.1,363.9,0,3018,36219192918016,69,0, 
1.6800,495.0,70.8,177.3,93.9,-8638.5,-213.9,588.0,-9830.1,-109964.4,361.8,-7985.1,-7116.9,-294.3,-9827.4,-9830.1,-9830.1,-6.9,-6.0,-9830.1,-8784.6,-0.6,471.0,-6839.4,405.3,0,3024,36219192918016,70,0, 
1.6833,466.5,78.3,155.4,47.4,3791.1,-7.2,534.6,1226.1,-29640.0,268.2,-54.3,3288.3,159.0,648.6,-9783.9,1300.5,-7.2,-5.7,-2357.4,4721.7,-1.2,376.2,3338.4,452.4,0,3030,36219192918016,71,0, 
1.6867,493.5,72.3,165.9,81.0,6360.6,-38.4,564.3,9830.1,4297.8,322.2,2105.1,6145.8,180.6,9827.1,-9830.1,9830.1,-6.9,-5.7,3990.6,9830.1,-0.6,430.8,2765.7,441.9,0,3036,0,72,0, 
1.6900,548.7,64.2,190.8,140.7,-6393.3,-258.0,629.7,-4811.7,-56019.6,449.4,-4035.6,-1818.0,-271.8,-5685.3,-9828.0,-4828.5,-7.2,-6.0,-7734.0,-1086.9,-1.2,557.1,-7030.2,394.8,0,3042,276488536064,73,0, 
1.6933,544.8,47.1,184.2,142.8,-9819.9,-365.7,641.4,-9830.1,-129971.4,471.6,-9830.1,-9817.8,-568.2,-9827.4,-9830.1,-9830.1,-7.2,-6.0,-9726.9,-9830.1,-0.9,583.8,-9830.1,365.4,0,3048,276488536064,74,0, 
1.6967,492.6,59.4,162.6,85.8,-8601.6,-207.3,584.7,-9830.1,-116781.6,359.7,-7766.4,-7046.1,-291.3,-9827.4,-9830.1,-9830.1,-6.9,-6.0,-9830.1,-8807.1,-0.6,471.6,-6882.9,403.5,0,3054,36012766052352,75,0, 
1.7000,458.4,70.8,137.7,36.3,3819.3,-13.8,526.5,1378.2,-36457.2,258.0,114.3,3365.7,155.1,107.1,-9830.1,1525.8,-6.9,-6.0,-2264.4,4634.4,-0.6,369.9,3286.8,440.7,0,3060,36150205005824,76,0, 
1.7033,491.4,66.3,153.6,65.7,6520.8,-42.9,559.2,9830.1,-2223.0,318.6,2498.7,6597.0,159.0,9827.1,-9830.1,9830.1,-6.6,-6.3,4532.1,9830.1,-0.6,427.2,2808.6,441.0,0,3066,36150205005824,77,0, 
1.7067,543.3,50.4,181.2,134.4,-6313.8,-264.3,627.0,-4368.0,-61651.2,444.0,-3681.6,-1551.6,-275.7,-6028.2,-9830.1,-4445.4,-7.2,-6.0,-7423.8,-931.5,-0.6,551.7,-7013.7,389.1,0,3072,36150205005824,78,0, 
1.7100,543.6,41.7,184.5,141.9,-9819.9,-373.2,638.4,-9830.1,-134862.0,471.6,-9830.1,-9817.8,-556.5,-9827.4,-9830.1,-9830.1,-6.3,-6.0,-9761.7,-9830.1,-0.6,574.5,-9830.1,359.4,0,3078,36150205005824,79,0, 
1.7133,493.8,62.1,157.2,84.6,-8471.4,-204.0,582.0,-9830.1,-120857.1,358.5,-7386.6,-6822.3,-280.5,-9827.4,-9830.1,-9830.1,-6.9,-6.0,-9830.1,-8693.4,-0.9,459.0,-6766.8,391.2,0,3084,36150205005824,80,0, 
1.7167,460.5,75.3,132.3,33.9,4206.9,-6.0,525.9,2330.4,-39643.5,264.9,735.0,3487.2,166.2,123.0,-9830.1,2268.6,-7.2,-6.3,-1071.9,4933.2,-0.6,362.4,3510.3,438.9,0,3090,36150205005824,81,0, 
1.7200,501.9,78.9,151.8,73.2,7085.1,-23.7,561.9,9830.1,-4297.8,316.2,3302.4,6894.9,175.2,9827.1,-9830.1,9830.1,-7.2,-6.0,6509.7,9830.1,-1.2,417.6,3139.5,438.9,0,3096,36150205005824,82,0, 
1.7233,556.8,62.4,179.4,134.4,-5865.9,-237.3,631.5,-3081.3,-62910.9,453.6,-2910.0,-1098.0,-253.5,-5679.9,-9830.1,-3300.6,-6.9,-5.4,-6365.1,-305.4,-0.3,554.7,-6762.6,396.6,0,3102,36150205005824,83,0, 
1.7267,553.8,50.4,177.0,136.8,-9819.9,-352.8,650.1,-9830.1,-134936.1,475.8,-9746.1,-9817.8,-540.0,-9827.4,-9830.1,-9830.1,-7.2,-5.7,-9830.1,-9830.1,-1.2,582.3,-9830.1,364.5,0,3108,36150205005824,84,0, 
1.7300,494.4,55.5,154.2,74.1,-8232.9,-196.2,591.6,-9830.1,-120486.6,364.5,-6851.4,-6534.9,-269.1,-9827.4,-9830.1,-9830.1,-6.6,-6.6,-9830.1,-8525.1,-0.3,465.6,-6548.1,401.7,0,3114,36150205005824,85,0, 
1.7333,469.2,70.8,141.9,32.4,4813.8,9.9,539.4,3470.1,-38976.6,265.8,1369.2,3799.8,187.2,571.2,-9830.1,3434.4,-6.9,-6.0,423.0,5276.1,-0.6,369.0,3736.2,442.2,0,3120,36150205005824,86,0, 
1.7367,504.3,81.6,169.2,73.2,7728.9,0.0,566.1,9830.1,-3038.1,328.2,4074.9,7506.3,196.8,9827.1,-9830.1,9830.1,-6.6,-5.7,8432.1,9830.1,-0.6,429.3,3431.4,440.4,0,3126,36150205005824,87,0, 
1.7400,559.2,60.9,194.1,141.9,-5321.7,-213.9,638.4,-1698.3,-60910.2,451.5,-2203.5,-749.4,-233.7,-5074.2,-9830.1,-1894.5,-7.2,-5.7,-5103.0,224.4,-0.6,557.4,-6537.6,397.2,0,3132,36150205005824,88,0, 
1.7433,548.7,53.7,189.3,144.0,-9819.9,-328.8,650.7,-9830.1,-132490.8,477.6,-9151.5,-9701.7,-536.4,-9827.4,-9830.1,-9830.1,-7.2,-5.7,-9830.1,-9830.1,-0.6,575.4,-9830.1,361.8,0,3138,36150205005824,89,0, 
1.7467,495.0,63.0,159.0,80.4,-7895.7,-170.1,592.8,-9674.1,-117893.1,356.7,-6261.3,-6374.7,-263.4,-9827.4,-9830.1,-9693.0,-6.9,-5.4,-9686.4,-8383.5,-0.9,462.0,-6307.5,393.9,0,3144,36150205005824,90,0, 
1.7500,467.7,90.6,144.3,35.4,5430.6,33.0,539.7,4628.7,-36383.1,265.2,1997.7,4327.8,182.7,1241.7,-9830.1,4515.0,-6.6,-6.3,2238.3,5467.2,-1.2,365.1,4027.5,445.5,0,3150,36150205005824,91,0, 
1.7533,501.0,75.0,159.6,74.1,8282.4,13.5,572.7,9830.1,74.1,317.7,4689.6,7877.7,220.2,9827.1,-9830.1,9830.1,-6.9,-6.0,9830.1,9830.1,-0.6,427.5,3732.6,448.2,0,3156,36150205005824,92,0, 
1.7567,553.5,63.6,188.1,137.7,-4880.4,-200.7,638.4,-306.3,-57205.2,450.3,-1554.9,-398.1,-232.2,-4422.3,-9830.1,-520.5,-7.2,-6.0,-3857.4,493.5,-0.6,561.0,-6293.4,399.6,0,3162,36218924482560,93,0, 
1.7600,552.3,56.7,191.1,144.3,-9819.9,-306.9,657.0,-9830.1,-128711.7,482.7,-8374.2,-9479.1,-510.9,-9827.4,-9830.1,-9830.1,-6.9,-6.0,-9830.1,-9830.1,-0.6,593.4,-9830.1,374.7,0,3168,36218924482560,94,0, 
1.7633,493.2,63.9,159.3,75.3,-7677.0,-167.7,591.9,-9264.6,-114484.5,360.3,-5554.5,-6069.6,-249.0,-9827.4,-9830.1,-9290.1,-7.2,-6.6,-9305.7,-8277.9,-0.6,471.3,-6124.8,408.6,0,3174,36218924482560,95,0, 
1.7667,457.2,69.0,134.4,27.9,5826.0,31.5,540.6,5489.1,-32678.1,262.5,2567.4,4481.7,198.6,1674.3,-9830.1,5329.2,-6.9,-6.0,3475.5,5567.7,-0.6,367.8,4202.7,446.7,0,3180,36218924482560,96,0, 
1.7700,493.8,73.8,156.6,61.2,8758.2,2.1,561.9,9830.1,4001.4,314.4,5259.0,8096.4,217.8,9827.1,-9830.1,9830.1,-6.9,-6.3,9830.1,9830.1,-0.9,425.7,3966.3,445.5,0,3186,36218924482560,97,0, 
1.7733,546.0,55.8,178.8,127.2,-4480.2,-220.8,630.0,882.0,-53129.7,437.1,-1049.4,91.5,-224.1,-3861.3,-9830.1,549.9,-6.9,-6.0,-2324.7,616.8,-1.2,551.1,-6096.3,392.1,0,3192,36218924482560,98,0, 
1.7767,549.0,47.4,177.9,138.9,-9819.9,-335.4,646.8,-9830.1,-124562.1,467.4,-7819.8,-9075.9,-510.3,-9827.4,-9830.1,-9830.1,-6.9,-6.0,-9830.1,-9830.1,-0.6,584.7,-9830.1,363.6,0,3198,36218924482560,99,0, 
1.7800,487.8,48.3,143.7,73.2,-7459.5,-186.0,584.1,-8880.9,-110557.2,349.8,-5097.9,-5733.9,-238.8,-9827.4,-9830.1,-8956.5,-7.2,-5.7,-8839.2,-8244.0,-0.9,462.6,-5976.6,391.2,0,3204,36218924482560,100,0, 
1.7833,456.6,61.8,120.6,22.5,6080.7,21.9,528.3,6159.6,-28824.9,255.9,3033.3,4619.7,213.3,2016.0,-9830.1,5950.5,-6.9,-6.3,4365.9,5725.2,-0.6,369.3,4356.3,442.5,0,3210,36218924482560,101,0, 
1.7867,489.9,71.4,139.8,60.9,8994.3,-9.3,555.9,9830.1,7928.7,306.3,5731.2,8178.6,221.1,9827.1,-9830.1,9830.1,-6.9,-6.0,9830.1,9830.1,-0.6,423.9,4100.1,436.5,0,3216,36218924482560,102,0, 
1.7900,546.3,61.2,173.7,125.7,-4190.7,-229.8,624.3,1713.9,-48980.1,441.9,-584.4,119.1,-210.0,-3449.1,-9830.1,1378.5,-7.2,-6.3,-1265.4,966.6,-0.6,558.9,-5978.1,388.8,0,3222,36218924482560,103,0, 
1.7933,541.5,48.0,172.2,129.6,-9819.9,-341.7,641.4,-9830.1,-120560.7,459.9,-7387.5,-8962.2,-499.5,-9827.4,-9830.1,-9830.1,-6.9,-6.0,-9830.1,-9830.1,-0.6,583.8,-9830.1,357.3,0,3228,36218924482560,104,0, 
1.7967,490.8,60.0,146.7,73.8,-7377.9,-182.7,584.1,-8662.8,-106778.1,355.2,-4767.6,-5756.1,-232.8,-9827.4,-9830.1,-8743.2,-6.9,-6.3,-8454.3,-8174.1,-0.6,478.5,-5894.1,388.5,0,3234,36218924482560,105,0, 
1.8000,464.4,81.0,132.0,29.7,6156.9,18.6,530.1,6514.2,-25638.6,256.8,3250.5,4692.3,212.4,2030.4,-9830.1,6259.5,-6.9,-6.0,4984.5,5788.2,-1.2,375.0,4403.7,429.6,0,3240,36218924482560,106,0, 
1.8033,498.9,81.3,144.9,70.2,9077.7,1.5,569.1,9830.1,11040.9,319.5,5873.1,8288.7,227.7,9827.1,-9830.1,9830.1,-6.6,-6.3,9830.1,9830.1,-0.9,437.7,4205.1,445.2,0,3246,36218924482560,107,0, 
1.8067,555.3,67.2,176.1,141.0,-4064.7,-216.0,642.3,2152.5,-45793.8,448.8,-389.4,190.5,-208.2,-3525.9,-9830.1,1713.9,-7.2,-6.0,-698.7,1040.4,-0.9,572.1,-5841.3,398.1,0,3252,36218924482560,108,0, 
1.8100,549.9,49.8,172.5,139.2,-9819.9,-333.3,652.8,-9830.1,-117670.8,472.8,-7156.8,-8806.2,-500.1,-9827.4,-9830.1,-9830.1,-6.9,-5.4,-9830.1,-9830.1,-0.9,598.2,-9830.1,370.5,0,3258,36218924482560,109,0, 
1.8133,492.0,58.5,143.1,77.7,-7313.1,-179.4,590.1,-8549.7,-104184.6,360.0,-4529.7,-5695.8,-245.1,-9827.4,-9830.1,-8646.6,-6.6,-5.7,-8288.7,-8195.7,-0.6,482.7,-5829.9,396.6,0,3264,36218924482560,110,0, 
1.8167,465.3,81.6,123.9,35.7,6238.5,26.1,535.2,6689.4,-23119.2,272.7,3460.8,4611.3,210.3,2003.7,-9830.1,6425.7,-6.9,-6.3,5178.9,5681.7,-1.2,387.3,4450.8,450.9,0,3270,36218924482560,111,0, 
1.8200,494.4,82.5,144.6,72.0,9173.4,7.8,564.3,9830.1,13782.6,317.4,6129.6,8222.4,221.1,9827.1,-9830.1,9830.1,-6.9,-6.0,9830.1,9830.1,-0.9,437.1,4293.3,437.7,0,3276,36218924482560,112,0, 
1.8233,552.3,74.4,181.5,141.9,-3944.7,-204.0,632.7,2474.1,-43052.1,449.1,-147.6,193.2,-215.4,-3429.3,-9829.8,1977.6,-7.2,-6.0,-395.1,928.8,-0.9,571.8,-5790.3,396.9,0,3282,36218924482560,113,0, 
1.8267,549.0,62.1,189.0,147.6,-9819.9,-318.3,643.8,-9830.1,-114780.9,472.5,-6835.8,-8697.3,-509.4,-9827.4,-9830.1,-9830.1,-6.9,-5.7,-9830.1,-9830.1,-0.9,594.6,-9830.1,369.9,0,3288,36218924482560,114,0, 
1.8300,500.7,76.5,159.3,84.9,-7210.8,-170.4,588.0,-8458.2,-101591.1,366.9,-4232.7,-5472.0,-256.8,-9827.4,-9830.1,-8556.0,-6.6,-6.3,-8151.9,-8201.1,-0.6,483.0,-5781.6,404.7,0,3294,36218924482560,115,0, 
1.8333,466.5,83.1,149.7,40.8,6339.9,32.7,541.5,6856.5,-21044.4,264.6,3784.2,4921.5,219.3,1909.8,-9813.9,6621.0,-6.6,-6.3,5430.6,5756.4,-0.9,385.5,4503.9,451.5,0,3300,36218924482560,116,0, 
1.8367,502.2,87.0,164.1,75.3,9252.0,3.6,570.0,9830.1,15042.3,315.6,6885.9,9169.2,235.5,9827.1,-9716.7,9830.1,-7.2,-5.7,9830.1,9830.1,-0.6,437.7,4403.4,452.1,0,3306,36218924482560,117,0, 
1.8400,549.9,66.3,185.1,132.6,-3729.3,-222.9,633.3,2719.8,-41051.4,433.5,453.3,810.3,-213.6,-3516.0,-9812.1,2325.3,-7.5,-6.0,513.0,1446.3,-0.9,557.4,-5671.8,393.0,0,3312,36218924482560,118,0, 
1.8433,552.0,55.8,183.9,139.8,-9819.9,-330.0,651.9,-9830.1,-113076.6,460.2,-6327.6,-8214.0,-503.1,-9827.4,-9830.1,-9830.1,-6.6,-5.7,-9830.1,-9830.1,-0.6,584.4,-9830.1,370.8,0,3318,36218924482560,119,0, 
1.8467,491.1,55.8,151.2,75.3,-7149.6,-184.2,585.6,-8414.1,-100035.0,342.0,-3827.7,-5259.6,-243.3,-9827.4,-9830.1,-8508.6,-6.9,-6.3,-7874.4,-8128.5,-0.3,467.7,-5724.0,395.4,0,3324,36218924482560,120,0, 
1.8500,461.4,73.8,138.9,31.2,6380.7,19.2,536.1,6928.5,-19117.8,255.0,4031.1,4969.8,202.5,1749.0,-9737.7,6690.3,-6.9,-5.4,5821.5,5766.6,-0.6,369.3,4557.6,443.1,0,3330,36218924482560,121,0, 
1.8533,492.9,74.1,153.6,65.7,9285.6,-8.1,564.3,9830.1,18228.6,304.8,6634.5,8567.1,217.2,9827.1,-8888.4,9830.1,-6.6,-6.0,9830.1,9830.1,-1.2,423.6,4460.4,434.4,0,3336,36218924482560,122,0, 
1.8567,539.1,59.4,172.2,120.6,-3681.0,-230.4,624.9,2797.8,-38161.5,431.7,382.8,571.8,-213.3,-3550.2,-9830.1,2415.6,-6.9,-6.0,648.9,1104.6,-0.6,547.8,-5589.0,383.4,0,3342,36218924482560,123,0, 
1.8600,542.7,45.3,177.0,134.1,-9819.9,-342.3,642.6,-9830.1,-109964.4,460.8,-6352.5,-8320.8,-498.0,-9827.4,-9826.2,-9830.1,-6.6,-6.0,-9830.1,-9830.1,-0.6,582.0,-9830.1,362.1,0,3348,36218924482560,124,0, 
1.8633,490.2,53.7,150.0,71.7,-7132.8,-202.2,578.7,-8372.1,-96996.9,351.9,-3817.8,-5288.7,-240.9,-9827.4,-9830.1,-8496.9,-6.9,-5.7,-7723.2,-8208.0,-0.6,469.5,-5645.7,394.5,0,3354,36218924482560,125,0, 
1.8667,458.1,76.8,130.8,22.2,6417.3,6.3,528.6,7033.2,-16302.0,249.9,4032.6,4852.2,209.4,1718.7,-9583.8,6727.8,-6.9,-6.0,6052.8,5734.5,-0.9,372.3,4648.2,441.6,0,3360,36218924482560,126,0, 
1.8700,492.6,70.5,148.8,58.5,9352.8,-11.1,558.0,9830.1,21044.4,316.2,6596.7,8364.9,237.3,9827.1,-7848.6,9830.1,-7.2,-5.7,9830.1,9830.1,-0.9,427.8,4537.2,442.5,0,3366,36218924482560,127,0, 
1.8733,548.4,63.9,183.0,132.6,-3456.3,-223.2,628.8,3038.1,-34975.2,435.9,382.8,456.9,-200.1,-3502.8,-9830.1,2573.1,-6.9,-5.7,951.9,1176.6,-1.2,557.4,-5495.4,399.3,0,3372,36218924482560,128,0, 
1.8767,543.0,48.0,184.2,147.9,-9819.9,-342.0,641.1,-9830.1,-107074.5,463.5,-6369.0,-8458.2,-498.3,-9827.4,-9774.9,-9830.1,-6.9,-6.3,-9830.1,-9830.1,-0.6,577.5,-9830.1,368.7,0,3378,36218924482560,129,0, 
1.8800,486.6,60.6,156.9,88.8,-7014.0,-184.5,585.0,-8322.0,-94329.3,351.0,-3747.3,-5349.0,-242.7,-9827.4,-9830.1,-8458.2,-6.6,-5.7,-7587.0,-8199.0,-1.5,469.2,-5591.4,397.5,0,3384,36218924482560,130,0, 
1.8833,460.5,80.7,144.3,45.3,6482.4,17.7,531.3,7128.3,-13782.6,259.5,4042.8,4835.4,211.5,1765.5,-9334.5,6811.5,-6.9,-6.3,6140.7,5741.1,-0.9,382.8,4689.3,448.8,0,3390,36218924482560,131,0, 
1.8867,497.1,85.5,154.8,75.0,9411.9,-3.9,555.9,9830.1,23860.2,310.5,6605.1,8437.5,236.1,9827.1,-6289.2,9830.1,-7.2,-6.0,9830.1,9830.1,-0.9,427.2,4611.0,449.4,0,3396,36218924482560,132,0, 
1.8900,539.7,59.4,178.5,135.6,-3318.3,-225.9,616.2,3267.9,-31788.9,430.8,515.7,640.8,-205.8,-3274.8,-9830.1,2828.4,-6.6,-6.0,1061.4,1208.4,-0.6,547.2,-5419.8,393.9,0,3402,36218924482560,133,0, 
1.8933,540.0,48.6,184.2,140.1,-9819.9,-331.2,633.9,-9830.1,-103740.0,458.7,-6305.1,-8296.5,-498.6,-9827.4,-9690.3,-9830.1,-6.9,-5.7,-9830.1,-9830.1,-0.6,582.9,-9830.1,370.2,0,3408,36218924482560,134,0, 
1.8967,491.7,60.3,156.9,84.3,-6962.7,-182.7,578.1,-8299.2,-91439.4,344.1,-3769.8,-5315.1,-236.1,-9827.4,-9830.1,-8417.4,-7.2,-6.0,-7566.0,-8241.3,-0.3,471.6,-5577.9,400.5,0,3414,36218924482560,135,0, 
1.9000,449.7,66.9,135.6,32.4,6527.7,14.1,522.9,7174.5,-10892.7,248.4,3958.2,4777.8,195.3,1927.2,-8865.9,6885.6,-6.9,-5.7,6246.9,5682.9,-0.9,371.1,4658.4,437.7,0,3420,36218924482560,136,0, 
1.9033,486.0,69.6,152.4,67.8,9461.1,-4.8,554.4,9830.1,26824.2,300.0,6627.3,8523.0,222.9,9827.1,-4242.6,9830.1,-6.9,-5.7,9830.1,9830.1,-0.9,436.8,4681.5,440.7,0,3426,36218924482560,137,0, 
1.9067,537.3,49.8,182.1,137.1,-3264.0,-223.2,625.8,3392.4,-28824.9,427.5,490.5,657.9,-205.8,-3153.9,-9830.1,2922.6,-6.9,-6.0,1281.9,1278.6,-0.3,563.7,-5370.9,401.4,0,3432,36218924482560,138,0, 
1.9100,539.7,42.9,186.9,141.9,-9819.9,-334.5,641.7,-9830.1,-100850.1,455.4,-6141.6,-8190.3,-495.0,-9827.4,-9607.2,-9830.1,-6.9,-6.0,-9830.1,-9830.1,-0.6,590.7,-9830.1,369.3,0,3438,36218924482560,139,0, 
1.9133,492.6,52.8,157.5,88.2,-6951.6,-184.8,592.2,-8311.8,-88623.6,347.4,-3644.7,-5146.5,-231.9,-9827.4,-9830.1,-8391.3,-6.6,-5.7,-7540.5,-8219.1,-0.6,487.8,-5519.1,405.9,0,3444,36218924482560,140,0, 
1.9167,458.4,63.0,139.2,37.8,6540.0,15.9,533.1,7213.8,-7928.7,256.8,4024.2,4922.4,206.4,2089.2,-8412.9,6982.2,-6.6,-6.3,6309.6,5790.0,-0.9,391.8,4773.6,451.8,0,3450,36218924482560,141,0, 
1.9200,501.3,82.2,162.0,80.1,9522.6,5.1,565.5,9830.1,30158.7,304.2,6617.1,8503.2,226.2,9827.1,-1978.2,9830.1,-6.9,-6.3,9830.1,9830.1,-0.6,445.8,4772.4,455.4,0,3456,36218924482560,142,0, 
1.9233,555.3,64.8,191.1,143.1,-3015.0,-202.8,638.7,3588.6,-24971.7,432.3,692.4,779.7,-190.5,-2751.6,-9830.1,3183.0,-6.9,-5.4,1527.9,1670.1,-1.2,577.5,-5211.6,413.7,0,3462,36218924482560,143,0, 
1.9267,549.3,42.0,188.7,148.8,-9819.9,-327.0,655.8,-9830.1,-97071.0,457.8,-5972.1,-8171.4,-481.2,-9827.4,-9534.3,-9830.1,-6.6,-6.0,-9830.1,-9830.1,-0.6,608.1,-9830.1,384.3,0,3468,36218924482560,144,0, 
1.9300,498.0,52.5,162.0,84.9,-6815.4,-176.4,598.2,-8256.9,-85140.9,348.9,-3539.4,-5224.5,-235.8,-9827.4,-9830.1,-8288.1,-6.6,-5.7,-7500.9,-8119.5,-0.9,497.4,-5462.4,418.2,0,3474,36218924482560,145,0, 
1.9333,464.7,63.3,133.5,36.9,6641.1,25.2,546.0,7274.7,-4520.1,252.3,4124.4,4820.1,210.6,2161.8,-7707.0,7112.7,-6.6,-5.7,6369.0,5878.8,-0.9,398.1,4829.1,461.7,0,3480,36218924482560,146,0, 
1.9367,496.8,67.8,151.5,67.5,9600.0,4.2,569.4,9830.1,33789.6,305.1,6781.8,8530.5,232.2,9827.1,755.7,9830.1,-6.6,-6.0,9830.1,9830.1,-0.6,448.2,4867.5,456.9,0,3486,36218924482560,147,0, 
1.9400,549.6,48.0,174.6,126.3,-2900.1,-215.7,633.3,3684.3,-21414.9,423.9,661.5,742.5,-210.6,-2620.5,-9806.7,3340.2,-6.6,-6.3,1706.7,1608.3,-0.6,574.5,-5129.4,403.8,0,3492,36218924482560,148,0, 
1.9433,541.2,27.0,173.4,130.2,-9819.9,-332.7,644.1,-9830.1,-93514.2,448.5,-6007.8,-8108.4,-507.0,-9827.4,-9475.2,-9830.1,-6.9,-5.7,-9830.1,-9830.1,-0.6,599.4,-9830.1,373.5,0,3498,36218924482560,149,0, 
1.9467,491.4,48.0,154.5,75.3,-6742.5,-193.2,589.5,-8172.6,-81658.2,345.3,-3499.8,-5037.0,-243.6,-9827.4,-9830.1,-8236.5,-6.9,-5.7,-7316.4,-8071.2,-1.2,491.1,-5394.6,406.8,0,3504,36218924482560,150,0, 
1.9500,459.9,62.1,138.6,32.4,6710.4,16.5,535.5,7454.4,-1037.4,241.5,4169.7,4902.3,205.5,2513.4,-6822.3,7255.5,-6.6,-5.7,6542.1,5996.1,-0.9,388.5,4887.6,451.2,0,3510,36218924482560,151,0, 
1.9533,502.2,60.9,164.4,69.3,9663.6,3.3,565.5,9830.1,37420.5,300.3,6901.8,8602.8,238.2,9827.1,3442.5,9830.1,-7.2,-6.0,9830.1,9830.1,-0.9,442.2,4940.7,452.7,0,3516,36218924482560,152,0, 
1.9567,552.9,46.8,188.7,139.2,-2692.5,-208.5,633.0,3956.7,-17413.5,423.3,876.3,961.2,-197.1,-2292.6,-9504.6,3627.3,-6.9,-5.7,2016.9,1756.5,-0.9,570.3,-5016.3,399.9,0,3522,36218924482560,153,0, 
1.9600,549.3,36.0,187.2,141.9,-9819.9,-341.1,645.0,-9830.1,-89512.8,452.7,-5769.6,-7914.6,-489.9,-9827.4,-9438.3,-9830.1,-6.6,-6.0,-9830.1,-9830.1,-0.9,594.9,-9830.1,370.8,0,3528,36218924482560,154,0, 
1.9633,496.5,53.1,158.7,84.0,-6626.4,-194.4,593.1,-8170.8,-77805.0,340.2,-3238.2,-4875.3,-238.5,-9827.4,-9830.1,-8201.7,-6.6,-6.0,-7194.6,-8140.2,-0.9,486.9,-5341.8,408.6,0,3534,36218924482560,155,0, 
1.9667,465.9,67.2,141.3,42.3,6750.3,8.7,544.2,7477.8,2667.6,249.0,4233.6,4942.8,210.0,2777.7,-5841.3,7338.9,-6.6,-6.0,6691.5,5867.4,-0.9,393.6,4936.5,451.8,0,3540,36218924482560,156,0, 
1.9700,498.6,72.3,159.9,80.7,9710.1,-2.1,565.8,9830.1,41421.9,297.9,6864.3,8505.3,244.2,9827.1,6524.1,9830.1,-7.2,-6.0,9830.1,9830.1,-0.9,442.8,5074.5,451.8,0,3546,36218924482560,157,0, 
1.9733,548.1,58.5,189.0,144.6,-2582.4,-214.2,633.6,4124.4,-13189.8,427.8,807.3,872.1,-189.3,-1753.8,-8919.3,3841.8,-7.2,-6.0,2199.6,1690.2,-0.9,572.4,-4899.6,403.5,0,3552,36218924482560,158,0, 
1.9767,549.3,47.4,186.0,155.7,-9819.9,-320.7,653.7,-9830.1,-85289.1,454.8,-5765.1,-7857.6,-484.5,-9827.4,-9416.7,-9830.1,-6.9,-6.0,-9830.1,-9830.1,-0.6,605.1,-9830.1,376.2,0,3558,36218924482560,159,0, 
1.9800,488.7,46.8,153.9,90.0,-6596.4,-176.7,593.1,-8110.5,-73877.7,342.9,-3320.7,-4843.5,-241.5,-9817.8,-9830.1,-8120.1,-6.9,-5.7,-7051.2,-8115.0,-0.6,493.8,-5252.7,399.6,0,3564,36218924482560,160,0, 
1.9833,455.1,64.2,129.0,40.5,6784.2,20.4,530.7,7588.5,6669.0,246.6,4228.2,4911.3,206.1,3101.1,-4518.9,7447.2,-6.6,-5.7,6818.7,5911.5,-0.6,388.8,4995.6,441.0,0,3570,36218924482560,161,0, 
1.9867,486.0,67.5,148.8,76.8,9724.2,0.0,547.2,9830.1,45497.4,288.6,6944.1,8576.4,236.4,9827.1,9477.9,9830.1,-7.2,-6.0,9830.1,9830.1,-0.9,436.2,5175.3,439.5,0,3576,36218924482560,162,0, 
1.9900,541.8,57.9,177.3,144.3,-2452.8,-212.4,615.9,4414.8,-8966.1,416.4,922.8,937.5,-188.1,-1295.1,-8138.7,4055.4,-7.8,-6.0,2579.4,1885.8,-0.6,563.7,-4808.4,392.7,0,3582,36218924482560,163,0, 
1.9933,540.9,40.5,177.9,154.5,-9819.9,-331.8,636.6,-9830.1,-80917.2,443.1,-5566.2,-7801.5,-488.1,-9827.4,-9383.7,-9830.1,-7.2,-5.7,-9830.1,-9830.1,-0.6,588.0,-9830.1,368.1,0,3588,36218924482560,164,0, 
1.9967,488.7,49.2,146.1,90.0,-6437.1,-183.3,582.0,-7932.3,-69283.5,336.0,-3091.8,-4873.8,-237.9,-9720.3,-9830.1,-7965.0,-6.6,-6.0,-6642.0,-8088.0,-0.6,481.5,-5126.4,405.0,0,3594,36218924482560,165,0, 
2.0000,456.3,66.3,125.4,36.9,6960.3,13.8,524.4,7859.4,11856.0,239.7,4351.8,4857.9,206.4,3603.6,-2866.8,7722.6,-6.9,-5.7,7262.4,5892.0,-1.2,381.0,5150.4,447.9,0,3600,36218924482560,166,0, 
2.0033,494.1,79.8,146.1,68.1,9806.7,-6.0,555.0,9830.1,50832.6,280.5,7099.2,8606.4,235.2,9827.1,9830.1,9830.1,-6.9,-5.7,9830.1,9830.1,-1.2,430.5,5279.7,448.5,0,3606,36218924482560,167,0, 
2.0067,545.7,46.5,168.6,126.0,-2226.0,-216.6,621.0,4756.8,-3482.7,415.5,1163.4,1028.1,-171.0,-702.0,-6665.1,4476.9,-6.6,-5.7,3093.9,2096.4,-0.3,558.9,-4755.3,397.2,0,3612,36219192918016,168,0, 
2.0100,543.3,35.4,162.3,131.4,-9819.9,-339.6,637.2,-9830.1,-76026.6,443.4,-5436.0,-7620.9,-472.2,-9827.4,-9621.9,-9830.1,-7.2,-5.7,-9830.1,-9830.1,-0.6,594.6,-9830.1,371.1,0,3618,36219192918016,169,0, 
2.0133,488.7,40.5,135.6,67.8,-6453.0,-200.1,582.0,-7960.8,-65208.0,332.4,-2994.0,-4714.8,-229.8,-9610.2,-9830.1,-8000.7,-6.6,-6.0,-6524.1,-7968.9,-0.6,479.1,-5179.5,400.5,0,3624,36219192918016,170,0, 
2.0167,450.3,49.8,117.3,21.3,6838.2,3.3,527.4,7840.2,15190.5,229.8,4231.5,4785.9,207.6,3745.8,-1639.5,7686.3,-6.9,-5.7,7249.8,5989.8,-0.9,372.9,5122.8,440.4,0,3630,36219192918016,171,0, 
2.0200,483.9,59.4,139.2,60.3,9819.6,-13.5,558.3,9830.1,54685.8,277.8,6987.6,8646.9,245.4,9827.1,9830.1,9830.1,-7.2,-6.0,9830.1,9830.1,-0.9,428.4,5351.4,443.4,0,3636,36219192918016,172,0, 
2.0233,539.4,45.9,171.3,130.8,-2102.4,-206.7,630.6,4914.9,1037.4,405.3,1115.7,1184.4,-187.2,-311.7,-5190.9,4626.0,-7.2,-5.7,3535.5,2175.9,-0.9,559.2,-4540.5,403.8,0,3642,36219192918016,173,0, 
2.0267,544.2,43.2,174.0,144.0,-9819.9,-320.4,656.1,-9830.1,-70543.2,445.5,-5282.4,-7377.9,-463.8,-9827.4,-9785.1,-9830.1,-6.6,-6.0,-9830.1,-9830.1,-0.9,598.5,-9830.1,381.0,0,3648,36219192918016,174,0, 
2.0300,494.4,54.0,144.3,85.8,-6195.6,-175.2,598.2,-7684.5,-58909.5,344.4,-2778.9,-4408.5,-208.2,-9419.1,-9830.1,-7717.2,-7.2,-5.7,-5929.2,-7873.5,-0.6,492.6,-4868.1,417.3,0,3654,36219192918016,175,0, 
2.0333,458.1,66.9,122.1,41.7,7107.3,45.9,540.9,8242.5,22452.3,243.9,4596.3,5105.4,243.0,4663.8,627.0,8097.0,-7.2,-6.0,7843.2,6311.7,-1.2,395.4,5397.0,471.0,0,3660,36219192918016,176,0, 
2.0367,497.7,70.8,150.9,75.3,9819.6,36.3,569.1,9830.1,62466.3,301.2,7464.9,9073.8,282.0,9827.1,9830.1,9830.1,-7.2,-6.0,9830.1,9830.1,-0.6,455.4,5702.1,470.4,0,3666,36219192918016,177,0, 
2.0400,554.1,60.3,179.1,145.2,-1605.3,-178.2,641.4,5602.2,9262.5,433.2,1459.2,1374.9,-146.4,912.9,-2816.4,5249.1,-6.6,-6.0,4495.2,2688.3,-0.9,587.7,-4300.8,420.6,0,3672,36219192918016,178,0, 
2.0433,546.9,39.9,176.7,144.3,-9819.9,-307.2,655.8,-9830.1,-62762.7,456.9,-4956.6,-7235.4,-447.0,-9827.4,-9830.1,-9830.1,-6.9,-5.7,-9733.5,-9830.1,-0.9,616.2,-9830.1,392.4,0,3678,36219192918016,179,0, 
2.0467,498.0,54.6,161.4,86.4,-6140.1,-167.1,601.2,-7662.0,-52611.0,358.5,-2642.1,-4415.7,-194.7,-9190.2,-9830.1,-7711.5,-6.6,-6.0,-5628.0,-7930.5,-0.9,507.3,-4855.8,425.4,0,3684,36219192918016,180,0, 
2.0500,466.5,63.9,140.7,34.2,7000.2,36.3,543.3,8211.6,27417.0,272.7,4492.5,4800.6,249.0,4994.7,2250.9,8047.2,-6.9,-6.3,7828.2,6024.0,-0.9,419.1,5313.3,471.9,0,3690,36219192918016,181,0, 
2.0533,497.1,65.1,159.3,61.2,9819.6,13.8,561.3,9830.1,66764.1,312.0,7446.6,9074.4,282.6,9827.1,9830.1,9830.1,-6.6,-6.0,9830.1,9830.1,-0.6,459.3,5664.9,470.1,0,3696,36219192918016,182,0, 
2.0567,553.8,59.1,192.6,134.1,-1910.4,-199.5,633.9,5265.9,12893.4,440.7,1223.1,1055.1,-144.3,1160.1,-1093.2,4970.7,-7.2,-6.0,4088.7,2123.1,-1.2,591.3,-4419.9,423.3,0,3702,36219192918016,183,0, 
