Time,P3,C3,F3,Fz,F4,C4,P4,Cz,CM,A1,Fp1,Fp2,T3,T5,O1,O2,X3,X2,F7,F8,X1,A2,T6,T4,Trigger,Time_Offset,ADC_Status,ADC_Sequence,Event,Comments
0.0033,-165.3,-2.1,-217.8,487.2,-480.9,-349.8,-4.5,-948.9,17339.4,228.3,834.6,357.0,-1675.2,-4054.5,9792.0,26.4,-6.9,-5.7,32.7,373.2,-0.3,241.2,-455.1,-884.1,0,6,268435456,242,0, 
0.0067,-167.7,9.3,-198.3,499.5,-464.7,-357.6,2.4,-950.7,-3556.8,237.9,841.5,363.6,-1668.0,-4154.7,9801.0,19.8,-6.6,-5.7,38.4,393.3,-0.3,265.8,-671.1,-909.0,0,12,268435456,243,0, 
0.0100,-167.4,5.7,-197.1,494.4,-479.7,-348.6,4.8,-945.0,1259.7,215.1,832.2,361.2,-1648.2,-4064.7,7940.1,28.2,-6.9,-6.0,33.3,376.8,-0.6,251.1,-500.4,-891.6,0,18,268435456,244,0, 
0.0133,-175.2,-22.2,-227.4,477.6,-495.9,-326.1,-1.2,-945.9,24749.4,192.3,817.2,344.4,-1670.1,-3920.4,9462.6,30.3,-6.9,-5.7,7.8,357.9,-0.6,238.2,-177.6,-846.6,0,24,268435456,245,0, 
0.0167,-174.0,-23.7,-228.0,476.1,-500.4,-323.1,-4.8,-950.4,34901.1,182.4,811.8,340.2,-1661.1,-3914.7,9830.1,30.0,-6.9,-5.4,6.6,361.8,-0.6,231.3,-145.2,-845.7,0,30,268435456,246,0, 
0.0200,-172.5,-5.7,-213.0,492.9,-481.5,-349.2,-5.4,-958.2,17413.5,207.0,835.8,361.2,-1677.9,-4056.0,9792.3,18.6,-6.6,-6.0,30.0,382.2,-0.3,265.8,-454.8,-892.8,0,36,268435456,247,0, 
0.0233,-168.6,15.9,-196.8,507.3,-463.8,-362.1,-5.4,-959.7,-3260.4,229.5,851.4,382.5,-1649.1,-4148.1,9812.7,7.5,-6.9,-6.0,45.3,396.6,-0.6,278.7,-694.2,-923.1,0,42,268435456,248,0, 
0.0267,-171.3,9.3,-199.5,500.4,-468.0,-339.6,-3.3,-949.2,1556.1,231.9,844.8,377.7,-1651.8,-4071.6,8046.6,14.7,-6.9,-6.3,45.3,385.5,-0.6,276.3,-510.6,-882.0,0,48,268435456,249,0, 
0.0300,-177.6,-17.4,-219.6,475.5,-495.6,-322.8,-6.0,-950.7,25045.8,195.0,809.1,347.7,-1666.2,-3927.3,9502.2,21.9,-6.9,-6.3,13.8,364.5,-0.9,234.9,-181.5,-846.9,0,54,268435456,250,0, 
0.0333,-178.5,-19.8,-233.4,473.1,-498.9,-328.2,-11.4,-952.8,34827.0,187.8,819.3,339.6,-1673.7,-3906.0,9830.1,13.8,-6.9,-6.0,14.7,363.9,-0.6,235.8,-160.5,-843.0,0,60,268435456,251,0, 
0.0367,-177.9,-2.1,-218.7,489.6,-479.1,-352.5,-11.4,-961.2,17117.1,228.6,834.9,355.5,-1673.7,-4053.0,9793.2,9.3,-6.6,-5.7,34.8,377.7,-0.9,252.6,-466.8,-888.0,0,66,268435456,252,0, 
0.0400,-177.0,14.7,-206.1,497.1,-472.8,-369.9,-7.8,-966.9,-3334.5,216.6,840.6,369.9,-1677.6,-4146.3,9811.5,9.0,-6.9,-5.4,36.9,378.9,-0.6,264.0,-702.0,-922.8,0,72,268435456,253,0, 
0.0433,-179.4,-0.3,-214.5,491.1,-481.2,-353.7,-6.3,-962.4,1407.9,210.3,828.6,361.8,-1671.3,-4070.4,8036.4,14.1,-6.9,-6.3,35.4,370.5,-0.9,258.0,-515.1,-897.9,0,78,268435456,254,0, 
0.0467,-180.3,-18.6,-234.3,473.4,-497.4,-332.7,-11.1,-956.7,24971.7,196.5,817.2,336.9,-1665.6,-3920.4,9492.3,11.7,-7.2,-6.0,21.0,354.9,-0.6,232.8,-193.5,-852.0,0,84,268435456,255,0, 
0.0500,-182.1,-27.6,-236.7,464.1,-506.7,-332.7,-17.7,-962.1,34752.9,178.5,809.4,335.4,-1683.0,-3913.8,9830.1,16.2,-7.2,-6.0,11.4,344.4,-0.6,224.1,-153.9,-853.5,0,90,268435456,0,0, 
0.0533,-179.7,-5.4,-210.9,478.8,-485.7,-357.3,-15.9,-968.7,17265.3,206.7,823.8,349.5,-1696.2,-4060.2,9789.6,9.6,-6.9,-5.7,26.1,361.2,-0.9,245.4,-462.9,-902.7,0,96,268435456,1,0, 
0.0567,-177.9,6.9,-209.7,495.3,-478.8,-375.6,-9.3,-973.8,-3408.6,213.6,829.2,366.0,-1680.9,-4155.3,9809.1,9.9,-6.9,-5.7,27.6,372.0,-1.2,255.0,-681.3,-927.3,0,102,268435456,2,0, 
0.0600,-178.2,-5.4,-223.2,486.3,-476.1,-353.4,-3.6,-963.0,963.3,205.8,823.5,356.4,-1669.2,-4052.1,7939.2,13.8,-6.9,-5.7,25.8,367.5,-0.9,250.8,-482.7,-897.0,0,108,268435456,3,0, 
0.0633,-178.5,-23.4,-243.0,463.2,-509.1,-329.7,-7.8,-962.7,24749.4,175.2,791.1,321.6,-1672.2,-3917.4,9477.9,22.5,-7.2,-5.7,-8.4,334.5,-0.6,208.2,-155.7,-843.3,0,114,268435456,4,0, 
0.0667,-182.7,-33.6,-266.4,433.2,-534.6,-348.0,-12.9,-974.4,34678.8,165.3,745.5,282.3,-1692.6,-3906.9,9830.1,20.7,-6.6,-5.7,-50.7,310.8,-0.9,204.9,-145.2,-867.6,0,120,268435456,5,0, 
0.0700,-183.6,-15.3,-249.9,447.3,-515.1,-372.6,-12.6,-984.9,17043.0,178.2,739.8,297.3,-1684.2,-4056.3,9796.2,10.2,-7.5,-6.0,-45.3,329.4,-0.6,228.3,-458.7,-907.5,0,126,268435456,6,0, 
0.0733,-180.9,11.1,-204.3,489.9,-471.3,-367.8,-9.9,-979.8,-3556.8,233.4,834.9,371.4,-1689.3,-4149.3,9791.1,8.4,-6.9,-5.7,36.3,385.2,-0.6,266.7,-669.3,-921.9,0,132,268435456,7,0, 
0.0767,-177.3,4.8,-200.7,493.2,-468.6,-348.9,-10.2,-971.7,1407.9,208.2,861.6,371.1,-1653.6,-4046.1,7922.4,13.2,-6.9,-6.0,52.5,379.5,-0.6,244.8,-496.5,-891.9,0,138,268435456,8,0, 
0.0800,-180.3,-14.1,-219.6,477.9,-492.0,-326.7,-12.9,-964.5,24971.7,190.8,831.3,352.2,-1649.1,-3898.5,9470.1,16.5,-6.9,-5.7,22.8,357.6,-0.9,233.7,-175.2,-848.7,0,144,268435456,9,0, 
0.0833,-177.6,-17.7,-232.8,468.0,-501.9,-325.8,-16.8,-967.2,34752.9,180.3,814.5,340.2,-1683.6,-3911.4,9830.1,18.6,-6.9,-5.7,1.2,354.6,-0.6,228.3,-145.8,-844.5,0,150,268435456,10,0, 
0.0867,-181.8,-6.0,-224.7,492.0,-469.8,-349.8,-13.2,-974.7,17191.2,204.6,844.8,355.5,-1689.9,-4050.9,9796.5,14.4,-6.6,-5.7,42.0,379.8,-1.2,251.1,-462.6,-894.0,0,156,268435456,11,0, 
0.0900,-174.6,11.7,-185.7,504.0,-459.3,-363.0,-8.1,-972.0,-3556.8,219.6,865.5,388.2,-1662.0,-4139.1,9795.3,9.3,-6.9,-6.0,61.2,387.0,-0.9,260.4,-675.0,-917.1,0,162,268435456,12,0, 
0.0933,-177.3,9.6,-196.8,494.4,-475.8,-353.7,-4.8,-971.4,1333.8,208.8,845.7,369.9,-1661.1,-4050.6,7961.7,23.1,-6.9,-6.0,61.5,373.5,-0.3,244.5,-495.0,-899.1,0,168,268435456,13,0, 
0.0967,-173.7,-8.1,-203.7,501.3,-464.4,-311.1,-4.5,-957.6,24675.3,200.7,875.1,386.1,-1683.6,-3890.1,9462.6,25.5,-6.9,-6.0,78.6,388.2,-0.3,240.6,-152.4,-831.3,0,174,268435456,14,0, 
0.1000,-174.9,-17.4,-222.0,482.1,-473.4,-316.5,-10.5,-963.3,34678.8,182.7,846.0,369.9,-1671.0,-3891.0,9830.1,19.2,-6.9,-6.0,49.2,377.4,-0.6,233.7,-141.9,-830.4,0,180,268435456,15,0, 
0.1033,-173.1,1.8,-205.8,488.7,-479.7,-348.9,-10.5,-976.5,16968.9,211.8,858.3,386.7,-1675.5,-4032.0,9794.4,14.4,-6.6,-6.0,52.5,382.5,-0.9,254.4,-447.0,-885.6,0,186,268435456,16,0, 
0.1067,-172.8,18.3,-177.0,516.0,-452.4,-355.5,-2.1,-975.0,-3408.6,215.7,904.5,431.1,-1659.3,-4133.7,9785.4,15.6,-6.9,-6.0,92.7,417.3,-0.6,270.3,-667.8,-906.9,0,192,268435456,17,0, 
0.1100,-173.1,8.4,-191.7,506.7,-465.0,-344.1,-3.3,-966.6,1259.7,220.8,877.2,399.6,-1659.9,-4036.5,7892.4,20.1,-6.9,-5.7,67.5,393.6,-0.6,254.7,-492.0,-888.6,0,198,268435456,18,0, 
0.1133,-175.5,-10.8,-215.7,483.3,-484.5,-321.3,-4.2,-963.3,25194.0,186.3,840.6,371.7,-1661.4,-3899.4,9467.7,27.3,-6.6,-5.7,37.5,374.1,-0.9,239.4,-179.7,-834.9,0,204,268435456,19,0, 
0.1167,-178.5,-21.9,-222.3,483.0,-484.2,-318.9,-9.9,-970.2,34604.7,181.8,843.0,372.3,-1689.3,-3896.7,9830.1,26.7,-6.9,-5.7,32.4,375.6,-0.6,226.5,-157.8,-837.3,0,210,268435456,20,0, 
0.1200,-176.1,-3.3,-207.0,490.8,-474.0,-351.9,-10.8,-976.5,16968.9,198.6,856.5,384.3,-1681.5,-4038.0,9797.1,20.7,-6.6,-5.7,45.6,380.4,-0.6,238.8,-468.9,-886.8,0,216,268435456,21,0, 
0.1233,-170.4,15.6,-193.5,505.8,-456.9,-357.0,-8.4,-976.5,-3630.9,220.2,864.6,394.2,-1667.4,-4136.7,9781.8,17.4,-6.9,-6.3,51.3,395.1,-0.9,260.7,-687.9,-915.9,0,222,268435456,22,0, 
0.1267,-175.5,4.2,-203.4,495.9,-472.8,-346.5,-7.8,-972.6,1333.8,197.7,853.5,378.3,-1664.4,-4055.1,7887.6,20.4,-6.9,-5.7,40.2,383.7,-0.9,244.5,-514.2,-887.7,0,228,268435456,23,0, 
0.1300,-175.8,-14.4,-226.2,475.5,-496.2,-331.2,-9.9,-969.9,24823.5,181.8,822.6,346.5,-1681.2,-3907.5,9475.2,31.5,-7.2,-6.0,14.1,357.3,-0.6,221.7,-176.1,-842.1,0,234,268435456,24,0, 
0.1333,-174.9,-23.7,-232.2,469.8,-497.7,-326.4,-13.2,-972.3,34530.6,180.3,820.5,345.0,-1683.0,-3894.9,9830.1,29.7,-6.6,-5.7,9.3,359.4,-1.2,225.6,-153.9,-843.0,0,240,268435456,25,0, 
0.1367,-173.7,-2.1,-212.1,488.4,-477.0,-350.1,-13.8,-978.3,16672.5,202.5,840.0,366.6,-1688.4,-4046.4,9799.2,16.5,-7.2,-5.7,24.9,376.2,-0.9,248.7,-470.4,-885.9,0,246,268435456,26,0, 
0.1400,-170.7,10.5,-201.6,500.1,-465.6,-361.8,-7.8,-976.8,-3853.2,220.5,849.6,372.3,-1684.5,-4133.4,9763.2,18.0,-6.9,-6.0,36.3,383.1,-0.6,259.8,-683.7,-912.9,0,252,268435456,27,0, 
0.1433,-170.7,3.6,-208.8,492.6,-472.8,-342.3,-6.0,-970.5,963.3,204.0,838.2,355.5,-1660.5,-4036.8,7761.0,23.1,-6.6,-5.4,33.6,368.4,-0.9,241.2,-491.4,-882.9,0,258,268435456,28,0, 
0.1467,-171.3,-16.2,-227.4,471.6,-492.6,-324.6,-15.9,-968.4,24823.5,188.1,818.4,333.6,-1667.4,-3893.4,9444.3,25.2,-7.2,-6.0,22.2,350.4,-0.6,222.9,-177.6,-841.5,0,264,268435456,29,0, 
0.1500,-174.0,-19.5,-238.8,465.0,-498.6,-326.7,-21.6,-976.8,34530.6,183.3,811.2,330.3,-1693.8,-3893.1,9830.1,28.5,-6.9,-5.7,14.4,354.9,-0.9,215.4,-152.1,-847.5,0,270,268435456,30,0, 
0.1533,-173.4,-6.3,-216.0,480.9,-485.4,-352.2,-21.6,-988.8,16598.4,203.4,832.2,364.2,-1684.8,-4044.6,9803.4,18.9,-6.9,-6.0,30.9,368.7,-0.3,247.8,-474.9,-891.9,0,276,268435456,31,0, 
0.1567,-173.4,8.1,-200.1,492.9,-471.0,-368.4,-18.6,-987.0,-3853.2,217.5,840.0,370.2,-1680.0,-4135.2,9747.6,20.1,-6.9,-6.0,37.5,375.0,-0.6,256.2,-689.4,-922.2,0,282,268435456,32,0, 
0.1600,-172.5,2.4,-207.6,487.8,-483.0,-353.4,-16.5,-981.0,1185.6,207.3,827.4,353.1,-1663.8,-4057.2,7739.7,31.8,-6.6,-6.0,27.9,368.1,-0.6,231.9,-501.9,-892.5,0,288,268435456,33,0, 
0.1633,-178.5,-18.9,-231.9,467.4,-501.3,-329.7,-23.4,-980.7,24897.6,176.1,805.8,333.0,-1692.0,-3922.2,9439.8,33.9,-7.2,-5.7,2.4,356.1,-0.3,216.6,-189.3,-852.3,0,294,268435456,34,0, 
0.1667,-180.0,-19.5,-231.0,464.4,-504.6,-334.2,-29.7,-984.6,34456.5,178.8,805.8,333.6,-1685.7,-3914.7,9830.1,28.8,-6.9,-5.7,-0.9,355.8,-0.9,213.3,-169.2,-850.8,0,300,268435456,35,0, 
0.1700,-183.0,-10.2,-223.2,480.3,-487.5,-356.4,-25.8,-995.4,16672.5,188.1,823.8,348.0,-1680.9,-4060.2,9804.3,22.5,-7.2,-5.7,12.3,367.2,-0.6,228.0,-477.6,-897.6,0,306,268435456,36,0, 
0.1733,-177.0,8.7,-208.2,492.3,-474.6,-370.2,-22.5,-993.9,-4001.4,206.4,837.9,361.8,-1669.8,-4154.7,9747.6,21.6,-6.6,-5.7,27.9,376.2,-0.9,243.9,-686.7,-924.9,0,312,268435456,37,0, 
0.1767,-176.4,0.9,-214.2,488.4,-483.0,-353.4,-17.4,-982.2,1259.7,196.5,826.5,349.8,-1658.1,-4052.1,7765.8,30.3,-6.9,-5.4,18.6,365.4,-0.6,240.0,-501.6,-889.8,0,318,268435456,38,0, 
0.1800,-183.6,-22.5,-235.5,467.7,-499.5,-332.1,-20.1,-987.0,24823.5,176.1,807.0,330.0,-1677.6,-3918.3,9453.3,38.7,-6.6,-6.0,-7.8,353.1,-1.2,213.9,-180.9,-846.0,0,324,268435456,39,0, 
0.1833,-179.1,-15.0,-229.8,471.9,-501.3,-329.1,-21.6,-981.9,34308.3,188.7,815.4,331.8,-1683.9,-3913.5,9830.1,28.8,-6.6,-5.7,3.3,351.0,-0.9,226.5,-157.5,-842.4,0,330,268435456,40,0, 
0.1867,-178.8,-1.8,-216.0,482.1,-485.1,-350.4,-21.9,-989.7,16524.3,201.3,829.2,353.4,-1686.9,-4059.3,9805.8,22.5,-6.6,-5.7,12.0,370.2,-0.9,238.5,-483.0,-884.4,0,336,268435456,41,0, 
0.1900,-179.4,10.2,-204.3,493.5,-470.7,-368.1,-15.9,-991.5,-3927.3,208.8,838.2,366.9,-1674.9,-4147.5,9743.4,20.1,-6.9,-6.0,21.0,381.6,-0.3,259.8,-703.8,-912.6,0,342,268435456,42,0, 
0.1933,-178.8,0.6,-214.8,478.5,-488.4,-360.6,-15.9,-983.7,1407.9,208.8,825.3,344.1,-1672.8,-4064.4,7753.5,28.5,-6.9,-6.6,13.8,360.9,-0.6,228.0,-515.4,-900.9,0,348,268435456,43,0, 
0.1967,-178.2,-15.6,-234.3,460.5,-505.8,-333.6,-18.0,-976.8,24823.5,181.5,806.1,326.7,-1675.8,-3902.1,9449.4,30.0,-7.2,-6.3,-5.7,349.2,-0.6,214.8,-178.5,-853.2,0,354,268435456,44,0, 
0.2000,-177.6,-18.9,-234.3,464.4,-504.0,-330.0,-19.5,-977.1,34160.1,189.3,808.5,331.8,-1690.8,-3902.4,9830.1,27.0,-7.2,-5.7,-2.1,351.3,-0.9,220.5,-156.3,-848.7,0,360,268435456,45,0, 
0.2033,-177.0,-0.9,-221.7,466.8,-494.7,-360.3,-23.4,-983.4,16450.2,198.3,821.4,344.4,-1707.9,-4060.2,9806.4,14.7,-6.6,-6.0,6.3,358.2,-0.9,233.7,-480.9,-896.7,0,366,268435456,46,0, 
0.2067,-177.6,2.1,-212.7,478.8,-486.0,-379.8,-21.0,-984.6,-3927.3,213.9,830.7,356.1,-1670.1,-4149.3,9735.9,10.8,-6.6,-5.4,16.5,363.0,-0.9,249.6,-700.2,-938.1,0,372,268435456,47,0, 
0.2100,-178.5,-3.6,-220.8,475.8,-490.8,-357.9,-18.9,-979.8,1407.9,205.8,817.2,345.0,-1664.1,-4060.2,7731.9,11.7,-6.9,-5.7,11.7,358.5,-0.6,227.1,-517.5,-898.5,0,378,268435456,48,0, 
0.2133,-182.1,-21.3,-240.6,454.8,-515.1,-339.0,-17.4,-972.6,24897.6,174.6,793.8,318.9,-1677.6,-3915.3,9460.5,26.7,-7.2,-6.0,-10.2,332.1,-0.9,203.4,-195.3,-861.0,0,384,268435456,49,0, 
0.2167,-182.7,-24.3,-240.9,447.3,-516.6,-337.8,-23.4,-977.7,34382.4,164.7,795.6,312.3,-1688.1,-3912.9,9830.1,22.2,-6.9,-5.7,-14.7,335.1,-1.2,196.5,-172.5,-856.2,0,390,268435456,50,0, 
0.2200,-180.6,-8.4,-231.9,467.7,-499.2,-356.4,-18.6,-981.3,16376.1,197.7,813.3,333.3,-1686.0,-4065.3,9807.6,5.7,-6.9,-6.0,-6.6,349.8,-1.2,226.8,-488.4,-900.3,0,396,268435456,51,0, 
0.2233,-174.6,6.6,-219.3,475.8,-491.1,-374.7,-15.6,-985.2,-4001.4,210.3,823.5,334.8,-1676.1,-4156.8,9735.0,10.2,-7.2,-5.7,6.9,358.8,-0.6,235.2,-699.3,-930.9,0,402,268435456,52,0, 
0.2267,-175.5,-3.0,-230.4,467.4,-502.5,-357.0,-12.0,-977.1,1185.6,199.8,817.2,339.6,-1671.0,-4055.1,7717.5,17.7,-6.6,-5.7,-0.9,354.9,-0.9,222.3,-524.1,-903.3,0,408,268435456,53,0, 
0.2300,-173.1,-20.7,-239.4,451.2,-517.5,-333.9,-15.0,-966.3,24971.7,180.0,795.9,321.9,-1682.4,-3911.1,9456.0,24.3,-6.6,-6.0,-15.6,342.0,-0.9,208.5,-190.2,-852.9,0,414,268435456,54,0, 
0.2333,-174.6,-24.9,-239.7,450.9,-516.0,-332.7,-18.3,-963.3,34530.6,168.3,796.8,319.5,-1685.7,-3912.9,9830.1,15.3,-7.2,-6.0,-6.9,341.4,-0.9,206.1,-179.7,-857.4,0,420,268435456,55,0, 
0.2367,-169.5,-3.0,-221.4,468.9,-492.3,-355.8,-19.2,-965.7,16302.0,205.8,822.0,345.0,-1699.8,-4062.9,9808.8,3.3,-6.6,-5.4,13.8,361.2,-0.9,238.2,-484.5,-897.9,0,426,268435456,56,0, 
0.2400,-166.5,7.2,-209.1,482.7,-481.5,-362.4,-13.8,-965.7,-4075.5,217.8,829.5,357.9,-1670.7,-4155.9,9735.3,0.6,-6.9,-6.3,18.9,376.2,-0.6,250.8,-696.6,-915.3,0,432,268435456,57,0, 
0.2433,-169.2,1.5,-218.1,469.8,-495.0,-347.4,-8.4,-959.1,1185.6,205.8,816.0,341.7,-1657.2,-4071.0,7728.0,11.1,-6.9,-6.0,-1.8,362.7,-0.6,231.6,-507.0,-888.0,0,438,268435456,58,0, 
0.2467,-171.3,-13.2,-231.9,454.2,-516.6,-324.6,-12.3,-955.2,24971.7,191.4,802.8,325.2,-1670.7,-3929.1,9442.2,18.9,-7.2,-5.7,-12.0,346.8,-0.6,223.2,-188.7,-842.4,0,444,268435456,59,0, 
0.2500,-175.8,-21.9,-240.3,449.1,-513.9,-322.5,-15.6,-956.7,34234.2,181.2,800.1,318.9,-1706.1,-3935.1,9830.1,17.1,-6.9,-6.0,-15.9,348.0,-0.6,205.8,-171.3,-843.0,0,450,268435456,60,0, 
0.2533,-169.5,-2.4,-225.3,466.8,-495.9,-353.4,-15.3,-960.9,16302.0,207.9,821.1,340.8,-1687.5,-4072.8,9809.4,0.9,-6.6,-6.3,5.1,364.2,-0.6,238.2,-486.9,-892.8,0,456,268435456,61,0, 
0.2567,-166.8,9.0,-210.6,483.3,-482.4,-365.1,-9.0,-960.0,-4223.7,219.3,831.6,356.7,-1663.8,-4154.4,9707.7,7.2,-6.9,-5.7,14.1,368.1,-0.9,249.0,-687.0,-917.1,0,462,268435456,62,0, 
0.2600,-171.3,-0.9,-219.9,476.4,-494.4,-351.6,-10.5,-956.1,1185.6,204.3,817.8,347.7,-1660.5,-4065.3,7581.0,7.2,-6.6,-6.0,-0.6,355.2,-0.3,234.0,-511.8,-889.5,0,468,268435456,63,0, 
0.2633,-172.5,-25.5,-236.4,461.4,-504.9,-321.6,-10.8,-949.5,24897.6,176.4,804.3,327.6,-1670.1,-3919.8,9422.7,14.7,-6.9,-5.7,-16.8,347.1,-0.3,220.2,-184.8,-846.9,0,474,268435456,64,0, 
0.2667,-173.7,-25.5,-237.9,458.7,-507.6,-324.0,-15.6,-950.7,34160.1,187.8,800.7,327.9,-1688.7,-3926.7,9830.1,7.5,-6.6,-6.3,-16.8,346.8,-0.6,212.7,-165.9,-846.6,0,480,268435456,65,0, 
0.2700,-171.9,-7.8,-222.6,475.5,-490.2,-345.6,-14.1,-951.3,16227.9,197.4,815.1,350.1,-1681.8,-4067.1,9814.5,2.1,-6.3,-5.7,-5.7,366.3,-0.9,240.9,-483.9,-888.9,0,486,268435456,66,0, 
0.2733,-169.2,7.8,-207.6,488.4,-481.8,-356.4,-12.6,-950.4,-4297.8,207.6,832.5,361.2,-1669.8,-4161.3,9695.1,-0.9,-7.2,-6.0,13.5,370.2,-0.9,238.8,-696.9,-909.9,0,492,268435456,67,0, 
0.2767,-171.0,-10.8,-223.8,475.2,-496.2,-348.3,-6.6,-943.2,1111.5,192.6,820.2,345.3,-1672.8,-4077.9,7565.4,10.5,-7.2,-6.3,-7.5,353.4,-0.6,231.6,-504.0,-889.2,0,498,268435456,68,0, 
0.2800,-173.7,-23.7,-244.2,461.7,-513.6,-325.8,-4.8,-936.9,24897.6,175.8,805.8,329.4,-1694.1,-3931.8,9408.6,18.9,-6.9,-5.7,-18.3,342.9,-0.9,212.1,-188.7,-838.5,0,504,268435456,69,0, 
0.2833,-176.7,-27.0,-240.3,456.3,-508.8,-324.3,-8.4,-939.0,34382.4,175.5,805.8,328.2,-1689.0,-3942.9,9830.1,11.1,-6.9,-6.0,-17.4,352.5,-0.6,231.6,-171.6,-837.3,0,510,268435456,70,0, 
0.2867,-175.8,-10.5,-227.7,468.0,-492.6,-347.4,-5.7,-945.0,16079.7,195.0,815.7,346.8,-1697.1,-4083.3,9812.7,5.1,-6.6,-6.0,-14.1,361.5,-0.6,231.3,-478.2,-879.6,0,516,268435456,71,0, 
0.2900,-174.0,4.5,-207.9,483.3,-477.9,-357.6,-0.6,-939.9,-4223.7,218.4,834.0,364.5,-1685.4,-4178.7,9699.6,0.3,-6.9,-6.0,-2.7,375.9,-0.9,256.2,-686.7,-905.4,0,522,268435456,72,0, 
0.2933,-175.2,-6.3,-217.8,473.7,-486.9,-349.5,-1.8,-937.8,1185.6,206.7,820.5,348.3,-1676.4,-4084.5,7587.9,4.8,-6.6,-6.0,-14.1,361.5,-0.9,240.3,-508.5,-887.1,0,528,268435456,73,0, 
0.2967,-176.4,-25.2,-237.3,457.2,-507.6,-331.2,-5.7,-927.9,24897.6,181.2,803.4,326.4,-1669.2,-3937.8,9422.4,12.3,-7.2,-5.7,-27.6,343.5,-0.6,213.3,-191.1,-841.5,0,534,268435456,74,0, 
0.3000,-177.0,-27.0,-242.4,454.2,-513.9,-331.5,-7.8,-933.9,34234.2,181.5,795.6,321.9,-1683.0,-3933.9,9830.1,11.4,-6.9,-6.0,-38.4,343.5,-0.9,218.4,-174.6,-839.7,0,540,268435456,75,0, 
0.3033,-176.7,-9.0,-227.1,467.4,-500.4,-354.3,-7.5,-937.5,16079.7,195.0,819.0,344.1,-1683.9,-4089.9,9814.5,-0.6,-6.6,-6.0,-17.1,353.7,-0.9,226.2,-483.9,-884.1,0,546,268435456,76,0, 
0.3067,-174.6,7.5,-210.9,484.2,-483.6,-372.3,-6.6,-937.2,-4075.5,207.3,830.1,356.7,-1673.7,-4167.9,9693.3,-7.2,-6.3,-6.3,-3.9,363.9,-0.3,250.2,-698.1,-915.6,0,552,268435456,77,0, 
0.3100,-175.5,1.8,-223.5,477.0,-495.9,-355.2,-6.3,-928.5,1259.7,199.2,818.4,345.6,-1659.0,-4075.2,7580.1,1.8,-6.9,-6.0,-14.7,347.4,-0.9,242.7,-509.4,-879.6,0,558,268435456,78,0, 
0.3133,-176.1,-16.2,-237.3,463.2,-511.5,-327.0,-7.5,-924.6,25119.9,186.6,793.2,317.4,-1663.2,-3936.9,9436.8,7.5,-7.2,-6.0,-33.0,335.7,-0.6,205.2,-185.4,-830.1,0,564,268435456,79,0, 
0.3167,-179.7,-21.0,-235.2,456.9,-515.4,-333.9,-8.7,-927.6,33863.7,173.7,807.0,316.5,-1675.2,-3931.5,9830.1,11.1,-6.3,-5.4,-20.1,339.6,-0.6,215.7,-154.8,-838.2,0,570,268435456,80,0, 
0.3200,-176.4,-3.0,-216.0,475.2,-490.2,-348.0,-7.2,-931.2,16227.9,209.7,825.3,350.7,-1668.3,-4080.0,9817.2,-5.7,-6.6,-6.0,-5.4,361.2,-0.6,248.4,-476.7,-876.0,0,576,268435456,81,0, 
0.3233,-175.2,9.3,-199.5,491.4,-477.9,-362.4,-0.9,-930.0,-4223.7,214.2,838.5,364.5,-1650.0,-4165.5,9688.2,-7.8,-6.6,-5.4,1.8,373.2,-0.9,258.0,-688.2,-907.5,0,582,0,82,0, 
0.3267,-177.0,1.8,-213.9,484.8,-485.1,-350.7,-5.4,-922.2,1407.9,205.5,825.9,350.4,-1656.0,-4077.6,7580.7,-5.1,-6.9,-6.3,-1.2,358.2,-0.9,237.3,-505.5,-880.8,0,588,0,83,0, 
0.3300,-181.2,-18.6,-237.6,467.1,-505.5,-325.2,-8.1,-918.3,25119.9,180.6,807.6,327.6,-1665.3,-3939.3,9441.0,0.0,-6.6,-6.0,-13.2,343.5,-0.9,219.0,-184.2,-832.2,0,594,0,84,0, 
0.3333,-178.8,-12.3,-239.1,463.5,-510.3,-328.2,-13.5,-915.6,34234.2,183.9,805.2,325.5,-1681.8,-3937.2,9830.1,-3.9,-6.9,-5.7,-12.6,339.9,-0.6,221.7,-166.5,-832.2,0,600,0,85,0, 
0.3367,-179.4,0.3,-224.4,475.2,-498.3,-351.9,-11.4,-927.0,16302.0,198.0,814.5,345.3,-1686.3,-4085.1,9816.3,-12.9,-6.3,-5.4,0.6,348.3,-0.6,238.2,-495.0,-877.5,0,606,268435456,86,0, 
0.3400,-176.7,7.5,-215.4,483.3,-486.6,-367.2,-9.0,-925.8,-4297.8,209.4,830.1,354.9,-1667.7,-4167.9,9704.7,-9.3,-6.9,-6.0,7.8,357.6,-0.9,253.5,-705.0,-914.7,0,612,268435456,87,0, 
0.3433,-179.7,-0.3,-222.6,479.4,-492.6,-351.6,-7.5,-918.9,1630.2,195.3,822.3,352.8,-1656.6,-4081.2,7663.8,-3.6,-7.2,-5.7,0.6,356.7,-0.9,243.6,-499.5,-878.1,0,618,268435456,88,0, 
0.3467,-181.5,-21.9,-238.5,463.2,-513.3,-331.5,-12.0,-912.3,25268.1,180.0,803.1,329.1,-1665.3,-3933.0,9459.3,2.1,-6.6,-6.0,-15.9,338.1,-1.2,225.3,-181.2,-844.5,0,624,268435456,89,0, 
0.3500,-183.0,-26.4,-243.3,457.2,-518.7,-332.1,-10.5,-920.4,34308.3,180.0,798.9,323.4,-1691.7,-3945.9,9830.1,3.3,-6.9,-6.0,-29.7,339.6,-0.9,217.2,-165.0,-834.3,0,630,268435456,90,0, 
0.3533,-183.0,-7.5,-225.6,468.9,-491.7,-355.8,-14.4,-928.2,16153.8,199.2,814.2,344.1,-1694.1,-4092.9,9817.8,-7.8,-7.2,-6.0,-13.8,348.6,-0.6,238.8,-495.6,-879.6,0,636,268435456,91,0, 
0.3567,-176.4,9.9,-210.9,488.4,-472.8,-360.9,-7.5,-921.9,-4149.6,210.6,828.0,358.2,-1668.0,-4170.9,9694.5,-8.4,-6.6,-6.6,3.9,366.0,-0.6,251.7,-696.9,-902.1,0,642,268435456,92,0, 
0.3600,-181.5,-2.7,-223.2,476.7,-499.8,-353.1,-8.4,-915.0,1407.9,202.5,810.9,341.1,-1674.3,-4084.5,7616.7,3.6,-6.6,-5.7,-5.1,339.6,-0.9,233.1,-502.2,-886.2,0,648,268435456,93,0, 
0.3633,-178.5,-18.0,-237.9,462.3,-519.0,-325.8,-14.7,-908.4,25119.9,176.1,797.4,328.2,-1683.0,-3936.3,9436.5,5.7,-6.9,-6.0,-22.2,328.8,-0.6,225.6,-185.7,-838.2,0,654,268435456,94,0, 
0.3667,-180.6,-25.2,-243.6,452.1,-519.9,-331.2,-20.4,-916.8,34086.0,176.1,796.8,324.0,-1671.9,-3936.6,9830.1,7.5,-6.9,-5.7,-21.0,328.5,-0.9,213.9,-174.0,-841.2,0,660,268435456,95,0, 
0.3700,-177.0,-2.7,-220.2,469.8,-496.2,-354.6,-18.9,-921.3,16005.6,196.5,816.6,350.7,-1676.4,-4081.2,9816.9,2.1,-6.6,-6.0,0.9,349.5,-0.3,232.2,-497.7,-888.9,0,666,268435456,96,0, 
0.3733,-172.2,13.8,-199.8,488.7,-475.8,-360.9,-11.1,-916.2,-4371.9,222.0,840.9,371.7,-1652.7,-4166.1,9682.2,-4.2,-6.6,-5.7,20.7,363.6,-0.6,256.2,-705.0,-906.6,0,672,268435456,97,0, 
0.3767,-174.0,-2.1,-221.1,480.9,-487.5,-337.8,-8.1,-911.1,1185.6,200.4,819.6,354.0,-1663.8,-4071.6,7523.7,9.6,-6.6,-6.3,3.0,352.2,-0.9,242.4,-497.7,-870.3,0,678,268435456,98,0, 
0.3800,-176.1,-25.2,-243.0,456.6,-515.7,-326.1,-12.9,-908.4,24971.7,177.9,796.8,327.9,-1656.9,-3922.5,9426.6,16.5,-6.9,-6.0,-23.7,327.3,-0.6,216.0,-177.9,-834.6,0,684,268435456,99,0, 
0.3833,-179.1,-28.2,-243.6,453.6,-514.5,-328.8,-17.7,-910.5,34011.9,177.0,796.2,325.2,-1686.9,-3923.4,9830.1,9.0,-6.9,-5.7,-21.9,330.9,-0.6,222.9,-170.7,-833.1,0,690,268435456,100,0, 
0.3867,-177.9,-7.8,-225.3,465.9,-498.3,-356.7,-14.4,-915.3,15857.4,212.7,814.2,345.0,-1666.2,-4077.3,9822.9,-0.9,-6.9,-5.7,-14.7,336.3,-0.6,240.9,-495.3,-879.0,0,696,268435456,101,0, 
0.3900,-175.2,7.5,-214.8,485.4,-480.0,-366.0,-12.3,-913.8,-4594.2,222.0,827.7,362.4,-1659.9,-4174.5,9664.2,-3.6,-6.6,-6.0,1.5,352.2,-0.6,259.8,-703.8,-911.4,0,702,268435456,102,0, 
0.3933,-178.2,0.6,-220.5,477.6,-496.5,-350.4,-10.8,-906.0,1333.8,205.5,816.0,351.0,-1648.8,-4083.9,7508.1,1.8,-6.9,-5.7,-7.8,345.0,-0.6,244.5,-511.8,-882.3,0,708,268435456,103,0, 
0.3967,-181.5,-21.0,-240.3,454.8,-519.9,-333.0,-14.4,-908.4,25119.9,183.9,796.2,312.6,-1668.6,-3943.5,9417.6,6.3,-6.9,-6.0,-27.6,321.3,-1.2,219.3,-188.7,-840.0,0,714,268435456,104,0, 
0.4000,-182.7,-28.5,-244.2,448.5,-522.6,-330.9,-20.4,-911.7,34011.9,169.8,776.7,312.3,-1678.5,-3942.9,9830.1,6.9,-7.2,-6.0,-44.4,319.2,-0.9,213.0,-182.7,-837.9,0,720,268435456,105,0, 
0.4033,-178.5,-11.4,-232.2,465.6,-497.7,-361.2,-18.9,-917.7,16005.6,188.7,809.7,347.1,-1674.0,-4095.6,9822.3,-1.5,-6.9,-6.0,-14.4,336.3,-0.6,233.4,-506.1,-889.8,0,726,268435456,106,0, 
0.4067,-173.1,12.0,-207.3,483.3,-480.0,-369.9,-12.0,-911.1,-4520.1,225.6,830.4,359.7,-1659.0,-4173.6,9663.9,-6.3,-6.6,-5.7,2.7,352.5,-0.6,250.8,-712.2,-909.0,0,732,268435456,107,0, 
0.4100,-174.0,7.2,-216.6,477.9,-498.3,-352.5,-7.5,-905.1,1333.8,204.3,820.8,352.5,-1658.4,-4075.8,7526.7,3.9,-7.2,-6.0,-2.1,344.7,-0.6,240.0,-504.9,-877.2,0,738,268435456,108,0, 
0.4133,-177.3,-14.4,-237.0,457.8,-517.8,-328.5,-12.9,-902.7,25342.2,183.6,800.7,332.7,-1665.6,-3933.6,9440.1,11.4,-6.9,-6.3,-21.6,323.4,-0.9,219.3,-190.8,-836.7,0,744,268435456,109,0, 
0.4167,-173.1,-15.0,-233.1,462.0,-509.4,-326.7,-15.3,-908.1,34086.0,185.7,806.1,334.5,-1671.3,-3933.3,9830.1,7.8,-6.9,-5.7,-19.5,330.3,-0.6,219.0,-173.1,-836.1,0,750,268435456,110,0, 
0.4200,-172.2,0.9,-219.3,472.5,-493.5,-351.9,-15.3,-912.9,15709.2,212.7,816.0,350.7,-1687.8,-4091.7,9825.3,-0.3,-6.9,-6.3,-11.7,340.5,-0.6,242.1,-495.0,-887.4,0,756,268435456,111,0, 
0.4233,-172.5,15.0,-204.0,481.8,-482.7,-366.9,-15.9,-915.6,-4520.1,213.6,831.9,357.0,-1694.7,-4179.0,9655.2,-2.4,-7.2,-5.7,-4.2,345.6,-0.6,251.4,-702.3,-916.8,0,762,268435456,112,0, 
0.4267,-168.3,7.8,-210.0,478.5,-488.1,-342.9,-10.2,-907.8,1333.8,195.6,828.6,356.7,-1641.9,-4075.5,7509.9,6.9,-6.9,-6.0,-8.4,344.7,-0.6,245.1,-509.4,-877.5,0,768,268435456,113,0, 
0.4300,-174.3,-13.8,-236.1,456.6,-513.9,-324.0,-13.5,-906.0,25119.9,187.8,799.8,327.0,-1662.6,-3926.7,9446.1,13.8,-6.9,-6.0,-27.0,324.6,-0.6,215.1,-182.4,-842.1,0,774,268435456,114,0, 
0.4333,-173.1,-14.1,-236.1,456.0,-516.6,-329.1,-17.1,-911.1,34308.3,187.2,801.0,327.0,-1689.6,-3942.3,9830.1,9.3,-6.9,-6.0,-27.0,322.8,-0.3,209.4,-173.7,-838.8,0,780,268435456,115,0, 
0.4367,-164.7,5.4,-215.1,478.2,-489.9,-347.7,-12.6,-912.9,15635.1,208.8,820.8,351.6,-1669.8,-4078.8,9829.5,3.3,-6.9,-6.0,-7.8,342.9,-0.6,243.0,-487.5,-888.3,0,786,268435456,116,0, 
0.4400,-166.5,11.4,-219.6,474.9,-492.0,-366.0,-7.8,-915.9,-4520.1,208.2,792.6,330.3,-1659.3,-4165.5,9639.0,0.9,-6.9,-6.0,-31.5,318.3,-0.6,233.7,-693.9,-918.9,0,792,268435456,117,0, 
0.4433,-171.6,0.3,-236.1,459.3,-508.5,-345.6,-8.1,-912.0,1482.0,188.1,756.0,295.5,-1658.7,-4071.3,7465.2,8.1,-6.9,-5.7,-59.4,305.4,-0.6,230.1,-512.4,-883.8,0,798,268435456,118,0, 
0.4467,-176.4,-17.1,-243.3,449.7,-520.5,-323.4,-14.4,-913.2,25342.2,173.7,779.1,311.7,-1659.0,-3928.5,9426.9,16.8,-7.2,-5.7,-45.3,317.4,-0.3,209.7,-181.2,-842.1,0,804,268435456,119,0, 
0.4500,-174.0,-9.3,-222.3,467.7,-501.6,-327.9,-15.9,-910.8,34308.3,191.7,834.3,362.4,-1683.9,-3933.3,9830.1,13.2,-6.9,-5.7,4.2,351.9,-0.9,227.1,-175.8,-843.3,0,810,268435456,120,0, 
0.4533,-170.7,9.3,-202.8,487.2,-477.9,-351.0,-16.5,-914.1,15857.4,206.4,863.7,387.6,-1683.0,-4084.2,9825.3,1.8,-6.9,-5.4,29.1,370.2,-0.9,249.9,-491.7,-879.6,0,816,268435456,121,0, 
0.4567,-170.4,17.1,-201.6,489.6,-474.9,-366.6,-11.4,-917.7,-4297.8,211.8,840.9,376.5,-1672.8,-4174.8,9667.5,-1.5,-6.9,-6.0,10.2,363.0,-0.9,255.9,-695.1,-913.2,0,822,268435456,122,0, 
0.4600,-166.5,6.6,-207.9,486.0,-483.0,-344.4,-6.9,-904.2,1407.9,202.5,836.4,363.6,-1655.1,-4074.0,7576.5,9.3,-6.9,-6.0,12.3,354.9,-0.6,240.0,-497.1,-877.2,0,828,268435456,123,0, 
0.4633,-171.0,-5.7,-216.9,480.9,-491.4,-318.9,-9.3,-900.6,25342.2,188.1,849.6,370.2,-1669.5,-3927.0,9443.4,15.9,-6.9,-5.7,24.6,356.4,-0.6,227.4,-159.6,-828.9,0,834,268435456,124,0, 
0.4667,-171.9,-5.7,-217.2,477.9,-489.9,-321.9,-13.2,-901.8,34160.1,184.2,850.5,372.6,-1669.5,-3942.0,9830.1,11.7,-6.9,-5.7,27.3,361.5,-0.3,237.0,-164.7,-835.2,0,840,268435456,125,0, 
0.4700,-169.5,12.6,-204.3,486.3,-475.2,-345.3,-12.0,-910.2,15709.2,191.7,857.7,381.6,-1693.5,-4086.9,9825.3,1.2,-6.9,-5.7,24.6,368.7,-0.6,234.0,-479.1,-882.6,0,846,268435456,126,0, 
0.4733,-168.9,15.3,-199.5,495.6,-463.8,-355.5,-9.6,-911.4,-4520.1,217.5,858.3,390.9,-1672.8,-4163.7,9653.4,-2.1,-6.9,-5.7,27.3,368.7,-0.9,256.8,-683.1,-909.0,0,852,268435456,127,0, 
0.4767,-170.1,11.1,-207.6,487.8,-476.1,-341.1,-7.8,-903.6,1630.2,203.1,849.0,376.2,-1658.7,-4079.7,7520.4,7.2,-6.6,-5.7,18.0,358.2,-0.3,231.0,-487.2,-875.4,0,858,268435456,128,0, 
0.4800,-171.9,-10.2,-225.0,470.4,-497.1,-318.0,-9.9,-901.8,25342.2,183.0,826.8,354.3,-1671.9,-3929.1,9458.4,14.4,-7.2,-6.0,3.9,346.5,-0.6,216.6,-163.5,-828.6,0,864,268435456,129,0, 
0.4833,-175.2,-14.4,-232.5,465.3,-504.9,-328.5,-13.5,-908.7,34160.1,188.1,817.8,345.3,-1682.7,-3934.8,9830.1,12.3,-6.6,-6.0,-5.7,334.5,-0.6,217.5,-159.9,-839.1,0,870,268435456,130,0, 
0.4867,-166.2,10.5,-210.0,486.0,-478.5,-349.5,-10.2,-909.6,15635.1,198.3,840.3,367.8,-1677.9,-4074.9,9830.1,4.5,-6.9,-6.3,16.5,360.6,-0.6,246.3,-489.3,-882.6,0,876,268435456,131,0, 
0.4900,-165.0,23.4,-198.9,495.0,-462.0,-365.4,-9.0,-912.0,-4594.2,214.2,849.3,378.6,-1654.8,-4161.9,9642.9,6.0,-6.6,-5.7,22.5,360.9,-1.2,251.1,-689.7,-913.5,0,882,268435456,132,0, 
0.4933,-166.8,12.9,-209.1,485.7,-472.8,-349.8,-10.2,-907.8,1630.2,193.2,831.9,361.2,-1655.1,-4062.0,7518.0,8.1,-6.6,-5.7,8.1,352.8,-0.9,234.9,-489.3,-882.3,0,888,268435456,133,0, 
0.4967,-169.8,-9.3,-227.4,477.0,-500.1,-324.3,-13.5,-902.4,25490.4,183.0,817.2,351.0,-1660.2,-3922.5,9448.8,17.4,-7.2,-5.4,-2.7,344.7,-0.6,221.4,-160.8,-836.1,0,894,268435456,134,0, 
0.5000,-174.0,-13.8,-235.2,468.3,-504.0,-328.8,-17.7,-912.3,34308.3,172.2,813.6,348.6,-1675.8,-3934.2,9830.1,18.0,-7.2,-5.7,-5.7,342.6,-0.6,220.2,-173.4,-838.2,0,900,268435456,135,0, 
0.5033,-166.8,8.1,-212.7,488.4,-479.7,-349.5,-14.7,-915.6,15635.1,216.6,843.0,371.1,-1678.5,-4066.8,9827.1,10.2,-6.9,-5.7,17.7,362.1,-0.9,242.7,-484.8,-882.9,0,906,268435456,136,0, 
0.5067,-162.3,24.3,-195.9,500.1,-466.5,-356.7,-6.0,-912.9,-4446.0,217.2,850.8,384.0,-1652.4,-4156.2,9659.7,6.9,-7.2,-6.0,27.6,372.6,-0.6,256.5,-697.2,-902.4,0,912,268435456,137,0, 
0.5100,-160.8,18.3,-204.6,490.5,-478.2,-341.7,-8.4,-907.2,1407.9,216.9,845.1,374.7,-1660.5,-4055.1,7544.4,15.6,-7.2,-5.7,20.4,359.1,-0.9,243.0,-487.5,-878.4,0,918,268435456,138,0, 
0.5133,-171.9,-6.6,-226.8,469.5,-499.8,-316.8,-9.3,-905.7,25490.4,179.1,822.0,345.6,-1672.8,-3914.7,9445.5,23.4,-6.6,-5.7,0.3,339.6,-1.2,219.6,-168.9,-826.8,0,924,268435456,139,0, 
0.5167,-169.5,-8.1,-230.1,465.0,-504.6,-323.7,-13.5,-911.4,34086.0,188.4,819.3,340.2,-1687.5,-3915.0,9830.1,18.9,-6.9,-5.4,-0.9,334.2,-0.9,224.7,-158.1,-843.9,0,930,268435456,140,0, 
0.5200,-171.3,9.3,-211.8,480.0,-483.9,-350.1,-11.1,-916.8,15635.1,204.3,841.8,365.7,-1689.0,-4080.0,9829.8,9.0,-6.9,-6.0,20.7,357.6,-0.6,241.5,-490.5,-883.8,0,936,268435456,141,0, 
0.5233,-169.8,23.4,-198.9,492.9,-467.7,-364.2,-6.9,-918.3,-4520.1,212.4,857.1,387.6,-1670.4,-4157.7,9650.4,6.3,-6.9,-6.0,31.2,372.6,-0.9,252.3,-684.9,-909.0,0,942,268435456,142,0, 
0.5267,-175.5,8.1,-217.5,477.9,-484.5,-353.4,-4.2,-916.8,1926.6,204.3,836.7,368.4,-1668.6,-4077.9,7577.7,21.9,-6.9,-6.0,12.6,352.5,-0.3,242.4,-487.5,-876.6,0,948,268435456,143,0, 
0.5300,-176.7,-13.2,-231.9,462.9,-503.7,-327.0,-6.6,-912.3,25712.7,181.5,819.6,348.3,-1684.8,-3928.2,9482.1,24.9,-6.9,-5.7,-1.8,341.7,-0.6,216.6,-156.6,-838.8,0,954,268435456,144,0, 
0.5333,-176.7,-13.8,-231.3,466.2,-499.5,-325.5,-12.3,-912.6,34086.0,184.5,821.4,342.0,-1680.9,-3926.7,9830.1,18.0,-7.2,-6.0,-4.2,348.0,-0.3,225.0,-152.4,-833.1,0,960,268435456,145,0, 
0.5367,-176.1,5.4,-213.6,480.6,-483.6,-354.3,-9.6,-920.7,15486.9,204.0,838.5,364.5,-1684.5,-4083.9,9830.1,11.4,-6.9,-5.7,7.5,350.7,-0.6,249.3,-477.3,-885.3,0,966,268435456,146,0, 
0.5400,-173.7,10.2,-210.0,485.4,-471.0,-370.8,-11.7,-925.2,-4594.2,203.7,841.8,375.3,-1671.0,-4170.0,9639.0,10.2,-6.9,-6.0,12.6,366.0,-0.6,254.1,-686.7,-912.6,0,972,268435456,147,0, 
0.5433,-177.0,-1.2,-218.7,477.6,-482.1,-344.7,-7.5,-918.0,1778.4,193.5,828.6,360.0,-1671.6,-4073.7,7540.8,12.9,-6.9,-6.0,1.2,356.4,-0.9,235.2,-481.2,-869.1,0,978,268435456,148,0, 
0.5467,-178.8,-18.9,-247.8,453.0,-510.3,-335.7,-18.9,-917.7,25490.4,178.5,805.5,333.3,-1672.5,-3923.4,9470.4,23.1,-6.9,-5.7,-18.9,331.5,-0.9,220.2,-165.6,-845.7,0,984,268435456,149,0, 
0.5500,-178.8,-14.4,-238.5,459.6,-508.2,-328.5,-18.9,-917.4,33863.7,184.2,814.2,341.4,-1692.3,-3927.3,9830.1,17.7,-6.6,-6.0,-11.4,344.7,-0.9,223.2,-141.6,-834.3,0,990,268435456,150,0, 
0.5533,-179.7,0.0,-223.2,470.7,-489.6,-352.8,-12.9,-928.2,15264.6,186.9,829.2,357.0,-1699.5,-4074.3,9830.1,12.0,-7.2,-5.4,-2.1,357.0,-0.3,232.8,-460.2,-884.7,0,996,268435456,151,0, 
0.5567,-177.3,5.7,-215.1,482.4,-479.7,-367.8,-10.2,-930.0,-4520.1,195.9,831.9,365.7,-1689.9,-4169.1,9622.5,9.9,-6.6,-5.7,0.0,367.5,-0.6,247.8,-668.7,-909.3,0,1002,268435456,152,0, 
0.5600,-174.0,4.2,-217.8,482.4,-485.4,-345.3,-8.1,-920.4,1852.5,201.3,832.5,362.1,-1678.8,-4069.5,7527.3,9.9,-6.6,-6.0,-1.5,359.4,-0.6,238.8,-478.8,-874.5,0,1008,268435456,153,0, 
0.5633,-179.7,-18.0,-233.7,463.5,-509.4,-325.8,-18.3,-923.7,25712.7,179.1,812.4,339.6,-1684.8,-3924.0,9479.7,13.8,-6.9,-5.4,-13.8,338.4,-1.2,218.1,-159.6,-838.2,0,1014,268435456,154,0, 
0.5667,-181.5,-19.5,-237.6,456.6,-515.1,-333.9,-22.5,-929.7,34086.0,178.2,808.5,334.2,-1693.8,-3939.6,9830.1,15.9,-6.9,-5.7,-18.3,334.2,-0.6,213.0,-161.1,-844.8,0,1020,268435456,155,0, 
0.5700,-172.2,2.7,-212.1,482.1,-485.7,-348.3,-17.1,-927.0,15264.6,207.0,840.0,367.5,-1694.1,-4071.9,9830.1,9.3,-6.6,-6.0,10.2,364.2,-0.9,248.1,-464.1,-883.5,0,1026,268435456,156,0, 
0.5733,-167.4,16.8,-192.3,500.7,-465.6,-357.3,-10.5,-919.2,-4816.5,228.9,857.7,384.9,-1658.4,-4146.3,9611.1,2.7,-7.2,-6.0,27.3,382.8,-0.6,267.9,-660.0,-897.3,0,1032,268435456,157,0, 
0.5767,-169.5,12.9,-201.0,492.0,-478.8,-338.7,-11.7,-917.4,1778.4,208.8,846.0,371.4,-1660.8,-4050.9,7481.4,12.3,-6.6,-5.7,16.5,368.1,-0.6,257.7,-468.3,-865.8,0,1038,268435456,158,0, 
0.5800,-172.2,-9.0,-222.0,476.4,-490.8,-310.2,-16.2,-915.9,25786.8,188.7,828.3,354.0,-1678.5,-3910.8,9479.7,18.9,-6.9,-6.0,1.2,359.4,-0.3,227.1,-152.7,-822.3,0,1044,268435456,159,0, 
0.5833,-169.8,-9.9,-226.5,474.0,-496.5,-316.2,-22.5,-919.8,34308.3,199.5,827.1,355.8,-1676.4,-3917.1,9830.1,15.6,-6.9,-6.0,-0.3,358.8,-0.6,236.1,-147.0,-824.7,0,1050,268435456,160,0, 
0.5867,-168.6,11.4,-203.7,489.9,-473.1,-346.2,-21.3,-926.1,15635.1,218.1,852.0,375.3,-1685.7,-4066.8,9830.1,6.3,-7.2,-5.7,26.4,372.6,-0.3,258.6,-477.6,-875.4,0,1056,268435456,161,0, 
0.5900,-162.0,27.3,-186.6,513.0,-453.0,-352.2,-14.7,-922.2,-4371.9,237.3,873.9,399.6,-1668.3,-4142.7,9647.7,0.0,-6.6,-5.7,48.0,392.1,-1.2,277.2,-670.2,-889.5,0,1062,268435456,162,0, 
0.5933,-163.8,24.0,-198.0,504.3,-466.5,-335.4,-17.4,-919.5,2148.9,222.0,860.7,385.8,-1654.5,-4042.8,7657.5,4.2,-6.6,-6.0,37.2,377.7,-0.9,259.5,-469.5,-865.8,0,1068,268435456,163,0, 
0.5967,-170.1,0.0,-218.7,487.5,-486.6,-309.6,-20.1,-918.6,26009.1,191.1,834.6,361.8,-1668.0,-3903.9,9523.5,12.9,-6.6,-5.7,14.7,358.8,-0.9,237.3,-147.6,-818.4,0,1074,268435456,164,0, 
0.6000,-170.1,1.2,-218.4,481.8,-488.7,-315.9,-24.0,-926.1,34604.7,202.2,837.6,360.9,-1680.6,-3915.6,9830.1,14.4,-7.2,-5.7,15.0,357.3,-0.3,235.2,-154.5,-825.0,0,1080,268435456,165,0, 
0.6033,-164.1,17.1,-199.5,502.5,-468.6,-337.2,-18.3,-929.7,15931.5,222.6,859.8,389.7,-1701.3,-4065.6,9830.1,7.5,-6.9,-5.4,36.0,375.9,-0.3,266.1,-477.0,-869.7,0,1086,268435456,166,0, 
0.6067,-161.7,25.2,-192.0,510.0,-458.1,-350.7,-13.8,-930.3,-4075.5,228.3,864.6,397.2,-1673.1,-4140.9,9682.2,6.6,-6.3,-5.7,36.9,387.9,-0.6,267.0,-676.8,-898.5,0,1092,268435456,167,0, 
0.6100,-159.6,21.3,-197.1,507.3,-467.1,-332.1,-13.2,-921.9,2445.3,223.5,861.0,389.4,-1663.8,-4048.8,7833.6,3.3,-7.2,-5.7,36.9,380.4,-0.9,252.0,-475.5,-867.3,0,1098,268435456,168,0, 
0.6133,-162.0,-0.9,-217.5,485.4,-487.2,-309.9,-12.6,-918.0,26379.6,206.4,840.0,367.2,-1673.7,-3906.9,9570.3,13.2,-6.9,-5.7,12.0,361.5,-0.9,239.1,-152.1,-817.2,0,1104,268435456,169,0, 
0.6167,-160.8,-5.1,-218.1,485.1,-486.9,-315.6,-18.3,-922.5,34678.8,204.9,843.6,365.1,-1685.1,-3903.0,9830.1,10.2,-6.6,-5.7,17.4,360.9,-0.9,235.2,-157.5,-826.2,0,1110,268435456,170,0, 
0.6200,-160.5,12.3,-201.0,500.4,-460.5,-336.6,-15.9,-931.8,15635.1,221.7,864.3,389.7,-1683.0,-4053.0,9830.1,3.9,-6.3,-5.7,31.8,381.9,-0.6,260.7,-477.3,-867.6,0,1116,268435456,171,0, 
0.6233,-161.7,23.7,-187.8,512.7,-448.2,-349.5,-10.2,-929.7,-3927.3,235.8,870.0,399.3,-1674.0,-4140.9,9692.1,2.7,-6.9,-6.0,40.5,391.5,-0.6,272.7,-673.2,-890.7,0,1122,268435456,172,0, 
0.6267,-165.3,10.2,-201.3,501.0,-470.7,-329.1,-12.6,-926.4,2593.5,213.6,855.0,386.4,-1665.9,-4046.1,7938.9,10.2,-6.9,-5.7,27.6,380.4,-0.6,251.4,-465.6,-863.4,0,1128,268435456,173,0, 
0.6300,-170.4,-5.4,-218.1,481.2,-491.7,-311.1,-18.0,-922.5,26676.0,198.0,839.4,364.2,-1670.1,-3902.1,9614.4,17.4,-7.2,-6.0,15.6,358.8,-1.2,234.6,-149.7,-826.2,0,1134,268435456,174,0, 
0.6333,-172.8,-3.6,-219.6,478.5,-489.6,-318.6,-23.7,-925.8,34827.0,190.8,845.4,370.2,-1693.8,-3913.5,9830.1,12.9,-7.2,-5.7,16.5,363.0,-0.6,237.9,-153.3,-825.6,0,1140,268435456,175,0, 
0.6367,-166.5,15.9,-200.7,497.7,-468.3,-340.5,-24.3,-927.3,15635.1,216.0,864.9,388.2,-1698.0,-4042.5,9830.1,9.9,-6.9,-6.3,31.5,378.9,-0.6,261.9,-462.9,-876.3,0,1146,268435456,176,0, 
0.6400,-168.0,21.9,-189.3,512.1,-451.2,-348.9,-17.4,-924.9,-4149.6,223.2,874.2,403.2,-1681.2,-4136.1,9689.1,3.6,-6.6,-6.0,40.8,394.5,-0.3,264.3,-657.9,-891.3,0,1152,268435456,177,0, 
0.6433,-165.6,16.5,-193.2,506.4,-464.4,-333.3,-15.3,-922.2,2741.7,222.3,870.6,388.8,-1673.1,-4036.5,7993.2,14.1,-7.2,-5.4,36.9,381.3,-0.3,255.3,-446.7,-867.9,0,1158,268435456,178,0, 
0.6467,-169.8,-1.5,-212.1,485.7,-485.1,-306.9,-21.0,-921.3,26972.4,191.1,844.2,367.2,-1684.8,-3890.4,9640.8,15.9,-7.2,-5.7,14.7,365.4,-1.2,229.5,-131.1,-822.6,0,1164,268435456,179,0, 
0.6500,-169.5,-5.1,-216.0,480.9,-488.1,-316.5,-24.9,-924.9,35123.4,190.2,844.2,367.8,-1711.8,-3893.4,9830.1,17.4,-6.9,-6.0,8.7,365.4,-0.3,237.3,-135.9,-829.5,0,1170,268435456,180,0, 
0.6533,-162.9,18.3,-196.8,501.3,-466.5,-338.7,-25.8,-932.4,15635.1,210.0,860.4,389.1,-1700.4,-4051.5,9830.1,3.3,-6.9,-6.3,23.1,380.7,-0.6,248.7,-471.9,-872.7,0,1176,268435456,181,0, 
0.6567,-161.7,29.1,-183.9,511.2,-453.9,-357.0,-22.5,-933.0,-4594.2,228.6,876.0,402.6,-1690.2,-4135.8,9653.7,3.6,-6.9,-5.7,30.3,391.8,-0.6,269.7,-677.7,-898.5,0,1182,268435456,182,0, 
0.6600,-166.5,18.0,-191.7,506.7,-462.6,-329.7,-20.1,-927.6,3260.4,210.9,865.8,394.2,-1690.2,-4037.1,8033.4,11.7,-6.9,-6.3,23.7,386.1,0.0,247.5,-458.4,-859.2,0,1188,268435456,183,0, 
0.6633,-165.0,-1.5,-218.7,480.6,-489.9,-315.9,-23.7,-929.1,30381.0,178.8,841.2,361.8,-1693.5,-3860.4,9690.6,22.8,-6.9,-5.7,-2.1,362.7,-0.3,232.2,-84.3,-821.1,0,1194,268435456,184,0, 
0.6667,-166.2,-1.2,-218.1,477.3,-488.4,-316.8,-32.7,-933.9,39495.3,189.6,846.6,369.0,-1713.6,-3856.8,9830.1,18.3,-6.9,-5.7,0.9,363.6,-0.9,235.8,-95.1,-820.8,0,1200,268435456,185,0, 
0.6700,-166.2,16.2,-199.2,491.4,-465.0,-346.8,-27.9,-939.9,16005.6,206.4,864.3,388.2,-1706.7,-4041.6,9830.1,3.9,-7.2,-5.7,16.8,380.7,-0.9,248.4,-494.1,-874.8,0,1206,268435456,186,0, 
0.6733,-161.7,35.1,-178.8,509.1,-449.4,-358.2,-23.1,-938.1,-7484.1,228.0,884.1,407.1,-1692.3,-4128.6,9624.6,3.0,-7.2,-5.4,34.5,394.2,-0.9,268.2,-714.6,-906.6,0,1212,268435456,187,0, 
0.6767,-157.2,23.4,-188.7,501.9,-459.3,-333.3,-21.0,-929.7,1630.2,215.7,871.2,393.9,-1674.0,-4001.1,7615.2,10.2,-7.5,-5.7,19.2,385.5,-0.6,264.0,-447.0,-863.1,0,1218,268435456,188,0, 
0.6800,-162.3,-3.9,-213.9,480.6,-483.3,-303.6,-24.0,-928.2,30677.4,198.6,844.8,370.2,-1690.2,-3825.0,9643.5,20.1,-6.6,-6.0,-3.9,365.4,-0.3,230.1,-70.8,-805.5,0,1224,268435456,189,0, 
0.6833,-160.2,-3.9,-215.7,477.3,-487.8,-314.4,-28.2,-931.5,39643.5,188.4,844.5,368.1,-1705.5,-3834.3,9830.1,18.0,-6.9,-5.4,0.9,363.6,-0.9,235.5,-86.1,-820.5,0,1230,268435456,190,0, 
0.6867,-159.0,17.7,-198.6,498.9,-468.0,-345.9,-26.4,-940.8,15709.2,209.7,865.5,390.3,-1698.0,-4019.1,9830.1,9.9,-6.9,-5.7,25.8,375.3,-0.9,253.2,-483.3,-878.7,0,1236,268435456,191,0, 
0.6900,-156.3,35.7,-173.4,516.3,-446.1,-353.1,-17.7,-935.4,-8002.8,236.1,886.8,411.9,-1696.2,-4103.7,9582.0,6.0,-6.9,-5.7,46.2,390.3,-0.3,275.1,-699.6,-903.0,0,1242,268435456,192,0, 
0.6933,-156.6,23.1,-186.9,504.3,-455.4,-325.8,-19.5,-928.8,1407.9,216.0,875.7,403.5,-1692.6,-3972.3,7519.5,10.5,-7.2,-6.0,33.6,385.8,-0.9,258.6,-446.4,-856.8,0,1248,268435456,193,0, 
0.6967,-162.3,-2.1,-215.4,483.3,-483.9,-308.1,-23.1,-927.0,30973.8,195.0,846.6,366.6,-1685.1,-3807.3,9639.0,21.3,-6.9,-5.4,12.6,365.4,-0.9,229.5,-57.6,-808.5,0,1254,268435456,194,0, 
0.7000,-162.9,0.0,-216.3,478.2,-489.9,-321.3,-29.1,-934.2,39643.5,191.1,843.6,365.4,-1695.6,-3820.8,9830.1,18.6,-6.6,-6.0,12.0,360.3,-0.6,234.0,-77.1,-820.8,0,1260,268435456,195,0, 
0.7033,-161.1,17.7,-198.0,496.2,-462.0,-348.0,-25.5,-943.2,15709.2,212.4,866.1,394.2,-1694.1,-4008.6,9830.1,8.1,-6.9,-5.7,31.8,385.5,-0.9,252.0,-481.5,-875.1,0,1266,268435456,196,0, 
0.7067,-156.6,36.9,-182.1,510.3,-448.8,-365.7,-25.5,-942.9,-7854.6,231.6,885.0,405.6,-1664.4,-4108.8,9590.4,-5.7,-6.9,-5.7,45.0,391.5,-0.9,259.5,-714.6,-906.0,0,1272,268435456,197,0, 
0.7100,-159.0,25.8,-194.7,499.2,-465.3,-344.4,-24.6,-936.0,1778.4,214.2,864.0,384.6,-1653.9,-3977.4,7597.8,6.6,-7.2,-6.3,30.3,370.5,-0.6,250.2,-453.9,-869.1,0,1278,268435456,198,0, 
0.7133,-161.7,-6.0,-214.2,475.8,-490.2,-318.9,-29.1,-937.8,31122.0,184.8,845.7,366.3,-1679.7,-3801.0,9647.7,13.8,-7.2,-6.3,11.1,357.3,-0.9,213.9,-64.5,-818.1,0,1284,268435456,199,0, 
0.7167,-159.3,-0.6,-205.5,480.6,-482.7,-318.0,-29.7,-938.4,39791.7,197.1,857.1,374.1,-1700.1,-3814.2,9830.1,4.2,-7.2,-5.7,23.7,365.4,-0.6,230.7,-89.1,-819.0,0,1290,268435456,200,0, 
0.7200,-157.2,18.0,-186.3,499.2,-458.1,-348.9,-28.2,-951.0,15635.1,214.5,872.1,402.9,-1690.2,-4004.1,9830.1,-6.9,-7.2,-6.0,34.2,388.2,-0.9,264.0,-488.7,-879.6,0,1296,268435456,201,0, 
0.7233,-151.8,35.4,-170.4,515.1,-440.4,-362.1,-20.1,-944.4,-7854.6,227.1,887.7,417.6,-1668.6,-4091.1,9604.2,-4.5,-6.9,-6.3,48.9,399.6,-0.9,277.8,-718.2,-906.0,0,1302,268435456,202,0, 
0.7267,-159.6,19.2,-187.5,504.9,-456.9,-341.1,-18.6,-941.1,1778.4,213.3,870.0,398.1,-1667.1,-3968.4,7664.4,0.9,-7.2,-5.7,33.9,384.0,-0.6,252.3,-458.1,-862.2,0,1308,268435456,203,0, 
0.7300,-161.1,1.2,-210.9,482.1,-483.3,-317.4,-23.1,-938.7,31418.4,188.1,848.1,374.4,-1685.7,-3792.0,9666.6,12.0,-6.9,-5.7,10.8,360.6,-0.6,223.8,-71.7,-811.2,0,1314,268435456,204,0, 
0.7333,-162.0,-7.5,-214.8,477.0,-485.1,-327.9,-30.9,-946.5,39865.8,203.4,843.6,368.7,-1694.7,-3807.9,9830.1,4.5,-7.2,-6.0,10.2,360.0,-0.6,228.9,-93.3,-825.9,0,1320,268435456,205,0, 
0.7367,-160.8,12.3,-195.6,493.8,-464.1,-357.0,-30.6,-956.7,15635.1,221.1,866.1,382.5,-1704.0,-3988.8,9830.1,-3.0,-6.9,-5.7,26.4,376.8,-0.3,244.8,-506.1,-882.3,0,1326,268435456,206,0, 
0.7400,-154.8,27.3,-183.0,510.9,-447.0,-367.5,-25.8,-955.5,-7928.7,236.7,876.6,409.2,-1686.6,-4083.9,9595.8,-2.7,-6.9,-6.0,33.0,392.7,-0.6,259.2,-728.7,-906.9,0,1332,268435456,207,0, 
0.7433,-151.5,16.8,-195.9,497.7,-466.2,-345.0,-24.6,-945.6,1778.4,218.4,861.9,385.5,-1664.4,-3940.5,7636.8,10.5,-6.3,-6.3,22.8,368.7,-0.9,236.4,-463.8,-867.3,0,1338,268435456,208,0, 
0.7467,-153.3,-5.4,-218.7,476.1,-492.0,-314.7,-25.5,-942.0,31196.1,193.2,835.5,358.5,-1672.8,-3759.6,9663.0,22.2,-6.9,-6.0,-1.5,352.2,-0.3,212.4,-58.8,-812.7,0,1344,268435456,209,0, 
0.7500,-155.1,-10.8,-223.5,469.5,-495.6,-320.7,-22.8,-952.2,39717.6,184.5,833.4,362.1,-1688.1,-3785.7,9830.1,18.6,-7.2,-6.3,-4.2,345.9,-0.3,216.3,-76.5,-819.0,0,1350,268435456,210,0, 
0.7533,-151.2,19.2,-196.2,492.6,-468.3,-353.4,-24.3,-958.2,15412.8,219.0,862.5,388.8,-1675.2,-3974.1,9830.1,9.6,-7.2,-6.0,17.1,374.7,-0.6,242.4,-488.1,-878.4,0,1356,268435456,211,0, 
0.7567,-148.8,33.6,-173.1,513.9,-452.4,-362.7,-15.9,-955.8,-8076.9,234.9,880.2,410.1,-1672.8,-4075.8,9575.1,4.2,-6.6,-5.7,36.0,392.1,-0.9,272.4,-722.1,-899.4,0,1362,268435456,212,0, 
0.7600,-149.7,23.1,-189.3,501.0,-464.4,-339.3,-17.4,-951.3,1630.2,210.9,864.3,387.0,-1658.1,-3942.0,7563.0,17.1,-6.6,-5.4,22.5,380.4,-0.9,259.2,-450.3,-859.8,0,1368,268435456,213,0, 
0.7633,-155.7,-8.1,-213.3,480.0,-487.5,-307.5,-24.0,-947.7,31418.4,193.8,844.5,365.7,-1688.1,-3767.4,9660.3,21.9,-6.9,-6.3,6.3,361.8,-0.6,232.8,-64.8,-801.0,0,1374,268435456,214,0, 
0.7667,-149.4,2.1,-210.9,482.1,-483.9,-312.0,-26.4,-949.5,39717.6,192.3,852.6,381.0,-1675.2,-3782.7,9830.1,17.7,-6.9,-6.3,9.6,366.3,-0.6,238.2,-91.2,-809.4,0,1380,268435456,215,0, 
0.7700,-149.4,24.3,-189.9,502.5,-460.2,-341.1,-26.4,-958.5,15264.6,216.3,874.5,405.3,-1692.3,-3969.9,9830.1,1.5,-6.6,-5.7,26.7,385.2,-0.9,263.7,-499.8,-871.8,0,1386,268435456,216,0, 
0.7733,-149.1,33.3,-171.6,519.9,-442.5,-350.1,-14.4,-960.9,-8225.1,242.7,893.4,419.4,-1669.2,-4071.0,9557.7,4.5,-6.9,-5.7,45.0,400.2,-0.6,280.5,-729.9,-894.0,0,1392,268435456,217,0, 
0.7767,-146.1,25.8,-184.2,509.7,-456.9,-327.6,-13.8,-953.7,1778.4,224.1,879.3,405.6,-1659.9,-3945.0,7522.8,11.7,-6.9,-5.7,31.5,388.2,-0.9,264.6,-467.4,-858.9,0,1398,268435456,218,0, 
0.7800,-150.3,-2.1,-216.3,485.1,-487.2,-308.7,-25.5,-956.1,31270.2,195.3,848.4,374.7,-1676.4,-3775.8,9657.0,24.0,-6.9,-6.3,-0.3,365.7,-0.9,235.2,-65.4,-808.8,0,1404,268435456,219,0, 
0.7833,-154.5,-7.2,-220.2,482.4,-484.8,-314.7,-31.2,-960.3,39643.5,202.5,854.1,374.7,-1710.9,-3792.9,9830.1,11.4,-7.2,-6.3,3.9,365.4,-0.6,237.0,-96.9,-816.3,0,1410,268435456,220,0, 
0.7867,-153.3,15.0,-196.8,500.1,-463.2,-343.5,-30.6,-970.5,15116.4,221.1,872.1,396.6,-1683.0,-3983.7,9830.1,-1.8,-6.9,-5.7,23.7,381.0,-0.6,266.4,-506.1,-872.4,0,1416,268435456,221,0, 
0.7900,-152.1,34.2,-182.7,520.8,-446.4,-357.9,-22.2,-965.1,-8595.6,235.5,885.6,414.0,-1653.0,-4080.6,9532.2,-6.6,-6.9,-6.3,29.7,396.0,-0.3,274.5,-732.0,-900.3,0,1422,268435456,222,0, 
0.7933,-152.1,16.8,-196.2,502.2,-460.5,-338.7,-24.6,-961.5,1556.1,207.0,863.4,390.9,-1662.3,-3944.1,7435.2,8.1,-6.9,-6.0,12.6,377.7,-0.9,251.4,-461.1,-865.8,0,1428,268435456,223,0, 
0.7967,-158.1,-9.0,-222.0,479.1,-483.9,-309.3,-27.0,-958.5,31270.2,185.7,840.0,363.3,-1686.9,-3776.4,9654.0,16.8,-6.9,-6.3,-12.3,356.4,-0.6,231.6,-60.0,-811.2,0,1434,268435456,224,0, 
0.8000,-160.5,-12.6,-225.9,474.3,-494.7,-318.6,-33.3,-964.8,39717.6,193.2,840.3,363.0,-1698.0,-3802.5,9829.8,10.5,-6.9,-6.0,-13.2,356.1,-0.9,228.6,-92.7,-822.6,0,1440,268435456,225,0, 
0.8033,-154.5,12.9,-201.0,496.2,-471.0,-347.1,-26.4,-969.0,14894.1,217.8,870.9,396.9,-1709.4,-4000.2,9830.1,0.3,-6.6,-6.0,11.4,378.0,-0.6,255.3,-496.8,-877.2,0,1446,268435456,226,0, 
0.8067,-156.6,23.4,-193.2,504.0,-461.7,-360.0,-29.1,-977.1,-8669.7,215.7,878.7,399.9,-1689.9,-4089.0,9508.2,0.0,-6.9,-5.7,18.0,379.2,-1.2,265.8,-727.5,-907.8,0,1452,268435456,227,0, 
0.8100,-157.2,9.6,-205.5,492.0,-471.6,-333.9,-24.3,-967.2,1333.8,202.2,858.9,382.8,-1671.6,-3949.8,7320.3,11.4,-6.9,-5.7,-1.2,369.0,-0.9,248.4,-455.1,-858.3,0,1458,268435456,228,0, 
0.8133,-159.3,-8.4,-225.9,477.0,-490.8,-306.3,-25.8,-964.8,31047.9,178.8,847.2,369.9,-1702.5,-3773.4,9611.4,16.8,-6.6,-6.3,-10.5,356.7,-0.6,228.0,-43.2,-808.8,0,1464,268435456,229,0, 
0.8167,-157.2,-12.9,-225.6,472.8,-489.3,-312.9,-32.7,-969.6,39421.2,177.9,845.4,364.2,-1691.1,-3804.0,9830.1,11.1,-6.9,-5.4,-12.9,357.3,-0.6,230.1,-81.9,-815.7,0,1470,268435456,230,0, 
0.8200,-156.3,11.4,-202.2,494.1,-466.5,-343.5,-33.0,-978.0,14820.0,207.3,868.8,392.4,-1688.7,-4003.8,9830.1,0.6,-6.9,-6.0,6.3,373.5,-0.3,266.4,-490.8,-881.1,0,1476,268435456,231,0, 
0.8233,-157.5,29.1,-189.9,506.4,-454.5,-362.1,-29.1,-981.0,-8892.0,226.5,876.0,404.4,-1687.8,-4098.3,9462.9,-5.1,-6.9,-6.0,11.4,382.8,-0.6,262.2,-734.7,-912.3,0,1482,268435456,232,0, 
0.8267,-155.1,16.2,-196.8,499.5,-465.6,-334.8,-25.8,-971.7,1333.8,211.8,865.2,391.2,-1677.0,-3964.5,7187.4,-5.1,-6.9,-6.0,1.8,375.9,-0.6,255.0,-457.5,-859.8,0,1488,268435456,233,0, 
0.8300,-158.4,-5.7,-221.4,477.6,-492.3,-317.1,-31.5,-967.8,31122.0,189.0,843.0,362.7,-1687.2,-3793.5,9615.0,5.7,-6.6,-6.0,-19.5,346.8,-0.6,216.0,-70.5,-814.2,0,1494,268435456,234,0, 
0.8333,-163.8,-8.7,-223.8,470.7,-490.8,-321.3,-38.4,-976.8,39421.2,189.0,842.4,366.9,-1716.9,-3823.5,9828.3,-2.7,-6.9,-5.7,-24.0,360.0,-0.6,234.3,-104.4,-817.5,0,1500,268435456,235,0, 
0.8367,-156.3,17.4,-200.4,498.0,-462.0,-351.3,-31.2,-983.1,14449.5,215.1,868.5,394.5,-1707.0,-4007.7,9830.1,-9.3,-6.9,-5.4,2.1,382.5,-0.6,252.9,-510.3,-876.3,0,1506,268435456,236,0, 
0.8400,-158.7,28.8,-189.0,506.1,-450.0,-369.0,-25.2,-982.5,-9040.2,219.3,873.9,400.2,-1669.2,-4103.1,9432.3,-9.6,-6.9,-5.4,10.2,383.7,-0.9,264.6,-736.8,-906.0,0,1512,268435456,237,0, 
0.8433,-155.1,18.6,-196.8,498.0,-466.5,-346.2,-20.4,-972.3,1259.7,206.4,865.5,386.1,-1685.4,-3967.8,7124.7,5.1,-6.6,-5.7,3.0,369.3,-0.9,249.9,-444.0,-868.5,0,1518,268435456,238,0, 
0.8467,-156.6,-2.1,-218.4,479.4,-488.4,-317.4,-23.1,-965.7,31196.1,183.0,852.0,369.3,-1677.9,-3796.5,9607.8,7.8,-7.2,-5.7,-8.4,355.2,-0.6,223.8,-57.3,-814.5,0,1524,268435456,239,0, 
0.8500,-156.0,-10.8,-225.6,478.8,-488.4,-320.4,-28.2,-970.2,39124.8,178.5,851.1,369.0,-1694.1,-3811.8,9826.2,6.9,-6.9,-6.0,-15.3,356.7,-0.6,229.5,-82.2,-821.4,0,1530,268435456,240,0, 
0.8533,-156.0,14.7,-195.9,494.7,-464.4,-353.4,-30.3,-979.2,14449.5,216.0,870.9,377.4,-1687.2,-4006.8,9830.1,-4.2,-6.9,-5.4,4.2,376.5,-0.9,252.3,-498.6,-879.9,0,1536,268435456,241,0, 
0.8567,-154.8,30.6,-180.0,510.3,-448.2,-359.4,-26.7,-978.9,-9040.2,233.4,888.0,409.5,-1681.8,-4105.8,9411.3,-7.5,-6.9,-5.4,18.3,390.9,-1.2,264.9,-722.4,-903.3,0,1542,268435456,242,0, 
0.8600,-154.2,13.5,-198.6,495.3,-469.8,-344.4,-24.6,-973.8,1556.1,211.2,871.5,390.6,-1652.7,-3968.7,7105.2,3.3,-6.9,-5.7,3.9,366.0,-0.6,246.9,-445.8,-864.9,0,1548,268435456,243,0, 
0.8633,-156.0,-7.8,-217.5,479.7,-489.3,-314.4,-27.6,-968.4,31344.3,183.3,854.7,373.2,-1672.5,-3795.0,9606.3,17.7,-6.3,-6.0,-8.4,354.6,-0.9,225.0,-49.2,-807.6,0,1554,268435456,244,0, 
0.8667,-154.2,-8.4,-215.4,476.4,-490.8,-323.7,-31.5,-973.5,39495.3,186.9,855.0,369.3,-1685.4,-3827.1,9828.6,14.7,-7.2,-5.7,-6.9,352.2,-0.6,227.4,-85.5,-817.8,0,1560,268435456,245,0, 
0.8700,-154.2,10.8,-196.5,496.5,-468.9,-358.2,-35.4,-985.8,14671.8,211.5,872.7,391.8,-1680.9,-4023.0,9830.1,2.4,-6.9,-5.7,6.0,370.8,-0.6,257.4,-515.1,-886.2,0,1566,268435456,246,0, 
0.8733,-154.5,26.4,-184.8,511.2,-447.9,-365.1,-29.4,-984.0,-8743.8,231.6,888.3,411.3,-1686.9,-4106.4,9460.5,-1.5,-7.2,-6.0,21.3,387.3,-0.3,270.6,-726.3,-899.7,0,1572,268435456,247,0, 
0.8767,-152.7,9.9,-201.6,498.0,-464.7,-344.7,-23.4,-974.7,1704.3,208.5,871.2,390.3,-1669.5,-3968.7,7248.6,16.8,-6.9,-5.7,8.4,372.6,-0.9,252.0,-436.5,-859.2,0,1578,268435456,248,0, 
0.8800,-159.3,-14.1,-227.4,474.3,-492.0,-324.9,-31.8,-976.8,31788.9,193.8,845.4,362.7,-1675.2,-3805.5,9657.9,21.9,-6.9,-5.7,-13.8,348.3,-0.6,229.8,-57.9,-816.9,0,1584,268435456,249,0, 
0.8833,-160.5,-15.6,-225.0,473.1,-492.3,-331.2,-36.6,-978.9,39791.7,181.2,853.2,368.1,-1690.8,-3817.8,9817.8,17.4,-7.2,-5.7,-13.2,350.7,-0.9,228.6,-94.2,-827.7,0,1590,268435456,250,0, 
0.8867,-156.6,4.5,-206.1,489.6,-468.9,-359.7,-39.6,-991.8,15042.3,207.0,869.7,391.2,-1685.4,-3999.9,9830.1,4.5,-6.9,-6.0,3.9,376.8,-0.6,245.1,-512.4,-884.7,0,1596,268435456,251,0, 
0.8900,-159.0,16.8,-195.0,499.5,-458.4,-381.0,-35.7,-994.2,-8299.2,215.7,880.5,397.2,-1679.4,-4096.8,9522.0,4.8,-6.6,-5.7,12.6,375.3,-0.6,264.6,-727.8,-916.5,0,1602,268435456,252,0, 
0.8933,-157.5,7.2,-204.3,491.7,-466.8,-346.8,-28.5,-982.5,2297.1,206.7,872.7,390.0,-1669.8,-3954.0,7557.0,12.3,-7.2,-6.3,6.3,369.3,-0.9,258.0,-445.8,-864.9,0,1608,268435456,253,0, 
0.8967,-162.0,-14.1,-228.0,469.8,-492.6,-324.3,-37.8,-981.0,32159.4,188.1,850.2,366.9,-1693.2,-3782.7,9696.3,19.2,-7.2,-5.7,-15.0,348.3,-0.6,222.0,-63.9,-815.7,0,1614,268435456,254,0, 
0.9000,-159.3,-14.4,-228.3,463.2,-491.1,-328.8,-42.6,-984.3,40384.5,179.4,850.8,362.4,-1701.9,-3801.3,9819.0,12.3,-7.2,-6.3,-9.6,349.8,-0.3,224.7,-89.7,-827.1,0,1620,268435456,255,0, 
0.9033,-156.9,9.6,-204.3,486.0,-464.4,-364.5,-38.7,-993.3,15264.6,212.1,876.3,386.4,-1687.5,-3985.2,9830.1,3.3,-7.5,-6.0,13.2,372.0,-0.3,250.5,-492.3,-886.8,0,1626,268435456,0,0, 
0.9067,-156.6,22.8,-189.9,500.1,-450.0,-371.7,-33.3,-991.2,-8002.8,221.1,888.0,402.0,-1672.2,-4079.4,9578.1,-2.1,-7.2,-6.3,24.3,381.9,-0.9,275.4,-708.3,-908.1,0,1632,268435456,1,0, 
0.9100,-156.3,12.0,-201.3,489.9,-469.5,-351.3,-34.8,-984.0,2815.8,207.0,866.7,384.9,-1679.4,-3953.7,7823.1,9.0,-7.2,-6.0,7.2,365.7,-0.3,247.5,-446.7,-865.5,0,1638,268435456,2,0, 
0.9133,-159.3,-13.2,-224.1,465.3,-498.0,-327.3,-42.0,-978.9,32752.2,180.0,846.6,362.7,-1705.2,-3773.1,9752.4,13.5,-6.6,-6.0,-12.6,344.1,-0.6,223.5,-56.4,-818.7,0,1644,268435456,3,0, 
0.9167,-162.9,-18.3,-221.7,465.3,-495.3,-335.1,-48.3,-988.5,40680.9,189.9,846.3,363.0,-1714.2,-3781.5,9813.0,10.2,-7.2,-5.7,-12.6,346.8,-0.6,229.5,-100.8,-830.4,0,1650,268435456,4,0, 
0.9200,-159.6,9.6,-198.0,488.4,-467.7,-363.9,-46.8,-993.9,15709.2,216.3,879.0,393.3,-1700.4,-3977.4,9830.1,-2.7,-6.6,-6.3,13.5,370.2,-0.6,253.8,-509.4,-884.4,0,1656,268435456,5,0, 
0.9233,-154.8,25.8,-183.6,502.5,-453.9,-378.3,-40.2,-992.1,-7484.1,226.8,889.5,405.0,-1692.6,-4067.7,9654.3,-5.4,-6.9,-5.7,23.1,380.1,-0.3,260.4,-729.9,-912.0,0,1662,268435456,6,0, 
0.9267,-156.0,17.4,-199.8,486.3,-474.0,-355.2,-41.1,-983.4,3186.3,208.5,867.3,384.3,-1678.5,-3930.6,8134.2,3.3,-6.6,-5.7,9.9,363.3,-0.6,243.0,-446.1,-873.6,0,1668,268435456,7,0, 
0.9300,-159.0,-9.6,-224.1,464.7,-497.7,-325.5,-48.3,-978.3,32974.5,178.8,838.8,360.3,-1703.1,-3749.7,9775.5,18.9,-7.2,-5.7,-9.9,343.2,-0.3,216.3,-51.9,-827.7,0,1674,268435456,8,0, 
0.9333,-162.0,-9.0,-217.2,465.6,-493.2,-330.3,-48.6,-983.4,41051.4,195.0,851.7,368.4,-1711.2,-3775.2,9818.4,12.3,-6.9,-5.7,3.0,345.9,-0.6,237.6,-89.1,-830.7,0,1680,268435456,9,0, 
0.9367,-156.6,13.2,-199.8,485.7,-471.9,-359.4,-44.7,-990.3,15709.2,212.4,873.3,388.8,-1701.0,-3956.1,9830.1,12.6,-6.9,-5.7,22.8,368.7,-0.6,248.7,-497.7,-888.6,0,1686,268435456,10,0, 
0.9400,-152.1,29.4,-180.9,500.7,-445.8,-371.4,-40.2,-989.1,-7484.1,226.8,893.7,405.6,-1677.0,-4041.3,9676.8,1.5,-7.2,-5.7,42.0,384.9,-0.6,275.4,-713.7,-906.0,0,1692,268435456,11,0, 
0.9433,-148.2,22.2,-187.8,498.0,-460.8,-343.5,-35.1,-978.0,3334.5,228.0,881.4,392.4,-1663.2,-3902.7,8223.0,12.3,-6.6,-5.7,30.9,373.8,-0.6,247.8,-437.4,-859.8,0,1698,268435456,12,0, 
0.9467,-153.9,-5.7,-218.1,474.3,-497.7,-323.7,-42.0,-976.8,33122.7,193.5,853.8,369.0,-1693.5,-3744.9,9784.2,25.5,-6.9,-5.7,6.3,351.0,-0.9,229.2,-60.9,-810.0,0,1704,268435456,13,0, 
0.9500,-154.8,-6.3,-214.5,476.7,-490.2,-322.2,-42.6,-980.1,40977.3,193.8,858.9,377.1,-1706.7,-3763.2,9818.1,15.0,-6.9,-5.7,7.2,362.7,-0.6,230.4,-87.9,-810.6,0,1710,268435456,14,0, 
0.9533,-151.5,17.7,-188.4,495.3,-467.1,-358.5,-39.9,-987.9,15857.4,225.0,877.8,387.3,-1708.2,-3955.2,9830.1,7.5,-7.2,-5.7,21.9,376.2,-0.9,251.1,-506.1,-873.0,0,1716,268435456,15,0, 
0.9567,-149.4,33.0,-175.2,511.8,-453.9,-376.2,-32.4,-983.7,-7261.8,243.3,896.1,409.2,-1696.8,-4046.7,9698.4,8.1,-7.2,-5.7,39.6,386.4,-0.6,273.0,-736.5,-902.1,0,1722,268435456,16,0, 
0.9600,-151.2,17.1,-191.4,498.9,-465.0,-348.6,-30.0,-974.1,3260.4,223.5,876.9,396.9,-1680.0,-3909.6,8347.5,16.8,-6.9,-6.0,25.5,374.7,-0.3,250.8,-455.1,-857.7,0,1728,268435456,17,0, 
0.9633,-153.3,-3.6,-217.2,479.7,-489.3,-315.3,-36.0,-966.0,33048.6,198.3,852.6,369.9,-1692.3,-3727.5,9793.2,27.3,-7.2,-6.0,0.6,350.1,-0.6,226.8,-49.5,-798.3,0,1734,268435456,18,0, 
0.9667,-159.9,-13.8,-226.2,472.2,-496.2,-329.4,-39.6,-974.4,40903.2,181.5,846.6,360.9,-1707.6,-3751.5,9820.2,21.9,-6.9,-6.0,-9.0,343.8,-0.6,220.2,-87.0,-818.4,0,1740,268435456,19,0, 
0.9700,-156.3,8.7,-202.5,493.8,-471.0,-366.3,-39.3,-978.0,15709.2,218.1,874.2,392.1,-1700.1,-3936.3,9830.1,11.4,-6.9,-5.7,10.2,362.4,-0.6,251.1,-507.9,-880.2,0,1746,268435456,20,0, 
0.9733,-154.5,29.1,-183.9,510.3,-454.8,-375.3,-33.3,-972.6,-7335.9,230.7,890.1,407.1,-1682.7,-4031.7,9693.9,5.4,-6.9,-5.7,29.1,383.1,-0.6,265.2,-733.5,-907.5,0,1752,268435456,21,0, 
0.9767,-153.3,10.8,-201.0,495.6,-472.2,-360.0,-35.1,-966.0,3408.6,209.7,872.1,389.1,-1690.2,-3903.3,8348.4,14.1,-6.9,-6.0,13.5,364.2,-0.9,251.7,-456.3,-868.8,0,1758,268435456,22,0, 
0.9800,-158.1,-15.6,-228.3,470.7,-494.7,-328.5,-37.2,-962.1,33270.9,180.3,842.7,360.6,-1711.8,-3728.4,9797.1,26.7,-6.9,-6.0,-14.1,348.0,-0.6,218.1,-66.9,-810.3,0,1764,268435456,23,0, 
0.9833,-159.9,-12.9,-226.5,470.7,-493.5,-338.1,-44.1,-967.5,41051.4,184.5,850.5,365.7,-1725.0,-3755.1,9820.5,20.1,-6.9,-6.0,-8.7,348.0,-0.3,224.4,-109.5,-822.9,0,1770,268435456,24,0, 
0.9867,-153.9,13.8,-201.3,489.9,-471.6,-368.4,-39.3,-972.9,15561.0,223.2,876.0,390.0,-1710.3,-3927.0,9830.1,12.3,-6.6,-5.4,13.5,369.6,-0.6,250.8,-513.0,-880.2,0,1776,268435456,25,0, 
0.9900,-151.8,32.4,-184.8,504.3,-456.0,-379.2,-30.3,-968.1,-7706.4,224.1,888.0,405.9,-1687.5,-4012.8,9687.3,14.4,-6.6,-5.4,26.1,383.1,-0.6,257.4,-715.5,-901.5,0,1782,268435456,26,0, 
0.9933,-151.2,24.3,-193.8,500.1,-467.1,-348.6,-26.1,-956.7,3334.5,218.1,875.1,393.9,-1669.2,-3873.9,8285.4,27.6,-6.9,-5.4,21.3,375.9,-0.6,260.7,-430.2,-853.5,0,1788,268435456,27,0, 
0.9967,-158.4,-3.3,-219.3,475.2,-491.1,-318.6,-29.1,-952.5,33196.8,188.7,847.5,364.5,-1703.4,-3707.1,9791.7,32.4,-6.9,-6.3,-2.4,350.7,-0.6,218.7,-44.7,-797.1,0,1794,268435456,28,0, 
1.0000,-160.8,-7.2,-224.1,468.0,-500.4,-339.3,-35.7,-959.7,40829.1,180.9,846.3,361.5,-1702.8,-3735.9,9816.9,27.9,-6.6,-5.7,-7.8,344.7,-0.9,223.8,-91.5,-820.8,0,1800,268435456,29,0, 
1.0033,-156.6,16.5,-199.5,492.3,-471.6,-367.2,-34.8,-965.1,15857.4,214.2,876.0,390.3,-1684.5,-3927.0,9830.1,21.0,-6.9,-5.7,21.3,370.5,-0.6,256.5,-504.6,-879.6,0,1806,268435456,30,0, 
1.0067,-153.9,30.6,-190.2,501.3,-459.9,-384.6,-32.4,-967.5,-7335.9,225.3,882.0,399.6,-1671.0,-4023.3,9703.8,18.0,-6.6,-6.0,27.3,376.8,-0.9,256.2,-736.8,-907.8,0,1812,268435456,31,0, 
1.0100,-155.7,13.2,-204.0,492.9,-475.5,-360.6,-27.6,-959.7,3556.8,199.8,865.5,382.8,-1661.4,-3889.5,8410.2,27.9,-7.5,-6.0,20.1,363.9,-0.3,251.7,-453.0,-862.5,0,1818,268435456,32,0, 
1.0133,-156.9,-3.9,-218.4,477.3,-492.6,-324.9,-28.5,-945.6,33345.0,187.2,850.8,363.0,-1678.8,-3708.6,9803.4,34.2,-6.9,-5.7,3.6,351.3,0.0,234.9,-62.1,-802.8,0,1824,268435456,33,0, 
1.0167,-152.7,-5.1,-216.6,474.6,-495.0,-330.6,-31.5,-945.3,40977.3,195.3,852.6,361.8,-1679.1,-3721.2,9818.7,32.4,-6.9,-6.0,8.1,350.1,-0.6,228.0,-94.2,-812.1,0,1830,268435456,34,0, 
1.0200,-155.4,15.6,-192.9,491.7,-468.3,-359.7,-31.5,-955.8,15635.1,208.5,873.0,386.1,-1684.8,-3909.9,9830.1,17.7,-6.9,-5.7,21.6,373.8,-0.6,254.4,-501.3,-868.5,0,1836,268435456,35,0, 
1.0233,-150.0,36.6,-176.7,511.2,-451.5,-371.4,-25.8,-952.2,-7261.8,237.6,886.8,406.2,-1663.8,-4002.6,9704.1,16.5,-7.2,-5.7,35.4,388.5,-0.6,277.5,-716.1,-895.2,0,1842,268435456,36,0, 
1.0267,-152.7,17.7,-192.3,501.3,-466.2,-343.8,-24.6,-940.2,3556.8,213.3,868.5,390.3,-1656.9,-3874.2,8424.3,27.9,-6.6,-6.0,18.0,376.2,-0.6,252.9,-431.4,-851.4,0,1848,268435456,37,0, 
1.0300,-159.6,-6.3,-220.8,474.3,-497.1,-326.1,-31.2,-940.5,33567.3,189.3,846.0,362.1,-1670.4,-3699.6,9811.2,34.5,-6.9,-5.4,-1.2,346.8,-0.6,230.7,-48.6,-811.8,0,1854,268435456,38,0, 
1.0333,-160.5,-6.0,-217.8,473.4,-490.8,-334.2,-34.2,-941.4,40977.3,194.1,849.9,367.5,-1684.5,-3725.1,9815.7,28.8,-6.9,-6.0,3.9,354.3,-0.9,235.8,-90.0,-816.3,0,1860,268435456,39,0, 
1.0367,-155.4,21.6,-191.7,498.0,-467.7,-361.2,-28.8,-946.8,16005.6,224.1,874.2,394.2,-1687.2,-3924.9,9830.1,20.4,-6.6,-5.7,23.4,373.8,-0.6,265.8,-510.0,-873.9,0,1866,268435456,40,0, 
1.0400,-153.9,31.2,-180.0,512.4,-452.4,-374.4,-20.7,-941.1,-7261.8,234.3,888.3,409.2,-1655.7,-4000.5,9717.6,18.0,-6.6,-5.7,33.9,386.1,-0.6,273.3,-720.6,-898.8,0,1872,268435456,41,0, 
1.0433,-153.6,17.7,-197.1,495.9,-472.2,-353.1,-21.0,-933.3,3779.1,204.3,866.4,387.0,-1642.8,-3871.8,8516.4,28.2,-7.2,-6.0,13.8,368.7,-0.9,248.4,-442.2,-859.5,0,1878,268435456,42,0, 
1.0467,-157.8,-8.1,-222.9,473.1,-496.5,-326.1,-23.7,-930.0,33863.7,183.6,837.9,360.6,-1668.9,-3709.8,9822.3,38.7,-6.6,-5.7,-15.6,345.0,-0.9,226.8,-54.9,-807.9,0,1884,268435456,43,0, 
1.0500,-163.8,-13.5,-226.5,471.3,-491.4,-326.4,-25.2,-935.1,41273.7,189.9,843.6,369.9,-1692.6,-3738.9,9814.8,30.6,-6.6,-5.7,-9.6,355.2,-0.6,239.7,-93.6,-809.4,0,1890,268435456,44,0, 
1.0533,-158.1,14.7,-198.3,488.1,-468.9,-360.3,-25.5,-939.6,15857.4,218.1,869.7,393.3,-1683.9,-3917.4,9830.1,18.6,-6.6,-6.0,17.1,371.4,-0.6,255.3,-515.7,-867.0,0,1896,268435456,45,0, 
1.0567,-153.0,34.8,-180.9,504.0,-452.1,-372.9,-21.3,-935.7,-7039.5,230.7,882.3,403.5,-1662.0,-4001.7,9731.4,19.2,-7.5,-5.7,30.9,383.7,-0.6,281.7,-727.8,-901.5,0,1902,268435456,46,0, 
1.0600,-154.8,13.8,-195.6,493.8,-468.6,-349.5,-16.5,-927.6,4001.4,207.0,871.8,391.8,-1666.2,-3871.5,8610.6,30.0,-6.9,-5.7,16.5,369.3,-0.9,260.4,-438.3,-856.8,0,1908,268435456,47,0, 
1.0633,-158.4,-9.0,-218.7,471.0,-492.9,-321.9,-18.3,-921.3,33937.8,194.1,845.7,365.4,-1674.3,-3695.4,9830.1,36.9,-7.2,-5.7,-9.3,350.1,-0.6,236.4,-41.1,-804.0,0,1914,268435456,48,0, 
1.0667,-159.3,-5.4,-216.9,470.4,-493.8,-332.1,-23.7,-927.6,41570.1,194.4,844.5,363.3,-1696.2,-3716.4,9812.7,32.1,-6.6,-5.4,-10.5,349.8,-0.9,233.7,-76.8,-808.8,0,1920,268435456,49,0, 
1.0700,-154.5,18.0,-188.1,496.8,-463.2,-360.0,-19.2,-931.5,15857.4,219.3,880.8,397.2,-1675.2,-3902.7,9830.1,24.9,-7.2,-6.3,22.2,378.3,-0.3,263.4,-484.8,-871.5,0,1926,268435456,50,0, 
1.0733,-154.2,35.4,-176.1,512.1,-452.1,-372.0,-16.8,-933.6,-6965.4,233.4,886.5,410.1,-1656.9,-3986.1,9751.5,22.2,-6.6,-5.7,31.5,385.8,-0.9,264.9,-697.5,-893.1,0,1932,268435456,51,0, 
1.0767,-157.8,12.9,-198.6,489.3,-474.9,-353.4,-20.4,-927.3,4446.0,188.7,861.3,379.8,-1668.0,-3859.2,8768.4,36.9,-7.2,-5.7,10.8,360.6,-0.9,247.8,-418.8,-860.7,0,1938,268435456,52,0, 
1.0800,-158.7,-12.0,-224.1,467.7,-500.1,-324.9,-22.8,-924.3,34604.7,171.9,846.6,359.7,-1664.1,-3681.6,9830.1,51.9,-6.9,-5.7,-3.6,340.8,-0.9,223.2,-24.0,-806.4,0,1944,268435456,53,0, 
1.0833,-157.8,-6.9,-216.3,471.3,-493.5,-330.0,-26.7,-922.5,42162.9,198.9,853.8,364.5,-1688.7,-3708.3,9802.2,39.3,-6.9,-6.0,3.0,355.8,-0.9,238.8,-70.5,-811.2,0,1950,268435456,54,0, 
1.0867,-153.9,17.7,-189.9,497.4,-463.5,-363.0,-29.4,-927.3,16820.7,225.0,879.0,395.7,-1671.3,-3885.3,9830.1,22.5,-6.6,-5.7,22.8,379.8,-0.6,264.3,-489.3,-876.6,0,1956,268435456,55,0, 
1.0900,-148.8,33.6,-175.8,508.2,-453.3,-374.4,-26.4,-928.2,-5928.0,233.1,887.7,406.5,-1650.0,-3975.0,9798.6,24.0,-6.9,-6.0,35.4,386.7,-0.9,276.6,-706.8,-906.9,0,1962,268435456,56,0, 
1.0933,-148.5,21.0,-189.3,504.3,-459.3,-343.5,-18.0,-913.5,5261.1,216.9,879.6,398.7,-1668.0,-3839.1,9204.0,29.1,-6.6,-5.7,25.2,382.8,-0.6,262.5,-409.5,-843.0,0,1968,268435456,57,0, 
1.0967,-150.3,3.9,-204.6,486.6,-479.4,-310.2,-21.3,-907.5,35419.8,189.3,862.2,377.1,-1668.3,-3660.6,9830.1,37.2,-7.2,-5.4,10.8,365.4,-0.6,240.3,-37.8,-791.1,0,1974,268435456,58,0, 
1.1000,-154.8,0.0,-213.0,480.3,-487.5,-333.3,-30.3,-915.9,42755.7,192.0,858.9,375.0,-1688.7,-3686.7,9822.6,33.9,-6.6,-6.0,1.8,355.5,-0.9,233.1,-83.4,-816.9,0,1980,268435456,59,0, 
1.1033,-153.9,21.0,-189.9,499.5,-463.5,-361.2,-28.5,-922.8,17043.0,223.2,881.7,399.0,-1692.9,-3871.2,9830.1,22.5,-6.3,-5.4,20.7,375.9,-0.6,263.1,-512.7,-875.7,0,1986,268435456,60,0, 
1.1067,-150.0,37.5,-179.1,507.6,-455.4,-380.4,-21.6,-925.5,-6150.3,231.6,891.3,407.1,-1673.1,-3957.0,9816.6,21.3,-7.2,-5.7,27.0,385.2,-1.2,264.9,-717.6,-899.7,0,1992,268435456,61,0, 
1.1100,-148.8,28.2,-192.0,495.9,-470.1,-357.9,-20.7,-917.1,5187.0,203.7,873.9,387.9,-1667.7,-3814.5,9370.5,32.1,-7.2,-5.7,21.6,368.7,-0.3,262.2,-438.0,-859.5,0,1998,268435456,62,0, 
1.1133,-155.4,-2.7,-219.0,475.5,-492.6,-328.2,-24.9,-915.9,34901.1,186.3,857.7,372.3,-1681.2,-3641.4,9821.1,36.0,-6.9,-5.7,4.5,354.6,-1.2,228.0,-51.6,-805.8,0,2004,268435456,63,0, 
1.1167,-156.0,-3.9,-218.1,475.5,-493.8,-334.8,-27.9,-921.6,42088.8,183.9,853.8,371.7,-1693.8,-3672.9,9830.1,27.9,-6.6,-6.0,1.5,356.1,-0.6,228.6,-94.8,-813.9,0,2010,268435456,64,0, 
1.1200,-153.9,18.3,-192.3,497.7,-463.5,-364.8,-25.2,-929.1,16079.7,220.2,880.8,397.2,-1685.1,-3863.7,9829.8,14.1,-7.2,-6.0,30.6,381.6,-0.6,261.3,-514.2,-880.8,0,2016,268435456,65,0, 
1.1233,-150.9,31.2,-174.0,510.0,-452.7,-378.9,-23.4,-928.8,-6891.3,235.2,894.0,409.5,-1680.3,-3955.5,9800.1,6.6,-6.6,-6.3,41.7,386.4,-0.6,278.7,-733.8,-909.6,0,2022,268435456,66,0, 
1.1267,-150.6,12.6,-188.7,499.5,-466.8,-352.8,-19.8,-920.7,4149.6,205.2,870.6,392.7,-1664.7,-3818.4,8996.1,17.4,-6.9,-5.7,21.3,375.3,-0.9,254.1,-444.3,-859.5,0,2028,268435456,67,0, 
1.1300,-155.7,-10.5,-213.3,479.4,-491.4,-320.7,-24.9,-916.5,33937.8,180.0,850.8,366.6,-1685.1,-3649.5,9820.5,28.2,-7.2,-5.7,6.0,355.2,-0.6,226.2,-55.5,-804.3,0,2034,268435456,68,0, 
1.1333,-157.5,-8.1,-214.2,477.3,-487.8,-330.3,-25.8,-919.2,40755.0,182.1,853.5,372.0,-1695.9,-3684.3,9830.1,24.3,-7.2,-5.7,5.4,358.2,-0.6,226.2,-105.0,-812.4,0,2040,268435456,69,0, 
1.1367,-156.9,11.1,-196.2,495.6,-467.1,-361.5,-21.6,-926.4,14968.2,214.5,877.2,394.8,-1701.6,-3862.2,9830.1,19.8,-6.9,-6.0,26.1,374.4,-1.2,246.9,-509.4,-878.1,0,2046,268435456,70,0, 
1.1400,-153.3,27.9,-179.7,512.7,-452.1,-377.7,-17.7,-922.8,-7928.7,225.3,889.8,408.0,-1677.3,-3956.7,9716.1,15.9,-7.2,-6.3,41.7,383.1,-0.9,273.0,-731.1,-905.7,0,2052,268435456,71,0, 
1.1433,-154.8,22.2,-192.3,498.6,-466.8,-350.7,-14.7,-915.6,3334.5,205.8,876.3,391.5,-1662.3,-3821.1,8405.4,24.9,-6.9,-5.4,31.5,371.4,-0.6,243.0,-434.4,-854.7,0,2058,268435456,72,0, 
1.1467,-159.3,-7.5,-213.9,476.7,-491.4,-328.2,-19.2,-915.6,33122.7,176.4,851.1,366.0,-1692.6,-3657.0,9804.9,38.7,-7.2,-6.0,12.6,350.4,-0.6,224.1,-56.7,-808.5,0,2064,268435456,73,0, 
1.1500,-160.8,-9.0,-216.3,474.0,-488.1,-329.4,-19.8,-919.8,40162.2,185.4,853.2,372.0,-1707.9,-3695.4,9820.5,30.9,-6.6,-5.7,13.5,353.7,-0.3,224.1,-103.2,-815.1,0,2070,268435456,74,0, 
1.1533,-163.2,9.9,-195.6,493.8,-466.5,-368.1,-24.9,-930.9,14523.6,214.8,877.8,394.5,-1691.4,-3905.4,9830.1,10.5,-6.9,-6.0,35.1,371.7,-0.9,249.6,-535.8,-882.9,0,2076,268435456,75,0, 
1.1567,-159.0,29.7,-179.4,508.5,-447.3,-375.6,-17.7,-929.1,-8447.4,219.3,893.4,410.4,-1675.2,-3987.9,9622.8,13.2,-6.6,-5.7,45.9,384.3,-0.9,264.9,-736.5,-901.2,0,2082,268435456,76,0, 
1.1600,-158.1,14.4,-197.4,494.7,-464.4,-359.7,-15.3,-921.6,3038.1,197.7,871.8,385.5,-1670.4,-3850.5,8030.1,25.2,-7.2,-6.3,27.9,358.2,-0.3,248.4,-450.9,-866.1,0,2088,268435456,77,0, 
1.1633,-159.9,-8.7,-216.3,469.2,-498.0,-331.2,-21.3,-918.3,32752.2,170.7,847.5,362.7,-1686.9,-3685.8,9778.5,27.6,-7.2,-5.4,8.4,333.9,-0.3,227.1,-62.7,-809.7,0,2094,268435456,78,0, 
1.1667,-165.0,-9.3,-213.9,471.3,-498.6,-344.1,-23.4,-921.3,39865.8,183.6,850.8,364.8,-1722.6,-3717.3,9810.3,27.0,-6.6,-6.0,9.6,342.9,-0.6,215.1,-112.2,-816.3,0,2100,268435456,79,0, 
1.1700,-158.4,19.5,-190.8,492.6,-468.9,-369.6,-21.6,-929.7,14227.2,213.6,878.1,389.4,-1702.2,-3919.8,9830.1,18.0,-6.9,-5.7,34.2,366.3,-0.6,246.6,-521.7,-875.7,0,2106,268435456,80,0, 
1.1733,-155.7,30.0,-178.2,506.1,-455.7,-383.4,-20.7,-926.1,-8743.8,220.8,889.5,404.4,-1705.5,-4006.2,9543.6,18.0,-6.9,-6.0,45.0,373.8,-0.6,260.1,-737.4,-905.7,0,2112,268435456,81,0, 
1.1767,-151.8,24.0,-189.3,501.3,-468.9,-357.0,-16.2,-921.6,2667.6,211.2,875.4,386.4,-1672.8,-3864.0,7787.7,28.8,-6.9,-6.0,34.2,358.8,-0.6,241.8,-445.8,-859.5,0,2118,268435456,82,0, 
1.1800,-159.0,-3.3,-211.8,479.1,-492.9,-334.2,-21.3,-920.1,32678.1,178.8,855.0,366.9,-1697.1,-3701.1,9762.3,36.3,-6.6,-6.0,9.9,346.5,-0.9,222.9,-60.9,-808.8,0,2124,268435456,83,0, 
1.1833,-165.6,-12.3,-218.1,472.2,-490.8,-338.1,-25.2,-928.8,39569.4,174.6,852.0,369.9,-1718.7,-3738.6,9804.9,34.5,-6.9,-5.7,7.5,349.2,-0.3,222.0,-101.1,-816.6,0,2130,268435456,84,0, 
1.1867,-158.1,20.7,-185.4,499.2,-465.6,-369.3,-20.4,-930.6,13708.5,211.2,889.2,399.9,-1700.4,-3921.6,9830.1,18.9,-6.6,-5.7,38.7,368.4,-1.2,258.9,-512.4,-871.5,0,2136,268435456,85,0, 
1.1900,-156.3,26.7,-175.8,509.7,-449.4,-376.2,-18.0,-930.9,-9188.4,226.5,896.1,411.9,-1701.0,-4008.9,9468.6,13.5,-6.6,-5.4,44.4,380.7,-0.3,274.8,-717.0,-894.3,0,2142,268435456,86,0, 
1.1933,-157.2,15.3,-192.9,496.5,-465.9,-355.2,-18.0,-924.9,2519.4,197.7,876.3,393.3,-1676.1,-3887.4,7526.4,27.0,-6.9,-5.7,22.5,363.9,-0.9,249.9,-437.1,-860.1,0,2148,268435456,87,0, 
1.1967,-163.2,-5.4,-219.6,475.8,-491.4,-332.7,-27.3,-922.5,32604.0,180.9,851.1,367.2,-1693.2,-3720.0,9745.8,31.8,-6.9,-5.7,4.5,345.0,-0.3,228.3,-54.0,-809.4,0,2154,268435456,88,0, 
1.2000,-164.4,-3.9,-217.8,476.4,-490.8,-335.7,-32.1,-928.2,39495.3,182.4,850.8,364.5,-1706.4,-3760.2,9798.0,25.2,-6.9,-6.0,2.4,342.6,-0.6,213.0,-120.9,-818.1,0,2160,268435456,89,0, 
1.2033,-162.6,14.1,-195.6,492.3,-471.6,-372.6,-28.5,-933.6,13634.4,211.2,861.3,376.8,-1692.6,-3950.1,9830.1,18.0,-7.5,-5.7,11.1,354.3,-0.6,246.9,-531.0,-880.5,0,2166,268435456,90,0, 
1.2067,-159.3,34.5,-167.7,517.8,-444.0,-376.2,-18.6,-929.4,-9114.3,241.8,894.6,412.8,-1680.9,-4035.0,9434.4,7.5,-6.9,-6.0,43.2,385.5,-0.9,279.3,-737.7,-894.3,0,2172,268435456,91,0, 
1.2100,-162.0,23.1,-177.3,515.4,-450.9,-350.4,-17.4,-921.0,2519.4,219.9,909.9,423.6,-1647.6,-3895.5,7421.1,20.7,-6.6,-6.0,57.0,388.8,-0.9,267.3,-443.4,-846.3,0,2178,268435456,92,0, 
1.2133,-162.0,-1.8,-204.6,492.3,-471.9,-320.7,-21.0,-918.9,32381.7,184.5,878.1,395.1,-1668.3,-3733.2,9723.9,25.8,-6.9,-5.7,26.7,371.4,-0.9,244.2,-67.8,-792.6,0,2184,268435456,93,0, 
1.2167,-168.3,-12.9,-219.6,478.2,-487.2,-335.7,-22.8,-927.9,39347.1,188.1,854.7,374.4,-1689.6,-3780.6,9798.0,22.5,-7.5,-6.0,1.5,354.3,-0.9,231.9,-127.8,-810.6,0,2190,268435456,94,0, 
1.2200,-163.5,13.5,-199.8,493.5,-465.6,-375.6,-22.8,-937.2,13263.9,209.7,876.0,394.5,-1693.2,-3974.1,9830.1,11.7,-7.2,-5.7,20.7,366.6,-1.8,251.4,-539.4,-874.5,0,2196,268435456,95,0, 
1.2233,-161.4,29.7,-182.4,507.6,-450.3,-381.0,-17.4,-933.9,-9484.8,227.1,889.5,413.7,-1656.9,-4058.7,9369.6,8.1,-7.2,-5.7,35.1,382.8,-0.6,268.8,-754.2,-900.9,0,2202,268435456,96,0, 
1.2267,-161.7,14.4,-195.0,496.5,-463.8,-358.8,-16.5,-925.8,2148.9,207.9,880.2,397.5,-1664.7,-3924.0,7214.7,14.4,-6.9,-5.4,29.4,371.4,-0.6,250.8,-457.2,-849.3,0,2208,268435456,97,0, 
1.2300,-165.0,-12.0,-220.8,473.1,-487.2,-329.1,-23.4,-925.8,31863.0,181.5,854.4,368.7,-1681.5,-3745.8,9700.2,27.9,-6.6,-5.7,6.3,352.5,-0.6,231.6,-78.0,-797.4,0,2214,268435456,98,0, 
1.2333,-164.4,-8.7,-216.3,472.8,-489.6,-342.6,-28.5,-936.3,38532.0,194.7,856.5,373.8,-1694.7,-3794.7,9791.7,20.1,-6.6,-6.0,6.9,350.7,-1.2,232.5,-133.2,-815.4,0,2220,268435456,99,0, 
1.2367,-157.8,19.2,-186.6,498.9,-462.3,-375.0,-24.3,-939.3,12597.0,222.3,887.7,402.6,-1685.4,-3973.2,9830.1,13.2,-6.9,-5.4,35.7,376.8,-0.9,262.5,-534.9,-874.8,0,2226,268435456,100,0, 
1.2400,-158.1,32.4,-172.5,510.6,-442.8,-375.3,-18.6,-938.1,-10374.0,233.4,899.7,417.0,-1669.8,-4076.7,9207.9,13.8,-7.2,-6.0,42.6,387.3,-0.9,278.4,-734.1,-895.8,0,2232,268435456,101,0, 
1.2433,-159.9,20.7,-184.8,502.2,-459.6,-354.3,-16.5,-928.5,1482.0,216.0,885.3,398.4,-1673.7,-3942.9,6728.7,24.9,-6.9,-6.0,34.5,375.0,-0.3,257.7,-455.7,-855.0,0,2238,268435456,102,0, 
1.2467,-166.2,-11.4,-215.1,477.9,-486.3,-328.8,-21.0,-930.3,31270.2,185.1,860.4,373.5,-1690.8,-3775.8,9616.2,36.9,-7.2,-5.7,12.3,354.3,-0.6,224.4,-66.9,-805.5,0,2244,268435456,103,0, 
1.2500,-163.8,-5.1,-214.8,474.3,-487.8,-337.2,-25.8,-937.8,37865.1,180.0,860.1,373.8,-1691.1,-3815.1,9788.4,35.1,-7.2,-5.7,14.1,354.3,-0.3,229.5,-131.4,-824.4,0,2250,268435456,104,0, 
1.2533,-162.9,10.8,-194.1,493.8,-461.1,-365.7,-24.6,-948.3,12004.2,216.0,885.9,399.9,-1706.1,-4013.7,9830.1,19.8,-6.9,-6.0,37.2,378.3,-0.9,258.9,-543.9,-876.6,0,2256,268435456,105,0, 
1.2567,-160.5,29.7,-177.0,510.6,-447.6,-379.2,-21.0,-946.2,-10744.5,234.9,903.0,415.8,-1672.2,-4101.9,9040.2,16.2,-6.9,-6.0,51.3,387.3,-0.9,279.6,-750.9,-904.5,0,2262,268435456,106,0, 
1.2600,-157.5,15.9,-185.7,501.3,-459.6,-349.2,-19.5,-933.3,1037.4,216.6,887.1,401.4,-1662.6,-3968.7,6330.0,24.0,-7.5,-5.4,36.9,374.1,-0.9,262.2,-450.6,-855.6,0,2268,268435456,107,0, 
1.2633,-157.5,-1.2,-213.9,479.1,-486.0,-327.9,-20.1,-929.7,30825.6,199.8,860.4,369.6,-1683.6,-3802.5,9522.9,38.7,-6.9,-6.3,17.4,354.3,-0.9,228.6,-69.0,-808.5,0,2274,268435456,108,0, 
1.2667,-155.7,4.2,-209.1,478.8,-482.7,-333.9,-21.6,-935.4,37346.4,202.5,870.9,376.8,-1692.3,-3833.7,9792.6,31.8,-7.2,-5.7,22.2,360.0,-0.9,241.2,-121.2,-818.4,0,2280,268435456,109,0, 
1.2700,-156.9,26.1,-192.6,496.8,-461.7,-373.5,-24.0,-946.8,11707.8,217.2,888.3,396.3,-1689.0,-4045.5,9830.1,22.5,-6.9,-5.4,34.8,377.7,-0.6,264.0,-551.7,-881.4,0,2286,268435456,110,0, 
1.2733,-153.9,39.6,-174.9,513.0,-448.8,-378.3,-16.2,-943.5,-11040.9,233.4,905.4,411.9,-1671.9,-4117.8,8912.1,22.8,-7.2,-6.0,49.8,384.0,-0.3,279.9,-748.5,-905.7,0,2292,268435456,111,0, 
1.2767,-154.5,23.7,-188.4,504.0,-461.1,-350.7,-14.4,-929.7,889.2,207.3,885.3,397.2,-1669.8,-3984.9,6077.4,28.5,-6.9,-6.0,33.9,370.8,-0.6,261.9,-448.8,-856.5,0,2298,268435456,112,0, 
1.2800,-158.4,-3.3,-215.1,476.4,-489.6,-328.2,-21.9,-930.0,30751.5,186.3,856.2,357.3,-1689.9,-3832.8,9464.1,38.1,-6.9,-5.7,8.1,345.6,-0.9,230.1,-63.3,-809.4,0,2304,268435456,113,0, 
1.2833,-161.1,-5.7,-216.9,473.7,-491.1,-333.9,-27.3,-936.6,37420.5,185.4,857.4,364.2,-1714.5,-3859.5,9795.9,27.3,-6.9,-6.0,9.0,347.7,-0.6,235.2,-122.1,-819.3,0,2310,268435456,114,0, 
1.2867,-159.9,12.6,-198.0,490.8,-469.2,-371.4,-26.4,-947.7,11559.6,209.4,881.4,395.1,-1698.6,-4055.4,9830.1,22.2,-6.6,-5.7,27.0,367.8,-0.9,254.7,-541.5,-883.5,0,2316,268435456,115,0, 
1.2900,-156.6,29.7,-191.7,504.0,-457.8,-379.5,-17.7,-945.9,-10966.8,217.2,890.7,404.7,-1690.8,-4141.8,8860.8,20.4,-6.3,-6.0,31.8,376.5,-0.9,261.9,-745.5,-901.5,0,2322,268435456,116,0, 
1.2933,-156.6,22.8,-193.8,495.3,-463.8,-346.2,-12.9,-932.7,1111.5,213.3,879.3,386.4,-1667.4,-3998.7,6034.2,23.1,-6.6,-5.7,26.1,364.8,-0.6,247.2,-445.8,-853.8,0,2328,268435456,117,0, 
1.2967,-159.0,-5.4,-217.2,478.8,-482.4,-319.2,-17.4,-928.2,31122.0,181.8,854.7,363.0,-1696.2,-3836.7,9456.0,32.7,-6.9,-6.0,9.6,351.9,-0.6,231.0,-68.1,-798.0,0,2334,268435456,118,0, 
1.3000,-156.3,-2.7,-209.4,477.3,-485.4,-327.9,-18.9,-930.0,37494.6,196.8,868.2,368.7,-1696.2,-3869.4,9798.6,23.7,-7.2,-6.0,21.6,348.0,-0.9,229.5,-110.1,-813.3,0,2340,268435456,119,0, 
1.3033,-156.9,21.3,-191.1,496.2,-469.5,-360.3,-22.5,-939.9,11707.8,225.9,882.9,392.7,-1685.1,-4053.9,9830.1,14.7,-6.6,-6.3,33.6,370.8,-0.6,256.8,-528.6,-881.1,0,2346,268435456,120,0, 
1.3067,-154.8,32.4,-177.3,505.8,-456.0,-372.9,-21.3,-937.2,-10522.2,229.2,888.6,403.2,-1664.4,-4145.4,8891.4,9.3,-6.6,-6.0,39.6,381.0,-0.6,270.9,-737.4,-904.2,0,2352,268435456,121,0, 
1.3100,-154.8,13.2,-194.4,493.5,-471.0,-346.5,-18.0,-930.3,1556.1,202.5,866.1,382.8,-1660.2,-4006.2,6171.6,16.2,-7.2,-6.0,21.9,366.0,-0.3,253.8,-426.3,-854.4,0,2358,268435456,122,0, 
1.3133,-161.7,-13.5,-220.2,471.9,-493.2,-319.8,-23.7,-928.2,31492.5,181.2,850.5,358.2,-1673.7,-3839.1,9527.4,25.8,-6.9,-6.0,-2.1,346.8,-0.9,222.0,-49.8,-799.2,0,2364,268435456,123,0, 
1.3167,-161.4,-12.3,-216.9,469.2,-492.3,-335.1,-27.6,-936.9,38161.5,196.8,858.9,364.8,-1688.7,-3879.9,9794.7,16.8,-7.2,-5.7,8.4,351.9,-0.3,230.7,-112.8,-818.1,0,2370,268435456,124,0, 
1.3200,-161.1,14.1,-196.5,490.8,-466.2,-357.3,-26.1,-944.1,12152.4,211.5,878.4,390.6,-1686.3,-4072.5,9830.1,6.6,-6.9,-6.0,30.9,375.0,-0.6,254.7,-540.0,-879.3,0,2376,268435456,125,0, 
1.3233,-160.5,30.6,-186.3,501.9,-457.5,-372.0,-24.3,-946.2,-10077.6,222.0,879.6,394.5,-1665.6,-4146.9,9021.6,3.0,-7.2,-6.0,32.1,378.9,-0.9,266.4,-736.5,-903.0,0,2382,268435456,126,0, 
1.3267,-162.9,11.1,-203.7,488.4,-473.4,-348.9,-19.8,-941.7,2000.7,205.2,855.3,368.7,-1682.4,-4010.7,6479.7,18.9,-7.2,-6.0,13.5,353.4,-0.3,245.4,-435.0,-863.7,0,2388,268435456,127,0, 
1.3300,-165.6,-11.4,-238.2,458.4,-506.4,-323.1,-21.6,-936.0,32159.4,170.4,802.8,322.8,-1692.6,-3843.6,9608.1,23.4,-6.9,-5.7,-38.7,323.7,-0.6,213.0,-65.1,-812.7,0,2394,268435456,128,0, 
1.3333,-165.0,-14.1,-241.5,453.9,-501.3,-328.8,-22.2,-940.5,38532.0,166.2,787.5,319.8,-1706.7,-3869.7,9788.4,18.0,-6.9,-5.7,-49.2,329.7,-0.6,223.2,-106.2,-818.1,0,2400,268435456,129,0, 
1.3367,-161.1,22.5,-188.7,498.9,-461.1,-356.7,-23.7,-948.9,12745.2,214.8,879.9,395.7,-1682.1,-4056.6,9830.1,3.3,-6.9,-5.7,35.1,378.9,-0.6,255.9,-533.7,-876.3,0,2406,268435456,130,0, 
1.3400,-157.5,43.2,-162.3,525.0,-438.9,-364.5,-19.2,-946.5,-9484.8,225.0,929.4,432.3,-1662.3,-4143.6,9180.6,2.4,-6.3,-5.4,82.2,397.8,-0.9,271.5,-733.2,-898.8,0,2412,268435456,131,0, 
1.3433,-165.0,20.4,-191.1,500.4,-466.5,-342.0,-24.0,-942.0,2741.7,204.0,881.4,388.2,-1668.0,-4006.5,6913.5,9.3,-6.9,-5.7,33.9,365.7,-0.9,240.0,-443.7,-859.8,0,2418,268435456,132,0, 
1.3467,-173.4,-9.6,-223.2,471.0,-497.1,-325.8,-31.8,-944.1,32752.2,174.6,852.9,357.3,-1701.0,-3834.0,9688.2,21.0,-6.9,-6.0,4.2,346.2,-0.9,213.0,-67.5,-809.7,0,2424,268435456,133,0, 
1.3500,-175.2,-12.9,-221.1,473.7,-494.4,-336.9,-35.4,-955.8,39421.2,175.5,870.0,374.1,-1706.4,-3867.0,9786.3,15.6,-6.9,-6.3,21.3,357.0,-0.6,225.3,-119.7,-826.8,0,2430,268435456,134,0, 
1.3533,-173.4,5.1,-201.0,491.1,-469.8,-368.7,-33.6,-962.4,13560.3,202.2,890.4,396.3,-1695.0,-4058.1,9830.1,7.5,-6.9,-5.7,39.0,374.1,-0.6,254.4,-543.6,-881.1,0,2436,268435456,135,0, 
1.3567,-172.5,13.2,-200.7,490.5,-469.2,-382.2,-30.0,-969.3,-8892.0,197.7,876.0,385.8,-1689.0,-4129.2,9325.5,8.7,-6.9,-5.7,27.9,366.0,-0.6,247.5,-735.3,-908.1,0,2442,268435456,136,0, 
1.3600,-177.0,-3.6,-216.9,476.1,-488.1,-364.8,-32.4,-966.0,3260.4,179.1,854.4,364.8,-1697.7,-3994.5,7313.1,18.3,-6.6,-6.0,9.6,349.8,-0.6,228.3,-433.5,-864.0,0,2448,268435456,137,0, 
1.3633,-178.5,-22.8,-242.7,456.0,-509.7,-336.0,-35.4,-960.0,33345.0,161.7,827.7,339.0,-1727.4,-3821.7,9760.2,21.9,-6.9,-6.0,-13.2,331.8,-1.2,201.3,-59.7,-813.6,0,2454,268435456,138,0, 
1.3667,-177.9,-22.8,-241.2,450.0,-511.8,-352.5,-43.2,-968.4,39643.5,171.3,825.3,337.8,-1722.3,-3855.0,9781.8,15.0,-6.9,-5.7,-17.7,330.0,-0.6,214.2,-123.0,-834.3,0,2460,268435456,139,0, 
1.3700,-176.7,4.5,-213.9,474.9,-479.1,-374.4,-42.0,-970.2,13782.6,198.6,856.2,369.0,-1724.1,-4050.9,9830.1,-2.4,-6.9,-6.0,2.4,357.9,-0.6,244.5,-552.0,-886.5,0,2466,268435456,140,0, 
1.3733,-176.7,20.1,-202.5,485.7,-468.9,-384.3,-36.3,-967.5,-8373.3,213.6,860.7,377.7,-1702.8,-4124.7,9433.2,1.8,-7.2,-6.0,7.8,364.5,-0.6,250.2,-747.6,-913.8,0,2472,268435456,141,0, 
1.3767,-174.6,3.9,-211.5,476.1,-481.8,-360.0,-35.4,-960.9,3779.1,187.2,852.6,363.0,-1695.3,-3973.5,7655.7,11.4,-6.6,-6.0,0.6,352.2,-0.6,231.6,-453.3,-863.1,0,2478,268435456,142,0, 
1.3800,-176.4,-17.4,-234.3,459.0,-504.9,-332.7,-40.5,-956.7,33493.2,163.8,834.0,345.0,-1712.1,-3803.7,9804.3,16.5,-6.9,-6.3,-13.8,334.5,-0.9,213.9,-65.7,-816.0,0,2484,268435456,143,0, 
1.3833,-179.7,-16.5,-236.4,457.8,-503.4,-344.1,-44.7,-963.3,39865.8,168.9,834.0,341.4,-1711.2,-3844.8,9781.5,10.5,-7.2,-5.7,-14.7,333.9,-0.9,218.1,-123.9,-832.5,0,2490,268435456,144,0, 
1.3867,-174.0,6.3,-214.5,479.1,-481.5,-375.9,-42.3,-972.0,13856.7,194.7,857.7,366.0,-1717.5,-4026.6,9830.1,5.7,-6.9,-6.3,5.1,354.6,-0.6,236.1,-539.4,-894.0,0,2496,268435456,145,0, 
1.3900,-174.6,17.4,-203.7,489.3,-468.3,-387.6,-35.4,-972.9,-8002.8,194.1,862.2,375.6,-1703.7,-4106.4,9502.5,12.0,-6.9,-5.4,10.8,365.1,-0.6,243.0,-729.3,-913.5,0,2502,268435456,146,0, 
1.3933,-170.1,10.2,-211.2,481.5,-484.5,-363.0,-33.9,-961.2,4371.9,187.2,853.8,363.9,-1694.7,-3967.8,7905.0,14.1,-6.9,-5.7,8.7,350.4,-0.6,233.4,-435.3,-871.8,0,2508,268435456,147,0, 
1.3967,-175.5,-13.5,-236.4,459.0,-505.5,-337.8,-35.4,-959.1,33937.8,168.0,832.8,340.2,-1717.8,-3793.5,9817.5,21.6,-7.2,-5.7,-11.4,335.1,-0.6,210.3,-60.0,-817.8,0,2514,268435456,148,0, 
1.4000,-170.7,-14.1,-232.8,461.7,-502.8,-345.3,-41.1,-968.1,39791.7,171.6,838.2,347.4,-1729.8,-3815.7,9788.1,21.0,-7.2,-6.0,-8.4,339.6,-0.6,213.0,-127.8,-832.8,0,2520,268435456,149,0, 
1.4033,-171.0,5.4,-212.1,481.2,-478.8,-377.4,-43.5,-979.2,13782.6,194.7,864.9,370.5,-1719.3,-4010.1,9830.1,11.7,-6.9,-5.7,10.2,355.8,-0.6,243.6,-539.1,-887.1,0,2526,268435456,150,0, 
1.4067,-162.9,26.1,-193.8,497.7,-459.6,-383.1,-33.0,-973.2,-8447.4,210.6,873.6,383.7,-1703.7,-4085.4,9502.8,12.9,-6.9,-5.4,22.5,368.7,-0.6,264.0,-733.5,-909.0,0,2532,268435456,151,0, 
1.4100,-168.3,3.6,-215.7,483.0,-484.5,-361.2,-38.7,-966.0,3779.1,180.6,851.4,359.1,-1700.7,-3945.6,7853.4,27.3,-7.2,-6.0,5.1,355.8,-0.6,238.5,-431.7,-863.1,0,2538,268435456,152,0, 
1.4133,-165.3,-15.0,-231.6,462.3,-505.2,-338.4,-42.3,-964.2,33493.2,168.3,835.8,345.6,-1700.4,-3781.2,9814.5,32.1,-6.9,-5.4,-2.1,337.5,-1.2,216.6,-56.4,-818.1,0,2544,268435456,153,0, 
1.4167,-166.5,-14.4,-231.3,463.2,-501.9,-341.4,-44.1,-969.6,39495.3,169.5,841.5,349.2,-1731.6,-3806.4,9785.1,27.6,-6.6,-5.7,-4.5,348.9,-0.3,222.6,-117.3,-823.2,0,2550,268435456,154,0, 
1.4200,-165.0,2.7,-214.2,474.9,-485.4,-375.3,-48.3,-982.5,13263.9,193.5,857.1,365.7,-1711.5,-4001.4,9830.1,16.5,-7.2,-6.0,6.6,354.9,-0.9,240.3,-530.1,-889.8,0,2556,268435456,155,0, 
1.4233,-162.6,18.3,-198.6,489.3,-467.4,-388.2,-41.1,-979.8,-8595.6,195.6,870.6,383.1,-1701.6,-4076.4,9466.2,14.7,-7.2,-6.0,19.2,368.1,-0.6,248.7,-731.1,-911.4,0,2562,268435456,156,0, 
1.4267,-156.9,5.4,-210.0,478.2,-481.5,-363.6,-38.1,-969.6,3779.1,192.9,855.6,367.5,-1681.5,-3931.2,7773.0,25.8,-6.9,-5.7,6.0,354.6,-0.6,233.4,-431.7,-865.8,0,2568,268435456,157,0, 
1.4300,-168.3,-25.5,-235.5,454.5,-508.2,-337.2,-42.0,-969.6,33715.5,162.0,831.0,337.5,-1704.0,-3774.0,9813.0,33.3,-6.9,-6.0,-9.6,331.8,-0.6,208.5,-54.6,-814.5,0,2574,268435456,158,0, 
1.4333,-164.1,-20.7,-234.0,453.6,-510.6,-347.7,-45.6,-974.4,39421.2,170.4,830.4,335.7,-1716.6,-3810.6,9782.1,29.1,-6.6,-5.7,-8.1,331.5,-0.6,214.5,-127.2,-839.4,0,2580,268435456,159,0, 
1.4367,-164.7,3.9,-212.4,476.1,-482.4,-381.9,-39.6,-983.4,13486.2,193.8,850.8,363.9,-1719.6,-4004.4,9830.1,13.2,-7.2,-6.3,8.7,354.0,-0.6,234.6,-539.4,-890.4,0,2586,268435456,160,0, 
1.4400,-161.4,18.3,-201.6,486.9,-468.6,-390.6,-34.8,-983.1,-8447.4,202.5,860.7,378.3,-1691.7,-4076.4,9477.0,13.8,-6.9,-5.7,16.5,366.6,-0.6,251.1,-732.3,-911.4,0,2592,268435456,161,0, 
1.4433,-166.5,3.0,-213.0,478.2,-479.4,-360.0,-35.4,-972.6,4223.7,192.0,854.1,366.3,-1710.9,-3937.2,7872.3,21.6,-6.9,-6.0,9.9,359.7,-0.6,247.5,-438.3,-868.2,0,2598,268435456,162,0, 
1.4467,-167.1,-18.9,-239.7,454.5,-507.6,-337.2,-45.3,-971.1,33937.8,161.1,831.0,338.1,-1701.3,-3765.9,9830.1,33.0,-6.9,-6.0,-14.4,331.8,-0.6,210.9,-57.3,-819.6,0,2604,268435456,163,0, 
1.4500,-171.3,-19.2,-234.6,451.5,-504.9,-345.6,-49.5,-981.6,39939.9,160.2,831.0,340.8,-1726.2,-3798.0,9779.1,26.7,-6.9,-5.7,-11.1,333.6,-0.6,215.7,-110.1,-834.6,0,2610,268435456,164,0, 
1.4533,-168.6,-1.2,-216.0,472.2,-481.5,-375.0,-46.2,-992.1,13930.8,192.6,856.2,365.4,-1712.4,-3988.2,9830.1,17.4,-7.2,-6.0,7.5,357.3,-0.6,245.7,-532.5,-890.1,0,2616,268435456,165,0, 
1.4567,-164.4,21.0,-199.8,489.6,-466.2,-388.5,-41.7,-991.2,-7928.7,209.7,873.3,382.5,-1699.2,-4064.1,9558.0,13.8,-6.9,-5.7,25.5,368.1,-0.6,258.9,-723.0,-910.2,0,2622,268435456,166,0, 
1.4600,-164.4,6.6,-210.0,478.5,-483.0,-367.5,-42.6,-985.2,4668.3,196.2,859.2,365.1,-1687.8,-3916.8,8146.5,20.7,-6.9,-5.7,14.1,355.2,-0.6,248.1,-420.6,-868.8,0,2628,268435456,167,0, 
1.4633,-165.9,-11.1,-225.0,463.2,-499.5,-333.6,-49.2,-980.1,34604.7,175.5,841.8,345.6,-1701.3,-3741.0,9830.1,22.2,-6.9,-6.3,-2.4,342.3,-0.6,230.7,-35.4,-812.1,0,2634,268435456,168,0, 
1.4667,-164.1,-7.8,-224.7,463.5,-494.4,-338.4,-48.3,-977.7,40384.5,183.9,843.0,351.6,-1725.9,-3770.1,9782.7,21.3,-6.9,-5.4,-2.7,349.2,-0.6,242.4,-96.0,-821.4,0,2640,268435456,169,0, 
1.4700,-160.5,14.4,-199.5,485.7,-467.1,-365.7,-46.8,-988.8,14301.3,207.6,869.4,381.0,-1714.5,-3953.7,9830.1,10.8,-6.9,-6.0,22.8,371.4,-0.6,260.7,-507.3,-878.1,0,2646,268435456,170,0, 
1.4733,-158.4,25.5,-186.9,497.7,-453.6,-375.9,-38.4,-987.9,-7410.0,212.1,883.8,395.1,-1695.0,-4032.6,9642.9,11.4,-6.6,-5.7,34.2,385.5,-0.6,279.3,-701.1,-903.3,0,2652,268435456,171,0, 
1.4767,-158.4,14.4,-196.5,489.6,-468.9,-350.4,-39.9,-978.9,5409.3,209.1,871.5,378.6,-1682.1,-3875.1,8448.3,19.2,-6.6,-5.7,22.8,366.6,-0.3,254.4,-406.8,-860.7,0,2658,268435456,172,0, 
1.4800,-159.0,-6.0,-215.1,465.9,-492.3,-324.0,-44.1,-974.7,35419.8,191.1,850.5,355.8,-1698.6,-3708.0,9830.1,22.2,-6.9,-6.0,7.2,350.4,-0.6,231.0,-42.9,-809.1,0,2664,268435456,173,0, 
1.4833,-163.5,-7.5,-222.3,460.5,-492.3,-328.2,-48.6,-985.8,41792.4,199.5,850.8,357.3,-1700.7,-3738.3,9754.5,18.3,-6.9,-6.3,7.8,353.4,-0.3,234.6,-93.0,-823.8,0,2670,268435456,174,0, 
1.4867,-159.3,20.4,-196.2,484.2,-468.3,-361.2,-42.3,-991.2,16302.0,228.3,867.0,380.1,-1715.1,-3925.5,9830.1,8.1,-7.5,-6.0,21.9,370.5,-0.6,251.7,-505.8,-885.0,0,2676,268435456,175,0, 
1.4900,-157.5,30.6,-190.8,492.6,-462.6,-381.0,-43.2,-992.4,-4964.7,230.1,879.3,385.2,-1680.3,-3990.3,9789.6,6.0,-6.9,-6.0,24.6,367.8,-0.6,250.2,-696.3,-918.9,0,2682,268435456,176,0, 
1.4933,-159.0,6.9,-215.7,474.3,-485.1,-358.2,-48.0,-988.5,8225.1,199.5,854.4,356.7,-1666.8,-3829.2,9605.7,15.6,-7.2,-6.0,6.0,346.8,-0.6,229.2,-388.5,-874.2,0,2688,268435456,177,0, 
1.4967,-165.9,-15.6,-240.9,446.4,-516.6,-339.3,-51.9,-989.1,38532.0,183.6,827.1,329.4,-1689.0,-3657.6,9830.1,29.4,-6.9,-6.0,-18.3,319.5,-0.9,201.0,-6.3,-825.3,0,2694,268435456,178,0, 
1.5000,-163.2,-14.7,-240.3,451.8,-506.7,-344.7,-52.2,-989.4,45052.8,180.9,833.4,340.2,-1715.4,-3671.1,9814.5,25.2,-7.2,-5.4,-17.4,333.3,-0.3,213.6,-76.2,-835.2,0,2700,268435456,179,0, 
1.5033,-162.9,8.4,-211.5,475.2,-478.8,-373.2,-51.9,-997.8,19266.0,206.1,864.3,367.5,-1701.3,-3854.1,9830.1,6.9,-6.9,-6.0,9.9,353.7,-0.6,246.9,-504.6,-896.7,0,2706,268435456,180,0, 
1.5067,-160.5,24.6,-191.4,494.4,-459.6,-374.4,-39.9,-990.3,-2297.1,225.9,880.8,387.6,-1693.2,-3915.3,9821.7,9.3,-6.9,-6.0,27.0,373.8,-0.3,276.6,-685.8,-907.8,0,2712,268435456,181,0, 
1.5100,-163.2,11.7,-204.9,481.8,-470.4,-349.8,-42.3,-987.3,10522.2,191.7,865.2,371.4,-1685.7,-3753.0,9830.1,14.1,-7.2,-5.7,9.9,360.0,-0.6,252.9,-386.4,-864.6,0,2718,268435456,182,0, 
1.5133,-166.2,-15.3,-226.5,464.4,-493.2,-322.8,-45.3,-985.8,40088.1,182.4,842.1,345.6,-1695.9,-3563.1,9830.1,22.2,-6.9,-5.7,-13.2,342.3,-0.6,228.9,-11.1,-818.4,0,2724,268435456,183,0, 
1.5167,-167.4,-7.8,-223.2,464.7,-497.4,-336.6,-52.5,-990.9,45867.9,184.8,849.9,351.0,-1704.6,-3584.7,9830.1,12.3,-6.9,-6.0,-4.8,343.2,-0.6,231.0,-83.4,-833.1,0,2730,268435456,184,0, 
1.5200,-167.4,12.6,-195.9,491.1,-465.6,-358.2,-48.9,-998.7,19784.7,204.6,878.7,383.4,-1712.4,-3756.3,9830.1,3.3,-6.9,-5.7,17.4,376.5,-0.9,273.0,-507.3,-880.8,0,2736,268435456,185,0, 
1.5233,-167.7,25.8,-186.9,500.4,-454.5,-377.4,-47.1,-995.7,-2297.1,222.0,883.5,391.2,-1681.2,-3834.9,9830.1,3.0,-7.2,-5.7,28.5,375.3,-0.9,272.1,-708.3,-916.2,0,2742,268435456,186,0, 
1.5267,-166.5,11.1,-200.1,489.6,-466.2,-346.5,-42.6,-985.5,10299.9,203.7,868.2,375.0,-1687.8,-3675.9,9830.1,18.9,-6.6,-6.0,16.2,368.4,-0.6,250.8,-402.0,-855.6,0,2748,268435456,187,0, 
1.5300,-172.8,-15.9,-225.3,463.8,-495.3,-324.6,-53.1,-985.5,39865.8,168.0,837.9,342.9,-1704.6,-3503.1,9830.1,24.9,-6.9,-5.7,-11.7,343.8,-0.6,216.0,-36.6,-812.7,0,2754,268435456,188,0, 
1.5333,-171.6,-13.5,-231.3,463.5,-494.7,-337.2,-55.2,-993.9,45423.3,181.5,842.7,348.0,-1705.8,-3526.5,9830.1,24.6,-6.9,-5.4,-12.6,345.3,-0.6,231.6,-97.8,-833.7,0,2760,268435456,189,0, 
1.5367,-165.0,15.0,-193.8,493.8,-463.2,-359.7,-51.6,-995.4,18895.5,219.9,874.8,383.1,-1698.3,-3700.5,9830.1,9.0,-7.2,-5.7,21.0,373.2,-0.6,265.5,-504.9,-887.4,0,2766,268435456,190,0, 
1.5400,-166.2,29.4,-183.6,507.0,-449.4,-367.8,-43.5,-994.2,-2889.9,214.8,885.0,395.4,-1676.7,-3782.7,9830.1,1.2,-6.6,-5.7,26.4,386.7,-0.9,274.2,-705.6,-906.0,0,2772,268435456,191,0, 
1.5433,-168.9,11.1,-199.8,490.2,-464.1,-336.6,-43.2,-989.1,9855.3,210.6,864.9,378.0,-1672.5,-3637.2,9830.1,13.2,-6.9,-5.7,9.3,370.5,-0.9,257.4,-397.8,-857.7,0,2778,268435456,192,0, 
1.5467,-174.3,-15.0,-231.3,460.5,-497.4,-319.8,-50.4,-992.1,39347.1,165.3,836.1,344.7,-1702.5,-3472.2,9830.1,26.7,-6.9,-6.0,-18.0,342.0,-0.9,224.7,-33.3,-813.9,0,2784,268435456,193,0, 
1.5500,-172.2,-7.5,-223.5,462.9,-495.3,-336.0,-53.4,-992.4,44978.7,189.6,844.2,349.8,-1719.0,-3496.8,9830.1,23.4,-7.2,-5.4,-19.5,350.1,-0.9,234.3,-96.6,-837.6,0,2790,268435456,194,0, 
1.5533,-170.1,12.3,-200.1,483.0,-469.2,-363.0,-51.0,-1000.8,18599.1,205.2,870.6,380.1,-1708.5,-3684.9,9830.1,9.9,-7.2,-6.0,1.8,377.1,-0.9,261.9,-518.7,-885.6,0,2796,268435456,195,0, 
1.5567,-170.4,19.2,-198.3,492.3,-460.2,-378.9,-48.9,-1006.2,-3334.5,219.0,875.1,384.0,-1686.9,-3762.6,9830.1,13.2,-7.2,-5.7,3.6,381.6,-1.2,267.6,-724.2,-918.9,0,2802,268435456,196,0, 
1.5600,-171.3,6.9,-214.5,478.8,-477.6,-353.1,-50.4,-996.6,9484.8,200.7,856.8,367.8,-1683.6,-3614.7,9830.1,18.9,-6.6,-6.0,-10.5,364.5,-0.9,248.4,-418.8,-878.1,0,2808,268435456,197,0, 
1.5633,-173.7,-13.2,-228.9,456.9,-503.1,-329.1,-54.3,-991.5,39050.7,178.2,834.6,340.8,-1694.4,-3448.2,9830.1,29.1,-7.2,-5.7,-30.0,347.1,-0.6,223.5,-41.1,-827.7,0,2814,268435456,198,0, 
1.5667,-173.1,-10.5,-225.3,458.1,-498.9,-336.9,-58.2,-997.8,44534.1,179.1,839.4,348.9,-1702.5,-3484.8,9830.1,22.5,-6.9,-5.7,-30.3,352.8,-0.9,236.1,-99.6,-844.2,0,2820,268435456,199,0, 
1.5700,-172.8,10.5,-204.3,479.7,-470.7,-361.5,-54.6,-1006.2,18525.0,206.7,863.4,372.6,-1710.6,-3681.9,9830.1,9.0,-7.2,-5.7,-13.2,373.5,-0.3,251.1,-528.6,-900.0,0,2826,268435456,200,0, 
1.5733,-171.9,21.6,-191.7,493.5,-457.2,-375.0,-50.4,-1006.5,-3260.4,223.2,872.7,388.2,-1685.7,-3765.6,9830.1,12.6,-6.9,-5.7,-4.2,384.9,-0.9,270.9,-725.1,-923.1,0,2832,268435456,201,0, 
1.5767,-171.3,11.1,-205.5,486.3,-472.5,-348.3,-43.8,-994.5,9781.2,204.3,861.0,370.2,-1692.9,-3612.9,9830.1,20.1,-6.9,-5.7,-13.8,374.1,-0.3,252.0,-414.9,-866.1,0,2838,268435456,202,0, 
1.5800,-169.5,-7.2,-222.6,466.5,-494.4,-323.7,-48.9,-988.2,39273.0,189.3,842.4,348.6,-1693.5,-3439.8,9830.1,36.9,-6.9,-6.0,-28.5,359.1,-0.9,231.3,-36.3,-817.2,0,2844,268435456,203,0, 
1.5833,-166.2,-8.7,-226.2,461.7,-496.8,-338.4,-53.7,-997.5,44978.7,165.0,845.1,348.3,-1713.6,-3464.7,9830.1,34.2,-6.6,-5.7,-25.2,354.9,-0.3,229.2,-102.6,-836.1,0,2850,268435456,204,0, 
1.5867,-165.0,11.7,-202.2,480.0,-467.7,-366.3,-54.0,-1004.7,18525.0,216.6,866.7,372.3,-1695.0,-3654.9,9830.1,17.1,-7.2,-6.0,-3.3,376.2,-0.6,266.7,-520.2,-893.4,0,2856,268435456,205,0, 
1.5900,-161.1,33.6,-185.7,502.2,-450.3,-369.3,-46.2,-1001.1,-3186.3,219.6,888.9,392.7,-1687.5,-3731.1,9830.1,16.5,-6.9,-6.0,12.0,390.6,-0.6,279.6,-714.0,-910.2,0,2862,268435456,206,0, 
1.5933,-157.8,19.5,-201.0,486.0,-469.8,-342.0,-44.7,-993.3,9558.9,210.9,869.7,376.2,-1668.9,-3568.5,9830.1,30.3,-6.6,-5.7,-2.7,378.3,-0.3,259.8,-397.8,-862.2,0,2868,268435456,207,0, 
1.5967,-166.2,-8.4,-228.6,461.7,-492.0,-321.0,-52.8,-992.1,38976.6,187.5,845.1,345.3,-1705.8,-3411.6,9830.1,38.1,-6.9,-5.7,-23.7,351.9,-0.9,227.4,-28.5,-814.5,0,2874,268435456,208,0, 
1.6000,-163.8,-5.7,-225.6,463.2,-488.7,-322.8,-56.4,-1000.2,44237.7,186.0,846.6,348.9,-1711.2,-3450.9,9830.1,37.2,-6.9,-6.0,-24.0,356.4,-0.3,239.1,-93.3,-825.6,0,2880,0,209,0, 
1.6033,-157.5,22.5,-196.8,489.0,-462.9,-354.6,-52.2,-1006.8,17858.1,216.3,873.9,376.2,-1715.4,-3644.1,9830.1,20.7,-7.2,-5.7,-1.5,378.0,-0.6,258.6,-532.5,-888.9,0,2886,268435456,210,0, 
1.6067,-158.1,38.7,-182.1,501.6,-453.6,-369.0,-49.2,-1005.0,-3927.3,228.0,889.8,388.5,-1693.2,-3731.7,9830.1,19.5,-7.2,-6.0,14.4,385.8,-0.6,278.7,-733.5,-918.9,0,2892,268435456,211,0, 
1.6100,-164.4,16.2,-203.4,489.6,-470.1,-341.4,-47.4,-999.0,8892.0,209.1,867.0,373.2,-1697.4,-3584.7,9830.1,32.7,-6.9,-5.4,-4.2,376.8,-0.6,252.3,-411.6,-863.4,0,2898,268435456,212,0, 
1.6133,-164.4,-3.6,-228.3,460.8,-496.8,-324.0,-54.6,-995.4,38087.4,178.8,836.4,341.4,-1694.7,-3417.0,9830.1,35.4,-6.9,-6.0,-30.6,344.7,-0.6,234.0,-46.2,-817.8,0,2904,268435456,213,0, 
1.6167,-163.8,-3.6,-221.1,466.8,-486.3,-329.1,-53.4,-999.6,43274.4,188.1,850.2,352.2,-1729.2,-3458.7,9830.1,31.5,-6.9,-6.0,-21.0,361.5,-0.6,234.6,-114.9,-823.2,0,2910,268435456,214,0, 
1.6200,-162.9,17.4,-200.4,486.6,-463.8,-364.5,-51.9,-1014.9,16746.6,206.7,874.2,379.5,-1712.4,-3656.4,9830.1,27.0,-6.6,-6.0,0.3,378.0,-0.6,266.1,-536.7,-889.2,0,2916,268435456,215,0, 
1.6233,-157.2,35.7,-181.5,503.7,-447.3,-371.7,-42.0,-1007.7,-5261.1,223.5,889.8,394.8,-1699.8,-3723.6,9830.1,29.1,-7.2,-5.7,20.1,390.3,-0.9,275.1,-711.6,-905.7,0,2922,268435456,216,0, 
1.6267,-164.1,17.4,-202.8,482.7,-473.1,-352.2,-48.3,-1005.3,7632.3,214.5,861.9,368.4,-1709.1,-3586.5,9830.1,38.7,-7.2,-5.7,-7.8,365.7,-0.6,244.8,-408.6,-867.6,0,2928,268435456,217,0, 
1.6300,-165.6,-2.1,-221.4,461.1,-495.0,-332.1,-56.4,-996.0,37050.0,188.4,844.2,345.9,-1714.2,-3432.9,9830.1,42.3,-7.2,-6.0,-21.0,351.3,-0.6,244.2,-41.1,-814.8,0,2934,268435456,218,0, 
1.6333,-165.0,0.0,-218.1,461.1,-493.2,-346.8,-59.7,-1002.3,42311.1,184.5,851.4,349.8,-1722.6,-3483.3,9830.1,33.3,-7.2,-6.0,-10.2,350.7,-0.3,232.8,-128.1,-832.5,0,2940,268435456,219,0, 
1.6367,-162.3,24.9,-192.0,491.1,-461.7,-372.0,-53.7,-1007.7,15857.4,214.5,878.4,382.5,-1727.1,-3685.2,9830.1,18.6,-6.9,-6.0,7.8,381.0,-0.6,267.0,-548.1,-891.6,0,2946,268435456,220,0, 
1.6400,-160.2,42.3,-181.8,502.8,-451.5,-388.2,-51.9,-1006.8,-5853.9,229.2,887.7,391.8,-1707.0,-3768.9,9830.1,13.2,-7.2,-5.7,17.4,386.7,-0.9,272.4,-736.5,-919.2,0,2952,268435456,221,0, 
1.6433,-157.8,27.0,-195.9,493.2,-463.2,-353.7,-46.8,-996.9,7261.8,211.8,877.8,377.7,-1690.2,-3619.5,9830.1,30.9,-6.6,-5.7,7.8,374.4,-1.2,258.9,-436.8,-862.5,0,2958,268435456,222,0, 
1.6467,-162.9,1.5,-218.4,467.1,-488.1,-328.2,-50.4,-994.5,36679.5,186.3,848.4,355.8,-1695.6,-3456.9,9830.1,44.1,-6.9,-5.7,-18.6,357.9,-0.6,232.8,-55.2,-810.9,0,2964,268435456,223,0, 
1.6500,-162.9,-2.7,-217.8,463.8,-488.1,-338.4,-49.8,-1005.0,41792.4,189.6,849.0,342.3,-1722.3,-3505.5,9830.1,40.5,-6.9,-5.7,-21.9,353.1,-0.9,239.4,-133.5,-830.1,0,2970,268435456,224,0, 
1.6533,-161.7,19.5,-203.7,478.2,-471.3,-367.2,-48.6,-1013.7,15190.5,217.5,841.8,349.2,-1722.6,-3700.5,9830.1,27.0,-6.6,-5.7,-24.9,357.6,-0.9,255.0,-543.3,-885.9,0,2976,268435456,225,0, 
1.6567,-156.6,33.9,-189.0,494.4,-455.4,-372.9,-41.1,-1011.0,-6002.1,223.2,861.0,379.2,-1710.6,-3782.4,9830.1,19.8,-6.9,-6.0,-5.1,375.9,-0.6,270.0,-732.9,-903.0,0,2982,268435456,226,0, 
1.6600,-159.0,22.8,-193.2,496.2,-458.4,-347.7,-42.3,-1001.7,7039.5,212.1,888.0,397.8,-1695.0,-3640.2,9724.8,32.1,-6.9,-5.7,17.7,382.5,-0.6,263.1,-421.5,-857.4,0,2988,268435456,227,0, 
1.6633,-162.3,1.5,-207.9,477.0,-479.1,-321.9,-49.8,-998.4,36605.4,190.8,873.9,380.4,-1715.4,-3482.4,9830.1,35.4,-7.2,-5.7,6.9,368.1,-0.6,237.3,-62.1,-807.6,0,2994,268435456,228,0, 
1.6667,-160.5,1.5,-210.9,474.9,-483.6,-335.4,-52.8,-1002.6,41644.2,194.1,861.9,368.1,-1722.6,-3528.6,9830.1,31.5,-6.9,-6.0,-0.6,359.7,-0.6,240.6,-132.9,-831.0,0,3000,268435456,229,0, 
1.6700,-159.6,29.4,-183.3,497.1,-459.3,-363.3,-53.4,-1008.3,15190.5,220.2,888.3,393.3,-1710.0,-3725.7,9830.1,15.9,-7.2,-6.3,19.2,381.3,-1.2,265.2,-564.3,-884.1,0,3006,268435456,230,0, 
1.6733,-153.6,45.3,-159.6,520.5,-434.7,-366.6,-43.8,-1002.6,-6298.5,245.7,916.8,417.0,-1692.3,-3804.6,9830.1,17.7,-6.9,-6.3,46.8,401.7,-0.9,289.2,-747.3,-901.2,0,3012,268435456,231,0, 
1.6767,-157.2,29.4,-182.7,501.9,-446.7,-339.6,-35.1,-993.3,6669.0,212.7,892.2,392.1,-1681.5,-3661.2,9578.1,29.1,-7.2,-5.7,28.8,385.8,-1.2,258.9,-434.1,-848.7,0,3018,268435456,232,0, 
1.6800,-157.2,6.3,-208.5,477.9,-483.3,-320.1,-39.3,-988.5,35864.4,200.4,861.9,359.1,-1689.9,-3496.8,9830.1,41.4,-6.9,-5.7,2.4,351.0,-0.6,239.1,-39.9,-808.8,0,3024,268435456,233,0, 
1.6833,-157.5,-0.9,-212.4,473.4,-490.2,-332.1,-47.7,-999.6,40829.1,194.1,854.7,357.6,-1718.4,-3546.0,9830.1,28.8,-6.9,-6.0,-8.1,353.4,-0.9,239.4,-122.4,-823.2,0,3030,268435456,234,0, 
1.6867,-156.6,21.6,-190.2,490.2,-468.6,-370.2,-45.9,-1004.1,14449.5,222.9,875.7,379.8,-1704.3,-3747.0,9830.1,19.2,-7.2,-5.7,5.7,373.8,-0.9,271.5,-541.8,-891.9,0,3036,268435456,235,0, 
1.6900,-152.4,41.4,-172.8,506.7,-449.7,-378.0,-36.6,-999.3,-6965.4,239.7,892.2,394.2,-1691.4,-3829.8,9804.3,20.4,-6.9,-5.7,19.5,381.6,-0.9,278.4,-731.7,-903.6,0,3042,268435456,236,0, 
1.6933,-156.3,17.4,-195.6,490.8,-471.6,-356.7,-36.9,-991.2,6224.4,214.5,868.8,376.2,-1680.3,-3685.8,9286.5,30.6,-6.9,-6.0,0.0,365.4,-0.6,264.0,-429.9,-859.8,0,3048,268435456,237,0, 
1.6967,-157.2,2.1,-214.5,469.2,-492.0,-323.7,-38.4,-987.0,35642.1,187.8,849.3,351.6,-1683.9,-3527.4,9830.1,41.4,-6.9,-6.0,-16.8,349.2,-0.3,234.0,-57.9,-805.2,0,3054,268435456,238,0, 
1.7000,-157.8,2.7,-210.6,474.3,-487.2,-332.1,-39.9,-990.9,40532.7,197.1,859.8,357.6,-1728.9,-3570.9,9825.9,35.4,-6.6,-6.0,-5.1,360.6,-0.9,242.7,-132.6,-819.9,0,3060,268435456,239,0, 
1.7033,-161.1,19.2,-197.4,490.2,-465.6,-366.9,-41.1,-1000.5,14301.3,225.6,882.9,389.4,-1719.3,-3779.7,9830.1,25.8,-6.9,-6.0,11.7,375.6,-0.6,273.6,-566.1,-877.8,0,3066,268435456,240,0, 
1.7067,-154.2,38.4,-183.9,500.7,-452.7,-377.1,-38.4,-994.8,-7187.7,237.6,890.4,394.5,-1684.5,-3852.6,9767.7,22.5,-6.9,-5.7,22.2,383.7,0.0,286.8,-747.0,-898.8,0,3072,268435456,241,0, 
1.7100,-154.2,28.2,-190.8,489.0,-466.8,-348.3,-34.5,-982.5,6150.3,203.1,874.5,377.7,-1674.6,-3714.9,9116.4,34.8,-7.2,-5.7,10.5,367.8,-0.6,260.4,-430.5,-852.3,0,3078,268435456,242,0, 
1.7133,-154.5,3.3,-212.4,472.8,-486.6,-322.8,-40.8,-976.8,35568.0,198.3,859.2,360.0,-1689.9,-3549.6,9830.1,43.5,-6.6,-5.7,0.6,356.4,-0.9,234.3,-51.6,-799.5,0,3084,268435456,243,0, 
1.7167,-155.7,0.0,-211.8,472.8,-488.4,-338.4,-43.2,-982.5,40606.8,198.9,860.1,364.8,-1720.2,-3591.3,9814.2,39.9,-6.9,-5.7,-6.9,357.3,-0.9,246.6,-130.5,-813.9,0,3090,268435456,244,0, 
1.7200,-151.2,23.7,-188.1,490.5,-462.6,-368.1,-41.4,-987.9,14004.9,217.5,882.6,387.0,-1698.9,-3789.6,9830.1,25.5,-6.6,-5.7,9.0,381.3,-0.6,268.5,-550.5,-873.0,0,3096,268435456,245,0, 
1.7233,-149.7,33.9,-174.3,501.9,-448.8,-376.2,-37.8,-986.4,-7187.7,225.6,895.2,399.6,-1694.1,-3868.5,9738.6,24.6,-6.6,-6.0,24.3,390.0,-0.3,279.9,-729.6,-891.0,0,3102,268435456,246,0, 
1.7267,-153.6,19.5,-188.4,490.5,-468.3,-359.1,-36.3,-982.5,6150.3,219.0,881.1,380.4,-1685.1,-3725.1,8999.7,31.2,-6.6,-5.7,11.1,371.7,-0.9,256.8,-417.9,-846.3,0,3108,268435456,247,0, 
1.7300,-157.2,-2.4,-214.2,465.6,-496.5,-337.2,-43.5,-974.7,35716.2,195.6,855.0,351.6,-1704.9,-3559.5,9830.1,40.5,-7.2,-5.7,-11.1,347.4,-0.9,231.0,-51.9,-803.1,0,3114,268435456,248,0, 
1.7333,-158.1,-4.8,-215.7,466.2,-493.2,-342.9,-42.6,-980.1,40606.8,196.5,855.3,357.0,-1709.4,-3609.9,9803.7,35.1,-6.6,-5.7,-13.8,353.7,-0.9,238.2,-128.7,-817.5,0,3120,268435456,249,0, 
1.7367,-155.4,23.4,-184.8,492.3,-462.3,-366.6,-36.6,-982.2,14227.2,224.7,884.4,387.3,-1704.6,-3794.7,9830.1,22.8,-6.9,-6.0,16.5,380.4,-0.9,262.2,-545.7,-870.9,0,3126,268435456,250,0, 
1.7400,-155.7,30.6,-170.1,506.1,-451.2,-375.6,-35.1,-978.6,-7261.8,232.2,904.2,402.6,-1696.2,-3870.6,9737.1,24.6,-6.9,-5.4,31.8,390.3,-0.9,278.4,-714.3,-897.0,0,3132,268435456,251,0, 
1.7433,-156.9,9.9,-190.5,489.3,-471.0,-357.3,-34.8,-970.8,6298.5,213.6,876.3,379.8,-1692.3,-3731.1,9023.7,29.7,-6.6,-6.0,11.7,374.7,-0.3,250.5,-408.3,-856.2,0,3138,268435456,252,0, 
1.7467,-160.8,-14.7,-216.6,462.0,-498.9,-333.0,-39.9,-970.2,35864.4,189.6,849.3,350.1,-1689.3,-3563.1,9830.1,39.9,-6.6,-5.7,-14.4,349.2,-0.9,233.4,-48.0,-808.2,0,3144,268435456,253,0, 
1.7500,-162.9,-10.5,-211.2,466.5,-490.2,-334.8,-39.9,-971.7,40384.5,198.0,860.4,361.5,-1717.5,-3618.9,9807.9,30.3,-6.6,-6.3,-7.5,357.3,-0.6,246.6,-121.5,-819.3,0,3150,268435456,254,0, 
1.7533,-158.1,13.8,-191.1,489.3,-470.4,-374.1,-41.4,-980.1,13930.8,223.8,880.5,381.6,-1720.8,-3806.1,9830.1,21.0,-6.6,-6.0,10.5,375.3,-0.9,256.5,-539.1,-883.2,0,3156,268435456,255,0, 
1.7567,-157.2,26.1,-179.1,500.1,-457.2,-382.2,-34.2,-976.8,-7410.0,229.5,889.8,392.7,-1692.9,-3885.3,9722.7,18.0,-6.6,-6.3,16.8,388.2,-0.9,272.7,-717.3,-893.1,0,3162,268435456,0,0, 
1.7600,-158.4,12.3,-193.2,490.8,-474.0,-360.9,-34.8,-965.4,6076.2,207.0,871.5,375.6,-1682.1,-3740.1,8956.5,31.5,-7.2,-5.7,3.3,372.6,-0.6,253.8,-414.9,-853.2,0,3168,268435456,1,0, 
1.7633,-160.8,-4.8,-211.8,475.5,-491.1,-332.4,-39.9,-957.3,35642.1,196.2,859.5,360.6,-1701.9,-3584.4,9830.1,38.4,-6.9,-6.0,-5.4,357.9,-0.6,241.5,-45.9,-799.2,0,3174,268435456,2,0, 
1.7667,-156.6,3.3,-209.7,479.1,-485.7,-336.3,-42.6,-955.8,40236.3,203.7,869.7,369.0,-1734.9,-3631.8,9806.7,31.5,-6.9,-5.7,2.4,365.4,-0.9,253.5,-131.7,-812.4,0,3180,268435456,3,0, 
1.7700,-153.3,23.7,-185.4,497.1,-459.3,-363.6,-38.7,-963.6,13634.4,230.1,891.3,393.3,-1713.6,-3816.9,9830.1,18.6,-6.3,-5.7,17.1,387.6,-0.9,273.0,-553.5,-870.6,0,3186,268435456,4,0, 
1.7733,-152.7,34.2,-176.7,509.7,-453.0,-379.5,-32.7,-961.2,-7854.6,226.2,895.2,397.8,-1708.8,-3898.2,9680.1,21.3,-6.9,-6.0,21.6,391.2,-0.9,280.2,-737.1,-900.9,0,3192,268435456,5,0, 
1.7767,-153.0,24.3,-186.0,502.2,-459.9,-343.8,-18.6,-942.6,5557.5,215.1,890.1,391.8,-1699.8,-3753.3,8717.1,31.8,-7.2,-6.3,11.4,387.0,-0.9,264.0,-415.8,-835.5,0,3198,268435456,6,0, 
1.7800,-155.4,2.4,-204.6,488.7,-483.9,-324.6,-28.8,-938.4,35049.3,195.6,872.7,371.7,-1698.6,-3598.2,9830.1,32.1,-7.2,-6.0,-2.4,369.0,-0.6,246.6,-54.6,-798.0,0,3204,268435456,7,0, 
1.7833,-154.8,1.5,-204.3,489.3,-476.1,-325.8,-26.4,-943.5,39717.6,200.4,878.1,374.4,-1714.5,-3644.1,9800.4,31.5,-6.9,-6.0,-0.3,372.3,-0.6,255.6,-134.4,-803.4,0,3210,268435456,8,0, 
1.7867,-157.2,24.6,-183.6,503.4,-456.3,-362.4,-27.6,-950.4,13041.6,223.5,898.2,396.6,-1713.0,-3846.6,9830.1,20.7,-6.6,-6.6,17.7,389.4,-0.6,280.8,-563.4,-870.0,0,3216,268435456,9,0, 
1.7900,-154.2,29.7,-170.7,519.6,-441.9,-363.9,-16.2,-944.1,-8669.7,239.4,906.6,401.4,-1704.0,-3908.4,9571.8,19.8,-6.9,-6.0,20.4,400.8,-0.9,284.4,-715.2,-880.5,0,3222,268435456,10,0, 
1.7933,-158.1,12.9,-189.0,498.9,-467.1,-346.5,-18.0,-937.8,5112.9,204.9,880.8,384.6,-1688.4,-3771.0,8307.9,33.0,-6.6,-6.0,0.9,377.1,-0.9,264.9,-405.3,-843.9,0,3228,268435456,11,0, 
1.7967,-157.2,-1.5,-201.0,481.2,-486.0,-321.3,-23.1,-933.6,34456.5,185.7,866.4,371.1,-1728.6,-3606.9,9830.1,39.0,-7.2,-5.7,-11.1,365.7,-0.9,251.4,-32.7,-791.7,0,3234,268435456,12,0, 
1.8000,-161.7,-11.1,-217.5,473.4,-489.3,-335.7,-27.0,-939.9,39198.9,180.9,856.2,360.0,-1730.7,-3669.3,9776.7,42.6,-6.6,-5.7,-21.6,362.1,-0.6,230.7,-122.7,-809.1,0,3240,268435456,13,0, 
1.8033,-160.2,9.6,-208.8,489.6,-471.9,-371.4,-22.8,-948.9,12522.9,196.5,855.6,375.0,-1720.2,-3869.7,9830.1,33.3,-6.9,-6.0,-30.0,368.7,-0.6,252.6,-545.7,-876.9,0,3246,268435456,14,0, 
1.8067,-156.0,25.2,-192.3,504.6,-453.6,-375.3,-23.1,-939.3,-8447.4,209.1,858.6,382.2,-1702.5,-3950.1,9501.0,21.3,-7.2,-5.4,-31.2,378.3,-0.9,272.4,-735.9,-895.2,0,3252,268435456,15,0, 
1.8100,-154.5,12.6,-192.3,499.2,-467.7,-351.6,-22.5,-932.7,4964.7,209.1,867.0,372.9,-1686.0,-3793.2,8122.8,29.1,-6.9,-6.0,-2.1,368.4,0.0,249.9,-428.7,-847.2,0,3258,268435456,16,0, 
1.8133,-152.7,2.7,-194.7,491.1,-481.5,-326.4,-27.9,-922.8,34456.5,196.2,887.4,371.7,-1696.8,-3629.4,9830.1,35.7,-6.9,-5.4,25.2,363.6,-0.6,246.0,-60.3,-801.3,0,3264,268435456,17,0, 
1.8167,-161.4,6.3,-197.4,484.5,-481.5,-340.2,-32.7,-932.1,39198.9,210.0,883.5,370.5,-1719.6,-3691.8,9769.2,29.4,-6.9,-6.3,17.4,358.8,-0.3,244.2,-155.1,-814.5,0,3270,268435456,18,0, 
1.8200,-155.4,28.5,-176.7,504.9,-460.5,-372.3,-26.7,-935.1,12226.5,228.6,900.0,394.5,-1718.1,-3879.3,9830.1,26.1,-7.2,-6.3,30.9,382.5,-0.6,276.0,-573.6,-872.1,0,3276,268435456,19,0, 
1.8233,-153.6,39.6,-167.7,513.6,-448.5,-381.0,-22.5,-930.9,-8743.8,241.2,895.2,396.9,-1692.9,-3949.5,9444.6,21.6,-6.6,-5.7,35.1,392.4,-0.9,287.4,-747.0,-892.2,0,3282,268435456,20,0, 
1.8267,-154.5,24.9,-183.6,497.1,-467.7,-358.2,-20.7,-921.6,4816.5,219.3,876.0,375.9,-1676.7,-3802.8,7948.2,33.3,-6.9,-6.0,14.1,371.7,-0.6,259.8,-429.9,-844.2,0,3288,268435456,21,0, 
1.8300,-161.4,-3.6,-213.0,477.9,-496.2,-332.4,-25.2,-920.4,34086.0,188.4,852.6,348.6,-1701.6,-3645.3,9830.1,43.8,-6.6,-5.7,-4.8,352.2,-0.9,237.6,-59.7,-794.1,0,3294,268435456,22,0, 
1.8333,-164.1,-6.9,-215.4,472.8,-499.5,-349.8,-33.0,-928.8,38606.1,202.5,848.7,349.2,-1723.5,-3697.5,9761.4,38.4,-7.2,-5.7,-8.4,348.9,-0.6,238.2,-143.7,-813.3,0,3300,268435456,23,0, 
1.8367,-160.8,19.2,-193.8,496.5,-472.2,-376.5,-29.1,-932.7,11856.0,216.3,870.9,373.5,-1714.8,-3891.9,9830.1,24.9,-6.3,-6.0,11.4,371.4,-1.2,273.9,-564.0,-866.4,0,3306,268435456,24,0, 
1.8400,-159.3,31.8,-180.0,506.4,-460.5,-387.0,-23.7,-932.1,-9262.5,238.5,882.3,381.3,-1695.6,-3970.5,9367.8,24.6,-7.2,-5.7,22.8,376.8,-0.9,285.6,-735.3,-887.4,0,3312,268435456,25,0, 
1.8433,-158.1,23.7,-185.1,496.8,-474.6,-356.4,-20.1,-916.8,4668.3,230.7,869.4,366.0,-1685.4,-3822.9,7753.5,36.9,-6.6,-6.0,20.1,366.6,-0.9,271.5,-426.9,-843.0,0,3318,268435456,26,0, 
1.8467,-163.5,-5.7,-208.5,474.6,-496.5,-328.2,-25.8,-914.4,33937.8,205.2,844.5,339.9,-1714.8,-3664.2,9830.1,46.5,-7.2,-5.1,-1.8,349.5,-0.9,248.4,-66.9,-790.5,0,3324,268435456,27,0, 
1.8500,-159.9,3.9,-206.7,476.7,-496.8,-338.7,-27.3,-914.7,38457.9,211.5,843.9,335.7,-1694.4,-3708.0,9753.6,43.2,-6.3,-5.7,-2.7,349.5,-0.9,251.7,-140.4,-807.9,0,3330,268435456,28,0, 
1.8533,-157.8,21.0,-187.5,494.4,-475.5,-366.9,-26.4,-923.7,11633.7,227.7,857.4,358.8,-1692.0,-3895.5,9830.1,35.4,-6.9,-5.7,7.2,367.5,-0.9,270.6,-546.6,-867.3,0,3336,268435456,29,0, 
1.8567,-155.4,37.5,-169.2,510.3,-458.4,-375.9,-22.2,-919.5,-9410.7,243.9,881.1,374.4,-1674.0,-3979.8,9311.4,33.6,-6.9,-6.0,25.5,378.0,-0.9,292.8,-720.0,-881.1,0,3342,268435456,30,0, 
1.8600,-161.1,11.7,-195.0,489.0,-483.3,-356.1,-23.1,-914.4,4594.2,218.1,846.6,346.2,-1680.6,-3833.4,7608.6,46.2,-7.2,-6.0,-5.7,350.7,-0.6,266.1,-410.1,-839.7,0,3348,268435456,31,0, 
1.8633,-160.2,-5.7,-220.2,463.8,-502.2,-335.4,-27.0,-910.2,34086.0,188.1,821.1,312.6,-1687.8,-3678.3,9830.1,49.8,-6.6,-6.0,-29.1,329.1,-0.9,237.9,-46.5,-797.4,0,3354,268435456,32,0, 
1.8667,-159.0,-9.6,-218.4,471.3,-493.2,-339.9,-30.9,-913.8,38235.6,206.4,832.8,329.7,-1717.5,-3730.8,9752.7,45.6,-6.9,-6.0,-18.3,342.9,-0.6,260.1,-145.8,-810.9,0,3360,268435456,33,0, 
1.8700,-158.7,17.1,-195.9,490.8,-480.6,-377.4,-31.2,-921.6,11485.5,224.1,856.2,357.9,-1699.8,-3929.4,9830.1,34.5,-6.9,-5.7,4.8,357.6,-0.9,267.6,-564.6,-869.1,0,3366,268435456,34,0, 
1.8733,-154.5,27.6,-180.3,503.7,-466.2,-384.0,-23.1,-916.2,-9633.0,243.3,866.1,370.5,-1682.4,-3995.7,9238.8,33.9,-6.6,-5.7,16.8,366.9,-0.6,290.4,-745.2,-886.2,0,3372,268435456,35,0, 
1.8767,-157.2,12.6,-201.3,491.1,-482.4,-358.5,-23.1,-908.7,4149.6,219.6,848.4,349.5,-1679.7,-3847.5,7383.0,39.6,-6.6,-6.0,-0.6,353.7,-0.6,258.0,-423.0,-837.3,0,3378,268435456,36,0, 
1.8800,-160.5,-5.7,-216.9,468.6,-504.9,-340.8,-28.2,-904.8,33789.6,196.5,824.4,323.1,-1701.3,-3704.7,9830.1,53.7,-6.6,-6.0,-23.1,333.3,-0.6,234.9,-65.4,-793.5,0,3384,268435456,37,0, 
1.8833,-157.2,1.2,-200.7,474.0,-493.8,-348.6,-27.9,-906.3,38013.3,208.8,834.6,337.2,-1716.6,-3751.8,9744.6,42.9,-7.2,-6.0,-18.6,342.9,-0.3,250.5,-155.4,-810.9,0,3390,268435456,38,0, 
1.8867,-154.2,21.0,-180.6,494.1,-470.4,-379.8,-21.6,-913.8,11189.1,225.0,849.9,358.8,-1702.5,-3943.5,9830.1,34.5,-7.5,-6.0,-4.2,361.5,-0.9,272.4,-573.3,-870.3,0,3396,268435456,39,0, 
1.8900,-155.1,31.8,-171.0,506.4,-458.4,-387.0,-16.8,-910.5,-9855.3,243.9,867.6,362.1,-1673.7,-4019.4,9152.1,31.8,-7.2,-6.0,5.7,368.4,-0.6,278.1,-741.6,-889.5,0,3402,268435456,40,0, 
1.8933,-157.2,19.2,-188.4,494.1,-474.3,-356.7,-16.8,-904.8,4075.5,221.4,845.4,355.8,-1671.3,-3875.7,7204.2,40.8,-6.9,-6.3,-8.1,354.0,-0.3,257.7,-428.4,-826.8,0,3408,268435456,41,0, 
1.8967,-160.2,-0.9,-217.2,469.8,-502.5,-344.1,-20.4,-901.2,33345.0,193.2,823.5,330.3,-1686.0,-3713.1,9822.9,49.5,-6.9,-5.7,-27.6,328.5,-0.3,242.4,-63.6,-791.4,0,3414,268435456,42,0, 
1.9000,-165.3,-1.2,-213.0,470.4,-495.3,-349.8,-22.2,-906.6,37716.9,202.2,835.2,330.9,-1709.4,-3759.9,9738.6,45.0,-7.2,-6.0,-21.9,338.7,-0.9,252.0,-139.2,-801.3,0,3420,268435456,43,0, 
1.9033,-159.0,27.9,-192.0,492.0,-471.6,-385.5,-22.5,-915.9,10818.6,221.7,856.2,355.5,-1689.9,-3953.7,9830.1,31.8,-6.9,-5.7,1.2,357.3,-0.3,269.7,-570.3,-868.2,0,3426,268435456,44,0, 
1.9067,-156.0,41.4,-182.4,501.9,-462.9,-392.7,-19.2,-915.3,-10225.8,237.3,861.9,366.9,-1678.5,-4019.1,9050.7,31.5,-7.2,-6.0,8.1,365.1,-0.9,277.8,-729.9,-881.7,0,3432,268435456,45,0, 
1.9100,-158.7,30.0,-195.0,488.4,-477.6,-364.2,-16.5,-906.9,3853.2,219.3,840.6,348.0,-1670.1,-3875.7,6977.1,41.4,-7.2,-6.0,-9.0,348.6,-0.6,261.0,-404.1,-840.3,0,3438,268435456,46,0, 
1.9133,-159.6,7.8,-216.0,468.9,-499.2,-346.2,-22.8,-903.3,33567.3,194.1,826.2,324.0,-1683.9,-3725.4,9793.8,42.3,-6.9,-5.7,-24.0,331.2,-0.9,241.8,-57.3,-793.2,0,3444,268435456,47,0, 
1.9167,-160.2,12.3,-216.0,468.0,-499.5,-357.9,-24.6,-906.0,37716.9,199.2,826.2,323.1,-1697.4,-3767.1,9738.0,36.6,-6.9,-6.0,-30.3,333.0,-0.9,241.8,-147.9,-810.0,0,3450,268435456,48,0, 
1.9200,-156.3,31.5,-191.4,488.7,-472.8,-390.3,-23.4,-913.2,10818.6,237.3,852.3,349.2,-1698.3,-3964.8,9830.1,27.9,-7.2,-5.7,-6.9,351.3,-0.3,273.6,-561.6,-873.9,0,3456,268435456,49,0, 
1.9233,-156.3,42.3,-180.6,501.6,-457.2,-389.4,-14.1,-911.7,-9781.2,243.6,860.4,363.6,-1680.0,-4049.4,9047.1,27.0,-6.9,-5.7,3.0,370.2,-0.6,288.3,-729.9,-886.8,0,3462,268435456,50,0, 
1.9267,-161.1,18.0,-201.3,481.8,-485.4,-374.4,-18.0,-908.4,3927.3,216.0,844.2,340.2,-1680.9,-3900.3,7011.0,40.2,-7.2,-5.4,-17.1,340.8,-0.9,260.1,-418.8,-854.7,0,3468,268435456,51,0, 
1.9300,-167.7,-8.4,-230.7,454.8,-513.9,-349.8,-21.9,-909.6,33567.3,180.9,810.6,311.1,-1695.3,-3751.2,9801.0,50.4,-6.6,-5.7,-43.8,319.8,-0.6,228.6,-51.0,-800.4,0,3474,268435456,52,0, 
1.9333,-168.0,-6.0,-228.0,454.2,-513.0,-360.6,-25.8,-916.5,37716.9,184.8,815.4,312.6,-1721.7,-3796.5,9735.0,48.6,-7.2,-6.0,-41.7,321.0,-0.6,228.0,-140.7,-821.4,0,3480,268435456,53,0, 
1.9367,-160.5,21.6,-194.1,488.7,-476.1,-381.0,-18.6,-916.8,10596.3,222.9,851.1,351.0,-1700.7,-3990.3,9830.1,35.4,-6.9,-6.0,-6.0,355.5,-0.9,270.9,-571.8,-869.4,0,3486,268435456,54,0, 
1.9400,-157.5,34.8,-182.1,498.9,-465.6,-393.0,-14.1,-914.7,-10374.0,239.1,859.2,362.1,-1679.7,-4054.8,8978.1,40.5,-6.9,-6.0,-3.9,362.1,-0.6,278.4,-732.3,-894.0,0,3492,268435456,55,0, 
1.9433,-162.0,19.2,-203.1,481.8,-486.0,-372.9,-15.3,-909.6,3927.3,202.2,831.9,333.3,-1671.9,-3914.4,6847.5,48.3,-6.6,-5.7,-28.2,345.6,-0.6,255.3,-417.9,-848.1,0,3498,268435456,56,0, 
1.9467,-164.4,-4.8,-222.3,463.5,-505.2,-343.2,-23.4,-905.4,33345.0,187.2,815.7,315.0,-1684.8,-3752.7,9776.7,51.9,-7.2,-6.0,-42.3,323.4,-0.9,240.9,-53.7,-801.6,0,3504,268435456,57,0, 
1.9500,-167.1,-3.3,-221.1,469.5,-499.5,-353.7,-28.2,-914.1,37420.5,198.0,821.4,323.7,-1707.0,-3808.5,9735.0,41.7,-6.9,-5.7,-39.3,333.9,-0.6,242.1,-155.7,-814.2,0,3510,268435456,58,0, 
1.9533,-165.3,15.9,-205.5,483.9,-481.2,-392.4,-24.3,-924.3,10596.3,221.4,834.3,339.3,-1714.2,-4000.2,9830.1,39.6,-6.9,-5.7,-31.5,354.3,-0.9,260.7,-571.5,-888.6,0,3516,268435456,59,0, 
1.9567,-161.1,30.6,-189.0,494.4,-471.6,-401.4,-22.8,-921.9,-10299.9,227.4,847.8,351.0,-1671.0,-4068.0,8954.7,32.7,-6.9,-6.0,-13.8,359.7,-0.6,265.8,-747.9,-904.2,0,3522,268435456,60,0, 
1.9600,-160.5,15.6,-205.5,480.9,-485.1,-370.5,-21.3,-910.5,3853.2,207.9,829.8,331.2,-1679.7,-3918.0,6824.1,45.0,-7.2,-5.7,-30.9,343.2,-0.6,249.0,-420.6,-850.5,0,3528,268435456,61,0, 
1.9633,-165.3,-5.7,-225.0,461.7,-508.5,-347.7,-26.1,-909.9,33345.0,186.9,808.8,310.8,-1696.8,-3763.8,9783.6,57.6,-6.9,-5.7,-43.2,327.3,-0.9,228.3,-53.4,-804.0,0,3534,268435456,62,0, 
1.9667,-166.5,-5.7,-225.6,458.1,-509.1,-361.5,-34.8,-914.4,37420.5,188.7,809.1,313.2,-1706.4,-3820.8,9732.3,47.1,-6.6,-6.0,-44.4,330.3,-0.6,233.4,-157.2,-826.2,0,3540,268435456,63,0, 
1.9700,-168.0,5.7,-211.8,471.6,-490.8,-405.0,-36.0,-929.7,10374.0,215.1,828.0,333.6,-1687.2,-4012.2,9830.1,38.1,-6.9,-5.7,-29.4,340.2,-0.6,256.8,-586.8,-898.8,0,3546,268435456,64,0, 
1.9733,-163.8,24.6,-194.7,485.1,-475.8,-404.1,-27.0,-925.2,-10225.8,216.3,844.8,346.8,-1676.1,-4077.9,8930.4,37.8,-7.2,-5.7,-11.4,351.3,-0.6,271.5,-744.9,-909.9,0,3552,268435456,65,0, 
1.9767,-168.0,7.8,-212.4,473.7,-497.4,-383.7,-26.7,-918.9,3927.3,213.0,826.2,326.1,-1673.4,-3930.0,6772.5,47.4,-6.3,-6.0,-24.0,338.7,-0.3,251.1,-429.0,-864.0,0,3558,268435456,66,0, 
1.9800,-168.9,-15.3,-239.1,448.5,-524.1,-360.6,-33.6,-918.9,33270.9,177.6,799.2,296.1,-1698.6,-3770.1,9781.8,59.1,-6.9,-5.7,-44.4,311.7,-0.9,224.7,-65.4,-818.1,0,3564,268435456,67,0, 
1.9833,-170.1,-15.0,-235.5,451.5,-522.0,-375.3,-34.2,-924.6,37124.1,191.7,805.8,305.4,-1710.0,-3820.5,9727.5,50.1,-6.6,-6.3,-43.5,317.4,-0.6,232.2,-161.4,-834.6,0,3570,268435456,68,0, 
1.9867,-169.5,13.8,-210.9,473.4,-490.5,-396.6,-29.7,-930.3,10151.7,217.8,834.0,333.6,-1707.6,-4018.5,9830.1,46.5,-6.6,-6.0,-17.1,339.3,0.0,257.7,-576.0,-886.8,0,3576,268435456,69,0, 
1.9900,-167.4,26.7,-198.3,484.2,-473.7,-407.4,-25.5,-928.5,-10448.1,225.0,840.9,341.4,-1697.1,-4090.8,8856.3,43.8,-6.9,-6.0,-6.6,350.4,-0.9,267.9,-748.5,-906.3,0,3582,268435456,70,0, 
1.9933,-170.4,5.4,-219.6,469.5,-502.2,-377.1,-20.7,-925.5,3482.7,193.2,811.2,320.7,-1695.6,-3931.2,6606.6,56.7,-6.9,-6.0,-30.3,330.6,-1.2,238.5,-411.6,-851.7,0,3588,268435456,71,0, 
1.9967,-175.2,-15.6,-234.0,451.2,-526.8,-355.2,-27.0,-918.0,33122.7,187.2,800.1,302.1,-1715.4,-3784.2,9742.2,61.5,-6.6,-5.7,-45.6,315.6,-0.6,214.8,-45.0,-807.3,0,3594,268435456,72,0, 
2.0000,-172.8,-18.3,-233.4,448.5,-524.1,-369.9,-34.5,-931.8,37198.2,178.8,805.2,304.8,-1724.1,-3834.0,9729.9,51.3,-6.9,-5.7,-38.4,315.9,-0.9,228.6,-146.4,-832.2,0,3600,268435456,73,0, 
2.0033,-168.6,17.1,-203.4,477.9,-490.5,-390.9,-28.5,-930.0,10225.8,213.0,838.2,338.4,-1722.9,-4026.9,9830.1,42.3,-6.6,-6.0,-11.7,345.6,-0.3,256.8,-563.7,-879.6,0,3606,268435456,74,0, 
2.0067,-170.7,24.9,-198.0,487.8,-480.6,-402.3,-24.6,-931.5,-10596.3,220.5,840.9,347.4,-1703.4,-4101.6,8818.5,39.6,-6.6,-6.0,-12.9,352.2,-0.6,271.5,-736.8,-902.7,0,3612,268435456,75,0, 
2.0100,-167.7,13.8,-213.0,475.5,-499.8,-378.9,-23.7,-923.4,3779.1,208.5,825.9,326.4,-1698.0,-3943.2,6606.9,52.8,-7.2,-5.4,-26.7,332.1,-1.2,236.1,-414.9,-858.3,0,3618,268435456,76,0, 
2.0133,-173.4,-12.6,-235.2,453.9,-522.6,-356.7,-24.6,-923.4,33345.0,183.9,804.3,302.4,-1708.2,-3792.0,9758.1,57.6,-6.9,-5.7,-49.5,311.4,-0.6,222.6,-60.6,-816.6,0,3624,268435456,77,0, 
2.0167,-176.7,-16.8,-232.5,450.3,-521.1,-374.7,-26.4,-928.2,37050.0,174.9,798.3,288.6,-1738.8,-3844.2,9726.3,56.7,-6.9,-5.7,-63.3,312.9,-0.9,221.7,-156.9,-837.3,0,3630,268435456,78,0, 
2.0200,-172.2,3.3,-213.0,468.9,-498.3,-396.6,-23.4,-937.8,10151.7,202.2,813.3,324.6,-1716.0,-4035.6,9830.1,42.0,-6.6,-6.3,-58.2,331.8,-0.9,252.6,-584.7,-886.5,0,3636,268435456,79,0, 
2.0233,-169.8,14.1,-211.8,475.2,-493.2,-411.3,-18.6,-936.9,-10522.2,206.4,801.0,319.8,-1707.0,-4106.7,8807.1,45.9,-6.9,-5.7,-72.6,332.4,-0.9,250.2,-739.2,-909.6,0,3642,268435456,80,0, 
2.0267,-174.0,5.1,-217.8,467.1,-503.7,-382.2,-20.4,-926.7,3927.3,201.9,806.1,312.9,-1696.5,-3967.8,6584.4,54.3,-7.2,-6.3,-59.1,324.0,-0.9,256.8,-416.4,-864.9,0,3648,268435456,81,0, 
2.0300,-171.6,-6.3,-219.6,465.0,-513.0,-352.2,-24.3,-919.2,33345.0,195.3,834.3,318.6,-1702.2,-3793.2,9752.1,61.5,-6.9,-6.0,-24.0,329.1,-1.2,228.9,-54.9,-808.2,0,3654,268435456,82,0, 
2.0333,-173.4,-9.6,-219.0,467.1,-506.1,-358.8,-23.7,-928.2,37272.3,197.7,843.3,329.4,-1715.1,-3849.6,9727.5,59.7,-7.2,-6.0,-21.3,341.1,-0.9,248.4,-147.0,-817.8,0,3660,268435456,83,0, 
2.0367,-168.9,18.0,-196.5,490.8,-480.6,-388.8,-20.4,-930.6,10151.7,223.8,855.3,351.6,-1703.7,-4045.5,9830.1,49.2,-6.9,-6.0,-14.4,364.8,-0.9,272.4,-588.0,-874.8,0,3666,268435456,84,0, 
2.0400,-166.8,28.5,-192.9,493.8,-477.3,-403.2,-16.2,-933.6,-10448.1,227.1,846.0,345.3,-1678.8,-4118.1,8817.9,53.1,-7.2,-5.7,-24.0,356.4,-1.2,279.3,-745.8,-901.8,0,3672,268435456,85,0, 
2.0433,-171.0,6.0,-209.1,475.5,-498.6,-381.6,-19.2,-927.6,4075.5,209.4,822.6,320.1,-1686.3,-3970.8,6614.7,57.0,-6.9,-5.7,-44.4,331.8,-0.6,247.5,-421.5,-855.0,0,3678,268435456,86,0, 
2.0467,-175.2,-14.4,-231.6,452.7,-525.3,-364.2,-30.3,-928.5,33345.0,186.0,797.1,295.8,-1691.4,-3811.8,9773.4,64.5,-7.2,-5.7,-61.2,309.0,-0.6,238.5,-71.1,-818.7,0,3684,268435456,87,0, 
2.0500,-172.5,-10.5,-230.7,454.8,-524.1,-374.4,-34.5,-933.3,37050.0,195.9,798.3,291.0,-1724.4,-3864.9,9720.9,61.2,-6.6,-5.7,-55.5,311.4,-0.9,240.3,-164.1,-832.2,0,3690,268435456,88,0, 
2.0533,-169.8,13.5,-206.7,479.4,-495.9,-398.1,-25.8,-936.0,9855.3,225.3,827.7,330.0,-1704.0,-4054.5,9830.1,55.5,-7.5,-5.7,-30.0,344.4,-0.3,271.8,-582.6,-883.8,0,3696,268435456,89,0, 
2.0567,-166.5,30.3,-189.0,494.7,-474.9,-402.9,-14.1,-934.2,-10596.3,238.2,840.3,348.3,-1683.0,-4121.7,8789.4,56.4,-6.9,-6.0,-13.5,358.5,-0.9,275.1,-737.4,-900.0,0,3702,268435456,90,0, 
2.0600,-165.0,15.0,-207.3,480.3,-489.9,-375.3,-14.7,-924.9,4001.4,210.0,822.3,324.3,-1678.2,-3963.6,6574.5,66.3,-6.9,-5.7,-38.1,344.1,-0.6,262.2,-417.3,-852.9,0,3708,268435456,91,0, 
2.0633,-175.2,-12.6,-233.4,458.4,-515.7,-351.3,-24.0,-922.2,33345.0,189.9,804.3,298.8,-1696.2,-3820.8,9761.1,72.3,-6.9,-6.0,-52.8,321.9,-0.6,234.0,-52.2,-804.3,0,3714,268435456,92,0, 
2.0667,-174.9,-11.4,-227.1,461.1,-517.5,-355.2,-24.0,-931.5,36827.7,196.5,814.2,309.6,-1733.1,-3857.7,9720.9,71.7,-6.9,-5.7,-49.8,331.2,-0.6,245.7,-131.4,-819.0,0,3720,268435456,93,0, 
2.0700,-171.9,11.4,-204.0,482.1,-493.8,-385.2,-23.7,-939.0,9707.1,225.0,838.2,335.7,-1705.5,-4062.9,9830.1,57.9,-6.9,-6.0,-29.1,343.8,-0.6,264.9,-566.4,-881.4,0,3726,268435456,94,0, 
2.0733,-172.8,21.6,-196.2,486.6,-480.9,-397.5,-20.7,-936.9,-10818.6,225.3,843.6,338.4,-1694.4,-4132.2,8742.3,59.1,-6.6,-5.7,-24.9,348.9,-0.6,279.0,-745.2,-903.9,0,3732,268435456,95,0, 
2.0767,-176.4,1.8,-216.0,469.2,-498.6,-371.4,-24.0,-933.0,3630.9,209.7,818.1,313.8,-1696.8,-3981.3,6433.2,66.9,-7.2,-6.0,-43.5,332.7,-0.6,246.6,-422.7,-850.2,0,3738,268435456,96,0, 
2.0800,-179.4,-20.7,-234.3,449.7,-524.7,-349.2,-28.5,-929.4,32752.2,182.7,797.1,294.3,-1696.8,-3820.5,9738.6,73.8,-6.9,-5.7,-63.6,313.5,-0.6,225.9,-66.6,-807.6,0,3744,268435456,97,0, 
2.0833,-176.7,-11.7,-221.7,456.9,-510.9,-359.1,-30.6,-936.0,36160.8,198.0,808.8,303.0,-1710.3,-3879.6,9708.0,69.3,-7.2,-6.3,-53.7,321.0,-0.6,238.5,-160.5,-828.9,0,3750,268435456,98,0, 
2.0867,-174.6,3.0,-208.8,473.7,-485.7,-389.4,-35.7,-946.5,8595.6,216.6,824.7,327.0,-1711.2,-4070.1,9830.1,60.0,-6.9,-5.7,-34.5,342.0,-0.9,268.5,-582.6,-888.6,0,3756,268435456,99,0, 
2.0900,-171.3,22.2,-194.1,489.6,-473.1,-391.8,-24.6,-943.5,-11781.9,232.8,839.1,340.2,-1696.2,-4141.2,8431.2,61.2,-6.9,-6.3,-15.3,351.3,-0.6,277.8,-742.5,-903.0,0,3762,268435456,100,0, 
2.0933,-174.9,-0.9,-209.7,473.7,-500.1,-368.4,-23.7,-939.3,2889.9,200.4,825.0,325.5,-1690.8,-3994.5,5853.9,69.6,-6.9,-5.7,-31.2,336.6,-0.9,251.1,-428.1,-851.4,0,3768,268435456,101,0, 
2.0967,-175.8,-14.7,-229.8,455.7,-522.3,-351.0,-27.6,-935.4,32307.6,197.7,807.6,301.8,-1704.3,-3837.3,9615.9,78.3,-6.6,-6.0,-44.4,315.3,-1.2,236.4,-77.7,-806.7,0,3774,268435456,102,0, 
2.1000,-174.3,-10.2,-228.3,456.3,-517.2,-364.2,-31.8,-938.7,35568.0,207.6,805.8,302.1,-1720.5,-3894.9,9713.4,68.1,-7.2,-5.7,-40.8,320.4,-0.3,237.6,-171.3,-825.6,0,3780,268435456,103,0, 
2.1033,-172.8,6.6,-204.6,475.8,-490.2,-398.1,-23.4,-948.0,8225.1,220.2,833.1,330.6,-1725.6,-4083.3,9830.1,69.3,-6.6,-5.7,-13.8,342.6,-0.9,271.5,-589.2,-886.5,0,3786,268435456,104,0, 
2.1067,-170.1,19.8,-194.4,488.7,-480.3,-399.6,-17.4,-946.8,-12152.4,240.0,844.2,344.1,-1688.7,-4157.4,8213.7,61.8,-6.9,-5.7,-5.4,349.5,-0.3,270.0,-749.4,-897.6,0,3792,268435456,105,0, 
2.1100,-174.9,-0.6,-215.7,467.4,-504.3,-381.3,-22.2,-942.3,2445.3,201.9,815.4,315.0,-1698.0,-4005.9,5537.4,75.0,-6.9,-6.0,-28.5,327.0,-1.2,255.0,-425.4,-857.4,0,3798,268435456,106,0, 
2.1133,-174.0,-26.4,-241.5,444.6,-531.0,-358.5,-29.7,-942.3,31937.1,174.6,788.7,288.6,-1691.1,-3842.4,9530.4,81.6,-6.9,-6.0,-51.3,304.5,-0.6,219.9,-47.1,-809.4,0,3804,268435456,107,0, 
2.1167,-174.6,-19.5,-233.4,446.7,-521.4,-366.3,-32.1,-945.9,35642.1,185.4,798.9,300.0,-1716.9,-3902.1,9725.4,76.8,-6.9,-6.0,-45.9,314.7,-0.6,230.4,-142.8,-827.7,0,3810,268435456,108,0, 
2.1200,-171.6,2.1,-207.3,470.7,-493.8,-398.4,-27.9,-951.0,8076.9,228.0,827.7,328.2,-1716.9,-4104.3,9830.1,67.2,-6.9,-6.0,-18.6,338.1,-0.6,267.6,-563.1,-882.6,0,3816,268435456,109,0, 
2.1233,-171.0,16.5,-188.4,488.1,-477.9,-400.5,-23.7,-948.0,-11856.0,234.6,841.2,345.6,-1692.6,-4177.5,8162.4,56.1,-6.9,-5.7,-6.6,353.1,-0.9,287.7,-736.2,-897.9,0,3822,268435456,110,0, 
2.1267,-172.2,-4.8,-210.9,472.5,-498.9,-373.8,-23.1,-941.4,2889.9,212.7,819.6,321.3,-1674.9,-4025.1,5555.4,73.8,-6.9,-5.7,-28.2,336.3,-1.2,261.6,-404.7,-852.9,0,3828,268435456,111,0, 
2.1300,-174.6,-27.0,-234.6,447.3,-527.4,-359.1,-27.9,-938.4,32381.7,181.2,791.7,292.5,-1704.6,-3863.4,9541.2,78.9,-6.6,-5.7,-52.2,314.1,-1.2,224.7,-37.5,-809.7,0,3834,268435456,112,0, 
2.1333,-170.1,-17.1,-228.3,455.7,-513.0,-357.3,-28.2,-940.2,36086.7,210.3,809.4,312.3,-1718.4,-3921.9,9730.5,67.2,-7.2,-5.7,-36.3,334.2,-0.6,242.1,-138.0,-816.0,0,3840,268435456,113,0, 
2.1367,-168.3,5.4,-201.9,480.3,-483.9,-387.0,-27.0,-945.6,8521.5,228.9,838.2,339.0,-1717.2,-4120.8,9830.1,54.3,-6.9,-6.0,-13.5,362.1,-0.6,281.7,-577.5,-875.4,0,3846,268435456,114,0, 
2.1400,-170.4,12.3,-192.9,489.3,-477.6,-396.9,-20.7,-948.0,-11707.8,232.2,839.7,343.8,-1703.4,-4185.6,8246.4,57.3,-7.2,-6.0,-9.6,357.3,-0.3,285.9,-729.0,-897.6,0,3852,268435456,115,0, 
2.1433,-167.7,-0.6,-212.7,471.6,-497.4,-363.3,-14.4,-937.2,2889.9,219.0,816.9,322.8,-1692.0,-4019.1,5645.4,72.0,-6.9,-6.3,-27.9,345.0,-0.3,259.5,-380.4,-839.1,0,3858,268435456,116,0, 
2.1467,-171.9,-23.1,-229.2,454.5,-514.5,-340.8,-20.1,-934.5,32678.1,194.1,805.8,307.5,-1699.8,-3858.3,9568.8,83.4,-6.6,-5.7,-43.2,332.7,-0.3,243.6,-15.6,-788.1,0,3864,268435456,117,0, 
2.1500,-174.3,-20.4,-226.2,455.1,-512.4,-358.8,-26.4,-942.6,35938.5,201.6,809.1,308.1,-1704.0,-3918.6,9726.6,71.4,-7.5,-5.7,-40.2,334.5,-0.6,243.3,-141.0,-814.5,0,3870,268435456,118,0, 
2.1533,-164.7,3.3,-209.4,471.9,-491.1,-394.8,-23.4,-950.4,8595.6,222.0,824.1,325.8,-1729.8,-4109.1,9830.1,65.7,-6.6,-5.4,-28.5,342.3,-0.6,266.7,-568.8,-879.9,0,3876,268435456,119,0, 
2.1567,-164.1,20.1,-191.4,484.2,-478.5,-400.5,-18.9,-950.7,-11633.7,232.5,840.6,342.6,-1688.1,-4174.8,8284.5,58.8,-6.9,-5.7,-16.2,358.2,-0.6,278.7,-730.2,-901.2,0,3882,268435456,120,0, 
2.1600,-169.2,-2.4,-212.1,463.8,-499.5,-372.6,-22.2,-947.7,3334.5,201.6,812.1,315.6,-1692.3,-4025.7,5760.3,74.7,-6.9,-6.0,-39.3,337.8,-0.9,259.2,-400.8,-845.7,0,3888,268435456,121,0, 
2.1633,-175.8,-26.1,-236.4,440.7,-527.4,-357.6,-31.2,-948.3,32900.4,176.1,792.0,289.8,-1698.0,-3866.7,9612.0,74.1,-7.5,-5.7,-55.2,312.0,-0.9,227.7,-50.1,-810.3,0,3894,268435456,122,0, 
2.1667,-173.4,-19.5,-231.9,446.1,-517.8,-364.8,-31.2,-951.9,36309.0,191.7,802.2,299.7,-1714.8,-3925.2,9722.7,71.1,-6.3,-6.3,-50.1,326.4,-0.3,237.3,-143.1,-828.3,0,3900,268435456,123,0, 
2.1700,-171.3,5.1,-206.1,468.3,-491.4,-398.4,-28.8,-960.0,8966.1,218.7,827.4,327.3,-1708.2,-4120.8,9830.1,62.1,-6.9,-5.7,-25.2,350.4,-1.2,264.6,-585.6,-887.4,0,3906,268435456,124,0, 
2.1733,-168.9,16.8,-198.6,477.3,-482.7,-405.3,-23.4,-961.5,-11337.3,218.1,835.8,325.5,-1694.4,-4179.9,8378.4,66.6,-6.9,-5.7,-18.0,354.9,-0.9,279.0,-746.4,-912.0,0,3912,268435456,125,0, 
2.1767,-171.6,-2.1,-213.9,467.1,-501.6,-378.6,-23.1,-951.3,3630.9,216.3,819.6,321.6,-1682.1,-4034.7,5939.7,75.9,-6.9,-6.3,-31.8,338.4,-0.6,259.8,-416.7,-857.4,0,3918,268435456,126,0, 
2.1800,-174.9,-21.3,-232.5,445.2,-523.8,-350.1,-27.0,-945.9,33196.8,181.5,802.2,300.6,-1704.6,-3871.5,9654.9,81.0,-6.9,-5.7,-47.7,319.5,-0.9,234.3,-58.8,-807.9,0,3924,268435456,127,0, 
2.1833,-174.9,-25.8,-227.1,448.8,-517.2,-364.8,-35.4,-957.9,36531.3,196.8,810.0,306.9,-1706.7,-3925.2,9719.4,72.0,-6.9,-6.0,-40.8,321.9,-0.9,240.3,-159.0,-830.1,0,3930,268435456,128,0, 
2.1867,-170.7,3.6,-200.7,470.7,-486.6,-387.0,-29.4,-961.8,9040.2,228.3,836.7,335.4,-1693.8,-4105.2,9830.1,59.1,-6.9,-5.4,-19.5,352.5,-0.9,269.4,-587.7,-887.1,0,3936,268435456,129,0, 
