Time,P3,C3,F3,Fz,F4,C4,P4,Cz,CM,A1,Fp1,Fp2,T3,T5,O1,O2,X3,X2,F7,F8,X1,A2,T6,T4,Trigger,Time_Offset,ADC_Status,ADC_Sequence,Event,Comments
0.0033,-192.3,396.3,856.5,849.3,985.5,-606.6,1755.0,292.8,-6594.9,948.9,279.9,-1014.6,-2110.2,1923.3,-3459.0,1119.6,-6.9,-6.3,1149.9,1195.2,-0.6,132.6,2208.3,-216.6,0,6,0,130,0, 
0.0067,-193.5,370.2,852.3,857.1,1000.2,-590.7,1760.1,287.1,-7558.2,937.2,805.5,-813.9,-1978.8,1874.1,-4524.0,1125.3,-6.6,-5.7,1158.3,1203.6,-1.2,156.3,2184.6,-155.7,0,12,0,131,0, 
0.0100,-168.6,433.2,880.5,875.7,1011.6,-571.5,1766.7,308.4,-6594.9,940.8,663.0,-850.5,-1865.1,1740.9,-3596.7,1094.4,-6.9,-5.7,1203.9,1219.8,-0.6,143.1,2184.6,-141.9,0,18,0,132,0, 
0.0133,-196.5,403.8,879.6,868.2,1016.4,-552.0,1788.9,308.7,-5187.0,941.7,135.9,-1023.3,-1906.8,1928.4,-1948.2,1125.6,-6.9,-5.7,1229.7,1240.8,-1.2,169.5,2277.3,-83.4,0,24,0,133,0, 
0.0167,-198.9,380.4,858.3,848.7,993.9,-570.9,1783.2,297.6,-4890.6,923.7,-105.0,-1222.2,-1886.1,2008.5,-1866.0,1143.9,-6.9,-5.7,1235.1,1208.4,-0.9,142.8,2304.0,-98.1,0,30,0,134,0, 
0.0200,-177.0,408.9,879.6,858.9,1000.8,-593.4,1755.3,296.1,-6669.0,1003.5,112.5,-1104.3,-1950.0,1976.1,-3486.9,1111.8,-6.6,-5.7,1254.9,1203.6,-0.9,144.3,2108.1,-167.7,0,36,0,135,0, 
0.0233,-166.8,438.9,876.3,845.1,995.1,-570.0,1773.0,292.8,-7484.1,941.7,636.9,-907.5,-1990.5,1772.7,-4624.8,1116.6,-6.9,-5.4,1240.2,1182.0,-0.9,101.1,2185.2,-29.1,0,42,0,136,0, 
0.0267,-194.4,416.1,886.5,856.5,1006.8,-595.5,1771.5,295.2,-6594.9,982.2,534.0,-951.0,-1857.3,1836.6,-3633.0,1162.2,-6.6,-5.7,1266.6,1199.1,-0.9,159.3,2228.4,-161.7,0,48,0,137,0, 
0.0300,-176.7,438.6,896.7,870.6,1012.8,-595.5,1772.1,305.1,-4890.6,997.8,-9.9,-1176.9,-1838.7,1964.1,-1955.1,1134.3,-7.2,-5.7,1305.0,1215.9,-0.6,153.0,2198.4,-178.8,0,54,0,138,0, 
0.0333,-174.3,438.6,885.0,855.9,990.9,-586.5,1776.3,291.6,-4964.7,1000.2,-334.5,-1382.4,-1806.3,1956.3,-1929.9,1148.7,-6.9,-6.0,1304.4,1175.4,-0.6,100.8,2235.9,-72.0,0,60,0,139,0, 
0.0367,-182.1,419.4,873.0,841.5,972.3,-595.5,1773.6,285.3,-6669.0,968.4,-5.1,-1320.9,-1995.9,1899.3,-3587.4,1186.2,-6.9,-6.0,1335.6,1148.7,-1.2,96.0,2221.8,-119.4,0,66,0,140,0, 
0.0400,-180.0,422.1,865.5,835.5,975.6,-603.9,1769.7,279.3,-7632.3,904.2,568.2,-1275.9,-2144.4,1728.0,-4726.2,1170.3,-7.2,-5.7,1332.0,1163.4,-0.6,92.1,2244.9,-125.1,0,72,0,141,0, 
0.0433,-223.2,359.1,847.2,844.5,1007.1,-585.9,1767.3,283.8,-6743.1,940.2,531.0,-1328.1,-2136.0,1870.2,-3705.6,1166.1,-6.9,-6.0,1311.9,1235.4,-0.9,168.0,2169.9,-122.1,0,78,0,142,0, 
0.0467,-204.6,360.6,842.4,826.8,986.7,-595.2,1771.5,280.8,-4890.6,974.4,-131.1,-1608.6,-1908.9,2049.9,-1942.8,1199.7,-7.2,-6.0,1320.0,1191.6,-0.9,145.5,2240.7,-102.9,0,84,0,143,0, 
0.0500,-191.1,400.5,883.5,847.8,984.0,-612.3,1760.4,290.4,-4890.6,1003.2,-532.8,-1827.9,-1825.8,2121.0,-1842.0,1153.5,-6.9,-6.0,1360.8,1182.3,-0.6,185.4,2215.5,-186.3,0,90,0,144,0, 
0.0533,-177.3,412.2,872.7,840.9,981.6,-606.0,1767.9,282.9,-6669.0,979.2,-161.4,-1767.0,-1975.5,2006.1,-3512.4,1197.9,-7.2,-6.3,1368.9,1198.5,-0.9,157.5,2239.2,-198.6,0,96,0,145,0, 
0.0567,-165.3,408.6,863.4,834.9,981.0,-568.2,1797.3,282.3,-7558.2,988.5,152.7,-1578.6,-1868.7,1849.5,-4615.5,1166.1,-6.6,-5.7,1365.6,1183.8,-0.9,148.5,2345.1,-129.3,0,102,0,146,0, 
0.0600,-165.0,414.6,883.8,843.0,982.2,-600.0,1765.5,281.4,-6520.8,996.3,129.9,-1401.3,-1893.6,1904.4,-3593.1,1194.6,-6.9,-5.4,1410.3,1182.6,-0.3,116.7,2220.6,-187.5,0,108,0,147,0, 
0.0633,-167.1,441.9,904.8,860.7,996.6,-591.0,1763.1,297.0,-4890.6,1033.8,-414.3,-1590.3,-1786.2,2002.5,-1898.1,1176.6,-6.9,-6.0,1422.6,1197.6,-0.6,134.4,2200.2,-179.4,0,114,0,148,0, 
0.0667,-187.2,390.9,882.0,850.2,1003.5,-577.8,1762.8,291.3,-4890.6,963.6,-698.1,-1653.0,-1848.6,2081.7,-1836.3,1176.9,-6.9,-5.7,1428.6,1195.2,-0.9,157.2,2183.1,-111.6,0,120,0,149,0, 
0.0700,-171.6,420.9,880.5,842.4,1004.7,-579.3,1764.6,291.9,-6520.8,940.2,-333.9,-1647.0,-1914.3,1967.7,-3488.1,1147.2,-6.9,-5.7,1421.1,1218.0,-0.6,164.7,2196.3,-138.9,0,126,0,150,0, 
0.0733,-173.1,427.5,877.5,835.2,993.6,-576.3,1759.5,289.8,-7558.2,945.0,185.1,-1591.2,-1932.0,1819.2,-4575.9,1145.7,-6.9,-6.3,1421.1,1186.2,-0.3,152.4,2185.8,-94.5,0,132,0,151,0, 
0.0767,-178.2,432.9,886.5,836.7,985.2,-553.2,1779.6,292.8,-6446.7,978.6,169.8,-1630.8,-1945.2,1837.2,-3577.5,1130.4,-6.3,-5.7,1458.9,1182.6,-0.9,120.9,2233.8,25.5,0,138,0,152,0, 
0.0800,-189.6,413.4,902.1,849.6,1001.7,-564.6,1777.2,303.0,-4890.6,986.1,-321.6,-1775.4,-1893.6,2019.0,-1873.2,1162.5,-7.2,-5.7,1528.5,1197.6,-0.9,108.3,2226.3,-100.8,0,144,0,153,0, 
0.0833,-181.5,418.5,882.3,838.5,1001.4,-573.6,1770.3,300.6,-4890.6,981.9,-629.7,-1929.9,-1856.1,1961.4,-1827.3,1129.2,-6.6,-5.4,1422.0,1193.7,-0.6,146.4,2208.3,-114.0,0,150,0,154,0, 
0.0867,-155.1,453.3,879.3,828.6,979.5,-602.4,1757.1,294.9,-6594.9,940.8,-324.3,-1848.3,-1872.3,1860.3,-3538.5,1094.7,-6.9,-5.7,1443.0,1154.4,-0.9,93.0,2233.8,-214.5,0,156,0,155,0, 
0.0900,-189.6,421.8,868.8,829.2,982.2,-597.9,1764.9,292.2,-7632.3,940.2,124.2,-1574.1,-2192.4,1721.7,-4645.8,1134.0,-6.6,-5.7,1465.8,1158.6,-0.6,86.1,2235.0,-223.2,0,162,0,156,0, 
0.0933,-222.9,403.2,894.6,870.3,1034.7,-558.0,1763.1,311.4,-6446.7,980.4,56.1,-1415.4,-2144.7,1814.7,-3600.0,1132.5,-7.2,-5.7,1519.2,1234.2,-0.9,188.4,2122.2,-129.6,0,168,0,157,0, 
0.0967,-184.5,439.2,899.7,865.2,1026.9,-569.7,1769.4,309.6,-4964.7,953.4,-352.5,-1512.9,-1793.4,1946.4,-1886.4,1121.4,-6.9,-6.0,1546.8,1224.3,-0.6,135.9,2218.2,-93.9,0,174,0,158,0, 
0.1000,-204.0,424.2,912.9,876.0,1028.1,-567.3,1770.9,312.0,-4890.6,960.0,-619.5,-1655.1,-1895.7,2008.8,-1826.4,1115.4,-6.9,-6.0,1584.6,1198.2,-0.9,134.4,2179.2,-142.8,0,180,0,159,0, 
0.1033,-205.2,414.0,886.5,860.7,1016.4,-570.3,1762.5,297.3,-6520.8,945.9,-357.6,-1588.5,-2034.0,1940.1,-3454.5,1132.8,-6.9,-5.7,1532.4,1182.6,-0.6,97.2,2177.1,-109.2,0,186,0,160,0, 
0.1067,-211.8,383.4,882.6,868.2,1029.6,-549.6,1781.1,302.1,-7484.1,991.2,73.2,-1385.7,-1901.7,1860.0,-4518.0,1120.8,-7.2,-5.7,1563.0,1188.0,-0.9,137.7,2212.5,-60.0,0,192,0,161,0, 
0.1100,-198.3,412.5,890.7,859.5,1020.6,-568.5,1776.3,301.5,-6446.7,981.9,-26.7,-1373.4,-1867.5,1881.9,-3487.2,1120.8,-6.9,-5.7,1555.2,1197.6,-0.6,161.1,2232.0,-154.5,0,198,0,162,0, 
0.1133,-204.6,401.1,872.1,844.5,1017.0,-570.6,1771.5,294.9,-4742.4,940.5,-505.8,-1504.8,-1797.6,1961.4,-1812.9,1129.2,-6.9,-5.7,1534.8,1191.6,-0.6,135.3,2214.9,-122.7,0,204,0,163,0, 
0.1167,-213.0,377.4,859.8,839.1,1013.7,-593.4,1756.5,289.5,-4816.5,941.4,-727.2,-1517.7,-1944.0,2041.8,-1767.3,1164.9,-6.9,-5.4,1582.2,1192.2,-0.3,135.0,2145.0,-196.8,0,210,0,164,0, 
0.1200,-212.1,410.1,867.9,835.8,1001.4,-598.5,1764.3,282.6,-6372.6,916.8,-438.0,-1473.0,-1986.3,1962.6,-3420.6,1146.6,-6.6,-6.0,1596.0,1167.9,-0.9,123.3,2224.2,-179.4,0,216,0,165,0, 
0.1233,-209.1,421.2,865.2,834.0,994.8,-606.0,1752.0,276.9,-7484.1,950.7,115.5,-1225.8,-2103.0,1882.8,-4480.2,1143.0,-6.9,-6.0,1592.4,1163.4,-0.9,114.9,2166.0,-225.9,0,222,0,166,0, 
0.1267,-197.4,459.9,849.6,806.7,972.3,-585.6,1771.5,264.0,-6446.7,918.0,81.9,-1241.1,-2001.0,1793.1,-3492.3,1136.1,-6.9,-6.0,1574.7,1127.1,-0.6,78.0,2283.6,-121.8,0,228,0,167,0, 
0.1300,-200.4,417.6,839.1,803.4,960.3,-607.5,1756.8,265.2,-4668.3,916.5,-367.2,-1444.2,-1996.2,1960.2,-1783.2,1152.9,-6.6,-6.0,1585.2,1114.8,-0.3,32.1,2185.5,-137.7,0,234,0,168,0, 
0.1333,-173.4,440.1,853.8,823.2,984.3,-595.8,1752.3,281.7,-4742.4,927.3,-621.0,-1568.4,-1864.8,2034.9,-1697.1,1122.0,-6.9,-6.0,1616.7,1161.6,-0.9,114.6,2141.1,-110.4,0,240,0,169,0, 
0.1367,-193.2,385.8,837.9,816.6,983.7,-615.3,1761.3,267.6,-6520.8,934.2,-331.8,-1635.3,-1929.6,1862.7,-3422.4,1168.5,-6.6,-5.7,1608.0,1125.6,-0.6,97.5,2217.9,-181.5,0,246,0,170,0, 
0.1400,-187.5,391.8,862.5,826.2,989.7,-586.2,1763.7,273.6,-7410.0,978.3,219.9,-1426.8,-1969.2,1889.7,-4454.4,1124.1,-7.2,-5.4,1655.1,1142.1,-0.9,99.0,2201.4,-61.8,0,252,0,171,0, 
0.1433,-168.6,389.4,843.0,812.1,978.0,-604.5,1766.1,264.9,-6224.4,964.8,235.8,-1365.6,-1885.2,1826.7,-3467.7,1164.3,-6.3,-5.4,1607.4,1149.0,-0.9,93.0,2261.1,-179.7,0,258,0,172,0, 
0.1467,-198.9,386.7,865.2,831.3,1006.2,-612.0,1750.5,281.1,-4742.4,961.2,-288.9,-1406.7,-1940.1,1991.7,-1716.9,1165.5,-6.6,-5.7,1658.7,1179.3,-0.3,162.6,2149.5,-207.0,0,264,0,173,0, 
0.1500,-210.9,389.4,843.0,820.8,1000.2,-608.1,1757.7,273.3,-4742.4,960.0,-548.1,-1574.4,-2041.2,2123.1,-1691.7,1206.0,-6.9,-5.7,1632.9,1193.1,-1.2,149.4,2229.0,-236.7,0,270,0,174,0, 
0.1533,-186.0,400.5,856.5,821.1,993.0,-612.9,1740.0,267.3,-6372.6,973.5,-424.2,-1523.7,-2005.5,2072.1,-3315.6,1152.6,-6.9,-5.7,1670.1,1163.1,-1.2,130.8,2175.9,-213.0,0,276,0,175,0, 
0.1567,-186.0,398.7,848.4,822.0,999.0,-595.5,1755.0,263.4,-7410.0,960.0,67.5,-1317.9,-1989.9,1939.5,-4379.1,1182.0,-6.9,-6.3,1665.3,1150.2,-0.6,123.6,2205.9,-159.9,0,282,0,176,0, 
0.1600,-186.3,398.1,838.2,817.8,999.9,-580.8,1757.4,262.2,-6446.7,924.6,-145.8,-1217.7,-2008.5,1911.0,-3411.0,1165.5,-7.2,-6.0,1628.4,1163.1,-0.6,85.2,2203.8,-121.8,0,288,0,177,0, 
0.1633,-183.6,391.5,843.3,825.6,1015.2,-589.5,1745.4,267.0,-4816.5,953.7,-694.5,-1381.5,-1896.3,2043.9,-1710.6,1146.3,-6.9,-5.4,1672.2,1173.0,-1.2,100.2,2170.5,-120.6,0,294,0,178,0, 
0.1667,-191.7,398.4,860.7,835.5,1016.4,-589.5,1747.8,276.6,-4742.4,981.6,-1097.4,-1457.7,-1910.1,2123.7,-1671.0,1144.8,-7.5,-6.3,1687.5,1169.4,-0.9,127.2,2167.8,-155.4,0,300,0,179,0, 
0.1700,-166.2,431.4,858.9,829.5,996.9,-601.5,1750.5,271.5,-6520.8,928.2,-772.8,-1346.1,-1945.8,1984.8,-3356.7,1135.8,-6.6,-6.0,1687.8,1155.9,-0.6,119.4,2198.7,-229.5,0,306,0,180,0, 
0.1733,-172.2,447.6,852.6,827.7,1003.5,-570.0,1764.6,272.4,-7484.1,931.8,-499.2,-1215.9,-1923.9,1775.1,-4454.7,1116.3,-7.2,-6.0,1665.9,1152.9,-0.9,109.5,2232.3,-123.3,0,312,0,181,0, 
0.1767,-205.5,390.6,842.7,821.1,998.4,-584.4,1764.9,257.1,-6298.5,916.5,-624.0,-1173.0,-1972.2,1825.2,-3468.9,1128.6,-7.2,-5.4,1700.4,1138.5,-0.6,89.7,2305.8,-180.9,0,318,0,182,0, 
0.1800,-203.1,442.2,873.0,857.1,1027.8,-576.3,1760.1,285.3,-4742.4,914.1,-1086.6,-1346.4,-2073.6,1868.1,-1825.5,1131.6,-6.9,-6.3,1753.5,1182.6,-0.9,91.5,2173.8,-154.5,0,324,0,183,0, 
0.1833,-213.0,425.1,877.2,872.7,1049.4,-566.4,1754.1,291.0,-4742.4,966.3,-1271.4,-1396.8,-2090.7,2060.1,-1768.5,1144.2,-6.9,-6.3,1755.6,1208.4,-0.9,125.7,2122.5,-137.4,0,330,0,184,0, 
0.1867,-207.6,398.1,877.2,875.1,1054.5,-546.9,1768.5,290.4,-6520.8,1000.8,-958.8,-1333.8,-1998.6,2016.0,-3367.8,1145.7,-6.9,-6.0,1792.8,1222.2,-0.9,114.3,2178.6,-77.7,0,336,0,185,0, 
0.1900,-204.0,389.4,873.9,874.5,1063.5,-551.7,1768.5,288.0,-7261.8,962.7,-509.4,-1091.1,-1887.0,1886.1,-4385.1,1141.8,-7.2,-5.4,1791.9,1238.7,-0.9,144.3,2201.4,-105.6,0,342,0,186,0, 
0.1933,-204.3,379.5,852.0,848.7,1038.9,-553.8,1777.8,284.7,-6298.5,977.7,-602.1,-1199.1,-1838.4,1907.7,-3363.6,1164.6,-6.9,-6.3,1782.0,1170.3,-0.6,119.4,2221.2,-88.8,0,348,0,187,0, 
0.1967,-214.2,370.8,846.3,835.5,1009.5,-571.5,1770.9,273.9,-4816.5,919.2,-1122.3,-1274.7,-1873.2,1900.2,-1742.4,1182.6,-6.6,-6.0,1779.6,1140.9,-0.9,87.9,2232.9,-188.4,0,354,0,188,0, 
0.2000,-193.8,406.2,871.2,858.0,1035.3,-555.0,1774.5,294.0,-4816.5,937.2,-1325.4,-1362.6,-1949.1,2009.7,-1758.0,1114.5,-6.6,-5.4,1821.6,1189.8,-0.6,121.5,2251.8,-112.8,0,360,0,189,0, 
0.2033,-222.0,441.9,888.6,866.1,1041.0,-550.5,1777.2,295.5,-6594.9,908.7,-850.8,-1150.5,-2175.0,1784.7,-3481.2,1154.7,-6.6,-5.7,1834.5,1207.5,-0.9,150.6,2220.0,-150.3,0,366,0,190,0, 
0.2067,-199.8,439.2,873.0,851.7,1020.6,-575.4,1760.1,289.8,-7558.2,942.3,-380.1,-935.7,-2082.9,1766.7,-4490.1,1134.9,-7.2,-5.7,1843.8,1171.8,-0.6,116.7,2148.3,-216.6,0,372,0,191,0, 
0.2100,-228.9,431.1,855.6,847.8,1032.6,-558.6,1764.0,284.4,-6520.8,931.8,-476.7,-940.2,-2065.2,1692.0,-3467.7,1127.1,-7.2,-5.7,1847.1,1195.8,-0.9,110.7,2161.5,-143.7,0,378,0,192,0, 
0.2133,-228.6,367.2,823.2,826.5,1010.7,-569.4,1763.4,271.8,-4816.5,915.0,-780.3,-1037.7,-1998.3,1985.7,-1782.0,1145.4,-6.3,-5.7,1820.1,1166.1,-0.6,93.0,2192.4,-137.4,0,384,0,193,0, 
0.2167,-230.7,356.7,826.2,828.0,1008.6,-580.5,1759.8,264.3,-4964.7,937.2,-1086.3,-1124.7,-1900.8,1968.6,-1736.4,1144.5,-6.9,-6.0,1844.1,1167.9,-1.2,116.4,2205.6,-172.2,0,390,0,194,0, 
0.2200,-227.4,378.3,846.0,839.4,1016.7,-578.4,1758.3,266.1,-6520.8,915.3,-839.7,-1015.8,-2021.7,1920.9,-3408.6,1156.2,-7.2,-6.0,1895.1,1170.0,-0.9,98.1,2168.4,-159.6,0,396,0,195,0, 
0.2233,-210.0,388.2,844.5,835.2,1008.3,-584.1,1752.0,261.3,-7484.1,900.0,-381.0,-765.6,-1988.4,1867.8,-4411.8,1135.2,-6.9,-5.7,1899.6,1143.0,-0.9,82.2,2167.2,-148.5,0,402,0,196,0, 
0.2267,-208.8,403.5,835.5,822.6,990.6,-591.0,1758.9,251.7,-6298.5,891.6,-372.9,-717.3,-1952.1,1823.7,-3411.6,1161.9,-6.9,-6.0,1871.7,1140.6,-0.6,74.4,2227.2,-163.2,0,408,0,197,0, 
0.2300,-214.2,384.0,823.2,815.1,990.0,-605.1,1745.7,248.1,-4816.5,901.2,-807.0,-926.4,-1934.1,1973.4,-1713.9,1161.6,-6.6,-6.0,1832.1,1152.3,-0.9,69.3,2171.7,-243.9,0,414,0,198,0, 
0.2333,-199.2,411.3,840.3,834.0,1004.7,-589.8,1751.4,264.6,-4742.4,940.8,-1144.5,-1137.0,-1913.7,1992.6,-1701.9,1138.5,-6.6,-5.7,1874.1,1165.5,-0.9,86.7,2144.4,-164.7,0,420,0,199,0, 
0.2367,-192.9,418.5,844.5,843.3,1009.2,-583.2,1765.5,265.2,-6372.6,921.9,-789.0,-994.2,-2015.4,1961.7,-3364.8,1145.7,-6.9,-6.0,1905.0,1173.0,-0.6,93.3,2210.4,-167.7,0,426,0,200,0, 
0.2400,-202.2,440.4,855.3,846.6,1006.8,-585.9,1761.6,264.0,-7484.1,915.6,-241.5,-771.0,-2149.5,1803.6,-4443.9,1138.8,-6.3,-5.4,1929.0,1164.0,-0.6,81.6,2218.5,-177.9,0,432,0,201,0, 
0.2433,-177.0,450.0,867.3,852.3,1010.7,-598.8,1736.7,271.2,-6298.5,914.4,-331.8,-645.0,-1969.2,1882.5,-3397.8,1092.9,-6.9,-6.0,1959.0,1158.3,-0.6,66.0,2140.2,-195.9,0,438,0,202,0, 
0.2467,-207.9,372.3,839.4,843.0,1008.3,-590.4,1748.4,262.8,-4668.3,966.9,-921.3,-897.6,-1999.5,1977.3,-1710.0,1144.8,-6.9,-6.0,1969.2,1152.9,-0.6,98.4,2134.2,-140.4,0,444,0,203,0, 
0.2500,-199.5,369.0,825.6,825.6,993.6,-607.2,1749.3,255.3,-4816.5,939.9,-1144.5,-998.7,-1889.1,2064.9,-1695.3,1140.0,-6.9,-6.3,1972.5,1131.6,-0.3,82.8,2184.6,-201.6,0,450,0,204,0, 
0.2533,-195.6,403.2,836.4,840.6,1003.8,-590.1,1752.0,265.8,-6520.8,928.8,-864.9,-903.0,-1869.0,1896.3,-3379.5,1122.6,-6.9,-5.7,1981.5,1143.6,-0.9,77.4,2165.1,-125.4,0,456,0,205,0, 
0.2567,-185.4,405.0,830.1,828.9,1001.7,-601.8,1741.5,254.1,-7335.9,898.2,-343.8,-796.2,-2067.9,1855.2,-4452.9,1116.6,-7.2,-5.4,1979.1,1164.6,-0.6,99.6,2153.1,-192.3,0,462,0,206,0, 
0.2600,-217.2,371.4,816.6,830.1,1013.7,-588.0,1756.5,245.7,-6446.7,880.5,-355.8,-792.9,-2006.4,1835.4,-3456.6,1133.7,-6.6,-5.4,1974.0,1172.7,-0.6,101.4,2233.2,-180.6,0,468,0,207,0, 
0.2633,-213.3,398.1,824.7,832.5,1014.6,-607.5,1734.6,250.8,-4816.5,934.2,-814.8,-893.7,-2047.5,2038.2,-1760.4,1136.1,-7.2,-6.3,2007.6,1165.5,-0.3,94.2,2133.6,-189.9,0,474,0,208,0, 
0.2667,-187.2,441.3,855.6,849.6,1021.8,-589.2,1742.7,256.5,-4964.7,939.6,-1064.1,-1053.0,-1826.4,2068.8,-1728.9,1092.3,-6.6,-5.7,2061.3,1154.7,-0.9,75.0,2132.7,-123.0,0,480,0,209,0, 
0.2700,-186.9,430.8,846.3,840.3,1002.6,-601.5,1740.6,248.4,-6520.8,942.0,-680.7,-921.6,-1933.5,1907.1,-3438.3,1123.2,-6.9,-5.7,2066.4,1133.4,-1.2,65.4,2128.5,-176.1,0,486,0,210,0, 
0.2733,-201.6,421.2,835.2,824.1,999.0,-589.5,1758.9,239.1,-7558.2,936.6,-328.5,-762.9,-1971.9,1838.7,-4512.6,1146.9,-6.6,-6.3,2061.0,1132.2,-0.6,72.0,2229.3,-168.3,0,492,0,211,0, 
0.2767,-218.1,391.5,841.5,834.3,1017.0,-583.5,1749.0,255.0,-6446.7,1003.8,-322.8,-673.5,-1983.9,1880.1,-3472.5,1146.0,-6.6,-6.0,2100.9,1176.9,-0.9,145.5,2154.9,-165.6,0,498,0,212,0, 
0.2800,-217.5,375.0,819.9,829.5,1017.3,-562.2,1768.2,260.1,-4890.6,960.6,-779.1,-938.4,-1869.6,2014.2,-1823.7,1124.7,-6.9,-6.0,2049.3,1178.1,-0.6,172.8,2274.3,-101.1,0,504,0,213,0, 
0.2833,-228.6,357.9,816.9,829.8,1011.9,-558.6,1766.1,251.7,-4964.7,899.7,-1081.8,-1053.0,-1919.1,2033.7,-1822.5,1122.3,-7.2,-6.0,2059.2,1174.5,-0.3,126.3,2270.1,-111.9,0,510,0,214,0, 
0.2867,-194.7,421.2,852.6,854.4,1030.5,-592.5,1740.3,267.6,-6669.0,926.7,-641.4,-885.3,-2091.0,1913.7,-3525.6,1129.5,-7.2,-5.4,2110.2,1171.2,-0.9,107.4,2113.8,-201.9,0,516,0,215,0, 
0.2900,-220.5,424.2,855.0,859.2,1042.5,-571.5,1746.9,263.4,-7632.3,978.3,-238.8,-708.9,-2115.3,1806.3,-4561.5,1158.9,-6.6,-5.7,2139.0,1189.5,-0.9,131.7,2132.1,-142.8,0,522,0,216,0, 
0.2933,-200.7,441.0,863.7,866.7,1045.8,-561.6,1759.8,271.5,-6743.1,954.3,-294.9,-732.9,-1975.2,1794.9,-3551.4,1123.2,-6.9,-5.7,2153.7,1186.2,-0.6,136.5,2208.9,-96.3,0,528,0,217,0, 
0.2967,-211.5,440.1,875.7,869.1,1036.8,-563.1,1762.2,273.9,-4816.5,962.1,-828.3,-993.0,-1952.4,1952.7,-1868.4,1159.5,-6.9,-5.7,2185.5,1177.5,-0.6,124.8,2191.5,-140.4,0,534,0,218,0, 
0.3000,-218.7,422.4,864.3,867.0,1048.8,-557.4,1763.1,277.2,-5187.0,984.0,-1152.3,-1185.6,-1849.2,1964.1,-1843.5,1163.4,-6.9,-6.0,2183.1,1199.7,-0.9,152.7,2155.2,-167.1,0,540,0,219,0, 
0.3033,-221.7,396.6,839.4,849.6,1024.8,-561.6,1768.5,258.6,-6669.0,936.0,-802.2,-1204.5,-2024.7,1908.9,-3541.5,1160.1,-6.9,-6.0,2129.7,1169.4,-0.9,106.2,2180.7,-150.6,0,546,0,220,0, 
0.3067,-219.3,399.9,828.0,846.0,1026.6,-564.0,1771.2,253.2,-7854.6,897.6,-288.3,-1023.6,-2099.4,1810.5,-4576.2,1176.6,-6.9,-6.0,2161.5,1188.0,-0.9,117.3,2229.9,-133.8,0,552,0,221,0, 
0.3100,-216.0,398.7,837.9,850.8,1020.6,-579.6,1757.1,253.5,-6594.9,934.8,-201.6,-947.1,-1963.5,1797.9,-3545.7,1124.7,-6.9,-6.0,2191.5,1164.6,-0.9,117.3,2190.6,-183.9,0,558,0,222,0, 
0.3133,-227.4,408.6,824.7,832.2,994.8,-575.1,1765.8,249.6,-4964.7,882.9,-735.6,-1183.8,-1934.7,1888.5,-1914.9,1158.3,-7.2,-5.7,2180.4,1137.6,-0.9,106.2,2246.1,-164.1,0,564,0,223,0, 
0.3167,-218.4,413.1,832.8,838.2,1007.1,-578.7,1749.3,252.3,-5038.8,941.1,-984.9,-1295.1,-1886.4,1961.4,-1879.8,1134.3,-6.9,-5.4,2226.0,1179.3,-0.9,141.6,2160.0,-132.3,0,570,0,224,0, 
0.3200,-210.6,416.7,836.1,838.8,1003.2,-581.7,1751.4,245.1,-6669.0,930.3,-485.4,-1179.9,-2002.2,1833.3,-3595.8,1140.3,-6.3,-5.4,2250.3,1178.4,-0.9,105.9,2174.7,-150.9,0,576,0,225,0, 
0.3233,-214.5,399.6,823.8,833.1,987.3,-599.4,1742.4,241.2,-7558.2,928.2,-67.8,-1064.4,-2091.0,1766.7,-4597.8,1133.4,-6.9,-5.4,2235.3,1153.5,-0.9,69.6,2165.1,-226.5,0,582,0,226,0, 
0.3267,-228.6,366.6,810.3,828.3,998.7,-576.0,1755.0,242.4,-6669.0,879.6,-93.0,-1161.9,-1952.1,1790.4,-3537.6,1166.4,-6.9,-5.7,2176.8,1157.4,-0.9,64.8,2210.4,-176.1,0,588,0,227,0, 
0.3300,-214.5,375.0,794.4,807.3,978.3,-585.9,1754.4,237.3,-4816.5,885.3,-633.9,-1351.8,-1937.4,1863.0,-1909.5,1129.8,-6.9,-6.0,2168.1,1128.6,-0.9,43.5,2213.1,-143.4,0,594,0,228,0, 
0.3333,-233.1,378.0,813.9,828.9,1005.9,-573.0,1746.3,251.1,-4964.7,910.8,-850.8,-1475.4,-2012.4,1932.6,-1905.0,1121.4,-6.9,-6.0,2235.3,1154.7,-0.6,88.5,2124.9,-107.1,0,600,0,229,0, 
0.3367,-227.7,403.2,821.4,819.0,993.6,-578.7,1746.0,239.1,-6594.9,901.2,-376.2,-1289.4,-2087.4,1838.7,-3591.6,1120.2,-6.9,-5.7,2268.3,1143.9,-0.9,47.7,2142.9,-94.2,0,606,0,230,0, 
0.3400,-228.9,377.4,801.9,816.9,1004.7,-576.3,1749.6,235.5,-7632.3,846.3,96.3,-1108.2,-2082.3,1741.5,-4593.6,1124.7,-6.9,-5.7,2227.5,1196.1,-0.9,115.2,2165.7,-150.3,0,612,0,231,0, 
0.3433,-232.8,356.1,795.9,807.3,1006.2,-598.2,1749.3,227.4,-6446.7,898.2,32.7,-1051.8,-2049.3,1732.2,-3576.0,1095.6,-7.2,-6.0,2222.1,1171.8,-0.9,118.8,2194.2,-275.4,0,618,0,232,0, 
0.3467,-240.6,371.1,802.8,812.1,1009.5,-598.5,1740.3,234.9,-4964.7,921.3,-369.6,-1170.9,-2019.9,1906.2,-1896.9,1132.8,-6.9,-6.0,2264.7,1147.2,-0.6,95.4,2102.1,-234.3,0,624,0,233,0, 
0.3500,-221.1,404.1,805.2,803.7,1008.0,-593.4,1742.7,237.0,-5038.8,886.5,-781.2,-1396.2,-1947.6,1913.1,-1905.6,1105.2,-7.2,-5.4,2259.6,1163.4,-0.9,108.0,2208.0,-209.7,0,630,0,234,0, 
0.3533,-232.5,368.1,830.7,831.3,1030.8,-568.8,1749.9,244.2,-6594.9,912.9,-436.2,-1271.7,-1894.2,1846.8,-3556.2,1123.5,-6.6,-6.0,2330.4,1179.6,-0.9,56.1,2176.5,-143.7,0,636,0,235,0, 
0.3567,-214.5,399.6,859.5,847.8,1038.6,-567.0,1734.3,249.3,-7484.1,925.8,37.5,-1023.6,-1941.3,1780.5,-4561.8,1091.7,-7.2,-5.7,2370.3,1185.9,-0.9,67.5,2069.4,-130.2,0,642,0,236,0, 
0.3600,-225.9,383.4,817.5,811.5,1014.3,-577.2,1749.9,233.1,-6520.8,847.5,-51.0,-1052.1,-1970.4,1784.4,-3526.8,1116.9,-7.2,-5.7,2310.6,1137.0,-0.6,80.7,2187.6,-178.5,0,648,0,237,0, 
0.3633,-203.7,441.9,865.5,850.5,1038.0,-579.0,1734.0,259.2,-4742.4,932.1,-567.3,-1288.8,-1957.2,1908.9,-1850.7,1080.9,-6.6,-5.4,2363.7,1184.7,-0.6,115.5,2110.5,-157.8,0,654,0,238,0, 
0.3667,-224.1,405.3,831.9,840.6,1046.4,-563.1,1757.7,254.1,-5038.8,882.3,-684.3,-1334.7,-2064.9,1915.5,-1911.6,1115.1,-6.9,-6.0,2325.3,1202.1,-0.6,101.1,2196.6,-151.8,0,660,0,239,0, 
0.3700,-221.7,413.4,831.3,836.4,1037.4,-554.1,1748.7,238.5,-6743.1,922.5,-384.3,-1194.0,-2098.8,1851.3,-3560.1,1110.9,-7.2,-5.7,2370.3,1201.5,-0.6,112.8,2147.4,-144.3,0,666,0,240,0, 
0.3733,-224.4,432.9,856.5,852.9,1038.6,-576.9,1750.5,240.3,-7706.4,951.3,82.5,-960.6,-2163.9,1746.3,-4589.7,1120.8,-6.6,-5.4,2400.6,1185.3,-0.9,122.7,2175.6,-195.0,0,672,0,241,0, 
0.3767,-213.0,421.2,850.8,846.6,1034.4,-567.3,1755.6,239.7,-6298.5,946.8,6.0,-910.2,-1976.4,1809.0,-3509.1,1127.4,-6.9,-5.4,2398.5,1204.8,-0.3,108.3,2202.6,-169.8,0,678,0,242,0, 
0.3800,-227.4,405.0,837.6,841.2,1036.8,-564.3,1774.8,238.2,-4890.6,915.6,-583.2,-1072.2,-1844.4,1888.5,-1850.1,1135.2,-7.2,-6.0,2419.8,1189.8,-0.6,98.7,2296.5,-174.0,0,684,0,243,0, 
0.3833,-220.2,402.3,851.1,849.3,1041.9,-574.8,1741.8,243.6,-4816.5,936.9,-795.3,-1237.8,-1913.4,2038.8,-1825.8,1128.9,-7.2,-5.7,2464.5,1191.6,-0.6,113.1,2104.5,-188.7,0,690,0,244,0, 
0.3867,-185.7,486.6,868.8,849.0,1036.8,-564.0,1748.1,246.3,-6669.0,955.2,-407.1,-1081.2,-1881.0,1789.2,-3534.3,1099.5,-6.6,-5.7,2488.2,1192.8,-0.6,110.4,2158.8,-129.3,0,696,0,245,0, 
0.3900,-242.1,418.5,839.1,847.5,1053.9,-555.0,1759.2,237.0,-7558.2,916.5,165.9,-894.0,-2190.9,1735.8,-4571.7,1154.7,-6.6,-5.7,2471.4,1219.8,-0.9,154.2,2190.0,-150.3,0,702,0,246,0, 
0.3933,-213.6,427.5,830.7,828.9,1029.3,-575.4,1744.2,228.9,-6446.7,898.8,143.1,-916.8,-2072.4,1847.4,-3463.2,1117.2,-6.9,-5.4,2474.1,1181.1,-0.6,144.0,2166.3,-162.6,0,708,0,247,0, 
0.3967,-214.5,395.1,818.1,820.2,1021.8,-577.8,1744.8,228.0,-4742.4,930.0,-369.9,-1158.6,-1905.6,1907.1,-1767.0,1148.7,-6.9,-5.7,2470.8,1168.2,-0.9,69.3,2169.3,-153.9,0,714,0,248,0, 
0.4000,-224.4,402.6,817.8,817.8,1017.9,-565.2,1744.5,222.9,-4964.7,872.4,-557.7,-1315.8,-2017.5,1978.5,-1794.9,1122.3,-6.9,-5.4,2503.5,1165.2,-0.6,64.8,2192.4,-72.6,0,720,0,249,0, 
0.4033,-189.6,478.8,842.1,823.2,1003.8,-589.8,1728.6,228.0,-6594.9,927.3,-254.7,-1284.6,-2050.5,1838.7,-3464.4,1124.1,-7.2,-5.7,2514.0,1139.1,-0.6,52.5,2145.0,-191.1,0,726,0,250,0, 
0.4067,-218.1,402.3,814.5,807.9,997.5,-586.5,1737.6,216.6,-7484.1,902.1,248.7,-1041.3,-1938.0,1787.7,-4447.5,1128.3,-6.9,-5.7,2491.8,1171.8,-0.9,75.6,2182.5,-227.4,0,732,0,251,0, 
0.4100,-217.2,387.0,812.7,806.4,1006.5,-594.0,1720.5,215.1,-6298.5,915.0,121.8,-965.4,-1974.6,1825.8,-3356.4,1123.5,-7.2,-5.7,2511.6,1197.3,-0.9,82.5,2090.7,-229.2,0,738,0,252,0, 
0.4133,-249.3,343.5,786.6,795.0,1007.1,-587.1,1725.9,212.7,-4742.4,885.3,-387.9,-1073.4,-1944.6,1977.9,-1653.9,1129.5,-6.9,-5.4,2499.9,1176.6,-0.3,108.6,2157.0,-183.6,0,744,0,253,0, 
0.4167,-242.1,344.1,798.3,792.9,991.8,-615.3,1722.3,204.3,-4668.3,919.2,-632.4,-1242.0,-1935.6,2066.1,-1637.4,1160.1,-6.9,-5.7,2532.9,1168.8,-0.6,94.2,2157.0,-228.3,0,750,0,254,0, 
0.4200,-204.0,393.9,810.0,796.8,990.9,-602.7,1728.3,211.8,-6298.5,888.0,-263.7,-1101.3,-1942.5,1966.2,-3293.7,1121.1,-6.9,-5.4,2527.5,1167.9,-0.9,92.7,2154.0,-202.5,0,756,0,255,0, 
0.4233,-225.9,396.9,814.5,796.8,988.8,-598.8,1732.2,202.8,-7335.9,882.0,90.9,-969.3,-1992.0,1823.4,-4319.7,1125.0,-6.6,-5.7,2552.7,1183.5,-0.6,98.4,2169.3,-228.9,0,762,0,0,0, 
0.4267,-214.2,392.1,808.5,792.6,985.8,-597.3,1731.9,210.0,-6298.5,907.2,-59.7,-978.6,-2031.9,1834.5,-3263.7,1106.1,-6.6,-6.0,2560.8,1167.0,-0.9,102.3,2195.4,-205.5,0,768,0,1,0, 
0.4300,-210.9,452.7,827.4,793.5,975.0,-615.3,1724.4,217.5,-4816.5,928.5,-588.0,-1046.7,-2113.2,1918.2,-1635.3,1122.0,-7.2,-5.7,2541.6,1151.7,-0.9,61.5,2183.7,-244.8,0,774,0,2,0, 
0.4333,-190.5,460.8,831.0,798.9,972.6,-611.7,1716.0,225.0,-4742.4,875.4,-890.1,-1262.1,-2016.9,1970.7,-1627.5,1112.4,-6.3,-5.7,2539.5,1142.4,-0.9,47.7,2098.5,-223.2,0,780,0,3,0, 
0.4367,-216.0,402.6,815.7,795.0,986.7,-584.7,1730.1,219.0,-6446.7,917.4,-503.7,-1111.5,-1982.1,1894.2,-3296.4,1110.6,-6.9,-5.4,2588.4,1161.0,-1.2,47.1,2142.3,-105.6,0,786,0,4,0, 
0.4400,-225.3,381.3,803.1,796.5,992.7,-584.1,1739.7,214.5,-7261.8,878.4,74.7,-866.1,-2023.8,1764.0,-4296.3,1102.5,-7.2,-5.7,2594.7,1174.8,-0.6,56.4,2176.2,-140.7,0,792,0,5,0, 
0.4433,-209.7,398.4,820.5,793.8,979.5,-611.7,1727.7,222.9,-6224.4,883.2,-9.3,-852.3,-2067.6,1835.1,-3235.2,1104.9,-6.9,-6.0,2603.1,1146.3,-0.9,41.7,2136.9,-197.1,0,798,0,6,0, 
0.4467,-194.7,413.1,830.4,810.6,1007.1,-589.8,1729.2,235.8,-4520.1,897.6,-375.6,-981.6,-1873.2,2022.0,-1527.9,1103.1,-6.6,-5.7,2601.6,1207.2,-0.6,109.8,2123.4,-135.9,0,804,0,7,0, 
0.4500,-219.6,411.9,840.3,825.9,1033.2,-536.7,1767.6,249.9,-4668.3,928.5,-625.2,-1150.8,-1890.9,1996.2,-1577.7,1116.3,-6.6,-6.3,2617.8,1229.7,-0.9,141.9,2228.1,-54.0,0,810,0,8,0, 
0.4533,-203.1,445.2,861.3,828.0,1014.6,-569.1,1751.1,242.4,-6446.7,983.4,-233.7,-1035.9,-1926.0,1905.3,-3249.0,1114.5,-6.6,-5.7,2680.5,1197.9,-0.6,92.1,2204.7,-133.2,0,816,0,9,0, 
0.4567,-201.9,444.3,876.6,853.8,1043.1,-575.7,1733.7,254.1,-7335.9,1012.8,282.6,-884.4,-1988.7,1861.8,-4196.1,1086.9,-6.9,-6.0,2710.8,1239.3,-0.6,164.4,2101.8,-208.5,0,822,0,10,0, 
0.4600,-202.5,438.0,862.8,841.2,1029.6,-570.0,1751.4,245.7,-6002.1,967.8,314.7,-757.5,-1938.0,1843.8,-3140.4,1128.9,-6.6,-6.3,2716.2,1213.8,-0.6,114.6,2194.2,-101.4,0,828,0,11,0, 
0.4633,-211.8,396.6,849.6,837.3,1028.4,-581.1,1749.3,247.5,-4520.1,943.5,-190.2,-886.8,-1865.1,2078.7,-1419.6,1141.5,-6.9,-6.3,2710.8,1214.1,-0.6,121.5,2185.8,-210.6,0,834,0,12,0, 
0.4667,-201.6,436.8,849.6,826.2,1015.8,-579.0,1740.0,244.2,-4520.1,945.3,-447.9,-1068.3,-1848.3,2080.2,-1441.5,1119.3,-7.2,-5.7,2708.1,1207.2,-0.9,137.1,2154.6,-172.2,0,840,0,13,0, 
0.4700,-216.0,405.9,843.9,829.2,1031.1,-561.0,1753.8,236.1,-6224.4,954.3,-39.9,-881.7,-1989.3,2004.0,-3120.6,1110.3,-6.9,-5.7,2718.6,1235.7,-0.9,179.7,2195.4,-120.3,0,846,0,14,0, 
0.4733,-219.9,410.1,844.2,823.8,1023.3,-576.3,1749.0,230.1,-7261.8,975.0,437.4,-603.3,-2006.1,1838.4,-4127.4,1140.6,-7.2,-5.7,2739.9,1218.6,-0.6,148.5,2209.5,-139.8,0,852,0,15,0, 
0.4767,-213.9,408.0,842.7,829.8,1020.9,-585.9,1743.6,234.0,-6002.1,963.3,477.9,-597.3,-1958.7,1912.8,-3068.4,1132.8,-6.6,-5.4,2768.4,1211.1,-0.6,147.0,2194.2,-161.7,0,858,0,16,0, 
0.4800,-210.0,414.3,841.2,820.8,1010.7,-598.5,1741.8,235.8,-4520.1,923.4,-140.1,-786.6,-1879.2,2048.7,-1380.9,1153.5,-6.9,-6.0,2771.1,1174.5,-0.9,114.3,2214.9,-163.5,0,864,0,17,0, 
0.4833,-185.1,448.5,846.9,822.0,1007.4,-600.9,1740.6,244.5,-4371.9,904.8,-298.2,-923.4,-1812.0,2059.5,-1413.0,1121.7,-6.6,-6.0,2765.4,1184.1,-0.9,89.4,2189.4,-159.9,0,870,0,18,0, 
0.4867,-192.9,471.3,855.6,826.2,1011.0,-591.0,1755.3,242.4,-6372.6,898.5,30.0,-854.7,-2036.1,1855.2,-3132.3,1147.2,-6.9,-5.7,2790.6,1167.6,-1.2,86.7,2233.5,-114.0,0,876,0,19,0, 
0.4900,-196.5,414.6,818.4,806.1,999.6,-604.2,1759.8,223.2,-7113.6,937.5,495.9,-550.2,-2118.0,1921.2,-4109.7,1164.0,-6.9,-5.7,2750.7,1161.3,-0.9,91.5,2256.3,-120.0,0,882,0,20,0, 
0.4933,-207.0,377.7,813.6,812.4,1011.9,-587.1,1757.4,223.8,-6076.2,906.9,375.0,-618.0,-2017.8,1875.3,-3041.7,1182.6,-6.9,-5.4,2750.4,1200.9,-0.3,120.6,2233.8,-125.1,0,888,0,21,0, 
0.4967,-196.8,431.4,855.3,837.0,1023.6,-588.6,1742.1,236.7,-4297.8,958.8,-282.0,-788.1,-1960.5,2054.7,-1377.9,1099.5,-6.9,-5.7,2805.3,1195.2,-1.2,102.6,2181.0,-98.1,0,894,0,22,0, 
0.5000,-178.8,446.1,852.9,830.7,1010.4,-624.9,1723.5,234.0,-4520.1,933.9,-653.1,-926.1,-1923.9,2090.4,-1396.2,1134.0,-6.6,-5.7,2811.3,1170.9,-0.3,34.8,2113.5,-135.0,0,900,0,23,0, 
0.5033,-206.7,421.8,847.5,827.1,1014.9,-627.9,1722.3,227.4,-6076.2,945.0,-461.4,-769.5,-2142.9,1974.6,-3084.6,1146.6,-7.2,-5.7,2812.5,1193.4,-1.2,105.9,2143.8,-148.8,0,906,0,24,0, 
0.5067,-205.2,404.7,831.9,808.2,984.6,-656.4,1713.9,208.2,-7113.6,897.3,23.4,-571.8,-1998.3,1892.1,-4061.1,1146.6,-6.9,-6.0,2796.0,1161.0,-0.9,89.7,2149.5,-235.5,0,912,0,25,0, 
0.5100,-204.9,380.4,810.6,798.0,986.4,-640.5,1731.9,208.8,-6002.1,873.3,3.6,-486.6,-1944.6,1885.8,-3027.0,1144.8,-6.9,-5.7,2791.5,1155.6,-0.9,67.5,2223.0,-163.8,0,918,0,26,0, 
0.5133,-203.1,381.6,804.3,795.0,987.6,-626.1,1727.1,208.8,-4594.2,914.4,-475.8,-766.2,-1866.3,1936.2,-1418.7,1128.9,-6.6,-6.3,2778.9,1140.6,-0.6,65.4,2183.1,-126.6,0,924,0,27,0, 
0.5167,-218.4,359.1,806.7,801.0,987.0,-629.7,1737.9,210.6,-4668.3,909.0,-812.4,-869.4,-2043.9,1985.4,-1500.3,1117.5,-7.2,-6.0,2811.6,1163.1,-0.6,85.8,2190.0,-185.1,0,930,0,28,0, 
0.5200,-216.3,384.3,835.5,830.4,1015.5,-635.4,1728.3,221.1,-6224.4,911.4,-307.2,-693.0,-2110.8,1968.3,-3135.6,1135.5,-6.9,-6.0,2871.0,1208.4,-0.6,108.6,2117.4,-200.1,0,936,0,29,0, 
0.5233,-196.2,391.2,824.7,822.9,1014.6,-635.4,1720.5,216.3,-7187.7,916.5,26.4,-483.3,-2042.7,1883.1,-4098.9,1106.1,-6.9,-6.0,2856.6,1188.6,-0.6,93.0,2100.3,-149.7,0,942,0,30,0, 
0.5267,-201.0,397.5,830.7,830.4,1024.8,-629.7,1734.3,218.4,-5928.0,901.2,-10.5,-475.8,-1929.0,1833.6,-3047.7,1117.8,-6.6,-6.0,2890.5,1192.2,-0.6,136.2,2192.7,-155.7,0,948,0,31,0, 
0.5300,-189.9,405.0,839.1,833.4,1016.7,-645.6,1721.7,223.5,-4520.1,922.5,-509.1,-686.7,-1904.1,1966.8,-1473.9,1098.3,-6.9,-6.3,2893.8,1166.4,-0.9,94.5,2164.8,-198.0,0,954,0,32,0, 
0.5333,-206.7,379.5,833.4,827.1,1016.1,-620.7,1746.3,219.3,-4520.1,919.2,-726.0,-859.8,-1844.7,2045.1,-1506.9,1109.7,-6.9,-6.0,2889.0,1168.2,-0.9,78.6,2308.5,-120.3,0,960,0,33,0, 
0.5367,-207.9,382.8,836.1,835.8,1023.6,-621.3,1736.1,219.3,-6298.5,927.9,-402.3,-731.4,-1941.9,1916.4,-3187.5,1107.3,-7.2,-5.7,2912.4,1176.6,-0.3,81.6,2188.5,-105.6,0,966,0,34,0, 
0.5400,-219.9,384.9,847.5,851.7,1051.8,-591.6,1747.5,228.6,-7187.7,933.3,83.1,-490.5,-2037.9,1824.9,-4195.2,1092.3,-6.9,-6.0,2946.0,1183.8,-0.6,93.9,2214.3,-53.7,0,972,0,35,0, 
0.5433,-190.2,413.4,874.5,862.2,1048.5,-614.7,1723.8,238.8,-6150.3,966.9,24.9,-411.9,-1875.9,1864.8,-3125.1,1069.5,-6.9,-5.7,2973.9,1184.7,-0.3,81.6,2121.0,-100.5,0,978,0,36,0, 
0.5467,-193.2,393.3,865.2,865.2,1058.4,-631.2,1728.3,246.6,-4520.1,974.4,-541.2,-619.2,-1907.1,2034.0,-1470.3,1110.9,-6.9,-6.0,2980.2,1212.9,-0.9,147.9,2151.9,-170.7,0,984,0,37,0, 
0.5500,-178.2,420.6,868.2,868.2,1065.0,-627.9,1729.2,248.7,-4668.3,958.2,-576.9,-681.3,-1946.4,2077.8,-1542.3,1091.1,-6.9,-5.4,2970.6,1223.7,-0.6,128.4,2132.1,-153.6,0,990,0,38,0, 
0.5533,-174.0,443.1,860.1,859.2,1062.3,-622.5,1743.6,245.4,-6372.6,924.0,-178.2,-587.4,-1853.4,1870.8,-3206.1,1125.0,-7.2,-6.0,2973.9,1224.9,-0.6,120.6,2216.1,-141.6,0,996,0,39,0, 
0.5567,-164.4,479.4,902.1,885.3,1068.0,-608.1,1746.3,255.0,-7261.8,941.7,430.8,-377.1,-2040.9,1760.7,-4236.9,1128.6,-6.9,-5.7,3036.0,1204.5,-0.6,106.8,2190.3,-109.8,0,1002,0,40,0, 
0.5600,-222.3,407.4,882.0,882.6,1080.9,-601.8,1750.8,245.1,-6224.4,976.2,365.4,-505.2,-2155.8,1855.2,-3177.6,1096.8,-6.9,-6.0,3031.5,1229.1,-0.6,141.6,2190.0,-100.8,0,1008,0,41,0, 
0.5633,-201.6,419.1,863.1,861.3,1063.5,-623.1,1749.9,241.8,-4371.9,936.3,-82.8,-660.6,-2016.6,2044.8,-1517.7,1122.9,-6.6,-6.0,3004.5,1222.8,-0.9,143.7,2220.9,-157.5,0,1014,0,42,0, 
0.5667,-206.7,400.2,851.4,850.2,1064.1,-607.8,1748.1,237.6,-4668.3,905.1,-339.3,-731.1,-1946.7,2088.9,-1537.2,1132.5,-6.9,-6.0,2991.3,1219.5,-0.6,166.8,2191.5,-80.1,0,1020,0,43,0, 
0.5700,-205.8,397.5,855.3,842.1,1040.4,-621.6,1743.3,223.8,-6224.4,941.7,73.2,-632.1,-1962.3,2021.7,-3162.3,1155.9,-7.2,-5.4,3012.6,1185.3,-0.9,100.5,2190.9,-78.6,0,1026,0,44,0, 
0.5733,-202.8,378.3,849.3,830.7,1030.5,-640.2,1743.6,216.0,-7261.8,951.0,605.1,-402.3,-1944.6,1917.0,-4137.9,1160.4,-6.9,-6.3,3035.1,1166.1,-1.2,89.1,2232.9,-197.1,0,1032,0,45,0, 
0.5767,-199.8,376.2,832.8,818.4,1008.6,-646.2,1736.7,210.3,-6150.3,937.5,653.4,-411.0,-1856.1,1923.0,-3086.7,1144.5,-6.3,-5.7,3010.2,1114.5,-0.9,69.3,2241.3,-189.3,0,1038,0,46,0, 
0.5800,-187.5,372.9,822.6,816.6,1018.5,-632.7,1737.0,212.4,-4371.9,879.3,153.0,-661.2,-1848.3,2065.5,-1448.4,1149.0,-6.9,-5.7,2985.0,1136.1,-0.9,93.6,2161.5,-59.4,0,1044,0,47,0, 
0.5833,-191.7,382.5,829.8,826.2,1028.1,-632.7,1733.7,222.9,-4668.3,882.0,-38.7,-741.9,-1883.7,2095.2,-1519.5,1150.2,-6.9,-5.7,3005.7,1141.8,-0.9,103.5,2164.5,-65.1,0,1050,0,48,0, 
0.5867,-197.1,393.9,840.9,838.5,1030.5,-648.3,1726.5,217.8,-6372.6,902.7,410.7,-659.4,-2082.0,1997.7,-3176.4,1165.8,-7.2,-6.0,3027.6,1178.4,-0.9,106.5,2171.1,-155.1,0,1056,0,49,0, 
0.5900,-197.4,408.6,845.4,834.0,1017.0,-657.3,1715.4,210.9,-7187.7,912.3,906.3,-460.2,-2097.3,1894.5,-4176.3,1154.4,-6.9,-5.7,3063.3,1164.6,-0.6,92.4,2190.0,-192.9,0,1062,0,50,0, 
0.5933,-199.2,392.4,840.3,835.5,1020.9,-660.3,1713.9,211.8,-6002.1,931.8,738.0,-480.6,-1942.2,1935.0,-3092.1,1142.1,-6.6,-6.0,3053.7,1163.7,-0.9,94.8,2165.1,-187.2,0,1068,0,51,0, 
0.5967,-206.4,417.6,845.1,836.1,1027.2,-655.8,1718.7,219.6,-4594.2,937.5,309.3,-661.2,-2123.4,2025.9,-1525.8,1156.5,-7.2,-5.7,3040.2,1189.2,-0.9,106.2,2196.6,-182.4,0,1074,0,52,0, 
0.6000,-191.4,413.1,836.7,827.7,1014.6,-668.7,1722.6,215.1,-4890.6,902.4,15.0,-795.6,-1962.6,2065.8,-1588.2,1142.7,-7.2,-5.7,3069.3,1167.9,-1.2,80.4,2209.8,-191.1,0,1080,0,53,0, 
0.6033,-222.0,388.8,842.1,838.2,1032.3,-646.2,1726.8,214.8,-6446.7,879.9,318.3,-663.0,-1967.1,1916.4,-3268.8,1151.4,-7.2,-5.7,3086.7,1188.0,-0.9,90.3,2205.3,-162.9,0,1086,0,54,0, 
0.6067,-214.5,351.0,828.0,835.5,1036.5,-651.3,1724.4,211.5,-7410.0,936.3,832.8,-456.9,-1964.4,1888.5,-4239.3,1140.3,-6.6,-5.4,3098.7,1210.2,-0.9,92.4,2178.6,-146.7,0,1092,0,55,0, 
0.6100,-206.7,370.2,818.7,817.2,1028.4,-637.2,1723.5,207.0,-6224.4,890.4,661.8,-506.7,-1944.3,1903.2,-3182.1,1110.0,-7.2,-5.7,3057.9,1180.8,-0.9,91.8,2169.6,-37.5,0,1098,0,56,0, 
0.6133,-199.2,364.5,820.8,816.0,1011.0,-672.3,1720.2,203.1,-4520.1,890.1,113.4,-702.0,-1913.7,2007.9,-1561.2,1116.0,-6.9,-6.3,3077.7,1143.6,-0.9,54.6,2160.9,-129.9,0,1104,0,57,0, 
0.6167,-207.0,388.5,838.5,819.0,1019.7,-661.5,1729.8,209.4,-4742.4,895.5,-150.6,-838.2,-1900.8,1985.1,-1661.7,1118.7,-6.9,-5.1,3103.8,1148.4,-0.3,57.3,2186.4,-126.3,0,1110,0,58,0, 
0.6200,-226.2,368.1,833.1,826.8,1037.1,-648.9,1724.4,199.8,-6446.7,918.0,180.3,-768.9,-1962.0,1909.8,-3336.3,1126.2,-6.9,-6.0,3119.7,1180.5,-0.6,103.2,2158.5,-72.3,0,1116,0,59,0, 
0.6233,-222.9,387.9,852.0,840.0,1041.3,-660.9,1709.4,202.5,-7335.9,934.5,653.7,-497.4,-2079.9,1835.1,-4311.6,1125.6,-6.6,-5.7,3137.4,1212.3,-0.9,106.5,2117.7,-146.1,0,1122,0,60,0, 
0.6267,-205.5,413.7,867.9,846.9,1045.8,-663.0,1715.1,208.5,-6224.4,918.6,623.1,-544.8,-1896.6,1826.4,-3241.5,1101.6,-6.9,-6.0,3150.6,1220.1,-0.9,114.0,2165.7,-178.2,0,1128,0,61,0, 
0.6300,-210.0,404.7,872.7,860.4,1060.8,-645.6,1721.7,226.5,-4816.5,930.9,91.2,-705.9,-1891.8,1957.8,-1628.4,1091.4,-6.9,-6.0,3161.4,1225.5,-0.6,134.7,2170.8,-153.3,0,1134,0,62,0, 
0.6333,-204.6,393.0,859.5,847.5,1053.3,-617.4,1754.1,221.4,-4816.5,915.0,-240.9,-975.0,-1959.9,2061.9,-1707.3,1106.1,-6.9,-5.7,3154.5,1201.8,-0.9,102.3,2317.8,-50.1,0,1140,0,63,0, 
0.6367,-181.5,431.7,877.8,861.3,1047.0,-663.9,1712.4,224.7,-6520.8,948.9,114.3,-939.0,-2090.7,1900.5,-3384.0,1101.6,-6.9,-5.4,3181.8,1197.6,-0.6,119.4,2135.1,-177.3,0,1146,0,64,0, 
0.6400,-195.0,422.1,892.2,878.4,1067.7,-631.5,1731.3,236.7,-7261.8,968.1,620.1,-769.8,-1973.1,1833.0,-4288.8,1094.1,-6.6,-5.4,3173.1,1219.5,-1.5,129.9,2141.7,-77.1,0,1152,0,65,0, 
0.6433,-195.6,446.4,915.9,891.9,1088.1,-628.2,1723.5,244.5,-6298.5,982.2,606.6,-694.2,-1929.9,1847.7,-3229.8,1086.9,-7.2,-5.7,3228.9,1244.1,-0.6,142.2,2119.5,-105.9,0,1158,0,66,0, 
0.6467,-205.8,415.5,895.5,878.1,1074.9,-641.1,1728.0,233.4,-4668.3,933.3,80.4,-1034.1,-1951.8,2059.2,-1622.7,1110.6,-6.9,-5.7,3209.1,1236.3,-0.6,123.3,2161.5,-111.0,0,1164,0,67,0, 
0.6500,-208.2,371.7,867.9,865.2,1069.8,-638.7,1726.5,228.6,-4816.5,939.0,-249.6,-1203.9,-1895.7,2095.2,-1704.9,1114.2,-7.5,-6.0,3175.8,1229.1,-0.6,160.5,2196.9,-105.3,0,1170,0,68,0, 
0.6533,-206.1,389.4,876.0,874.8,1073.4,-630.3,1743.0,233.4,-6446.7,969.0,214.8,-1066.5,-2016.0,1982.4,-3400.2,1118.1,-7.2,-5.7,3193.5,1247.1,-0.6,183.6,2217.6,-114.9,0,1176,0,69,0, 
0.6567,-190.5,426.0,879.6,865.5,1054.8,-642.3,1740.6,223.2,-7335.9,944.1,707.7,-954.9,-1829.4,1836.3,-4337.1,1110.3,-6.3,-5.7,3226.8,1208.1,-0.6,151.2,2208.9,-169.2,0,1182,0,70,0, 
0.6600,-204.6,399.3,867.9,852.3,1052.7,-634.5,1745.1,219.0,-6224.4,948.3,741.6,-832.2,-1935.3,1850.1,-3297.0,1116.0,-6.6,-6.0,3206.1,1202.1,-0.9,118.8,2230.2,-102.6,0,1188,0,71,0, 
0.6633,-213.3,388.5,866.1,846.6,1048.5,-635.1,1743.0,217.5,-4742.4,951.6,141.0,-1116.9,-1970.1,2017.8,-1650.9,1132.5,-6.9,-5.7,3227.7,1200.3,-0.6,123.3,2197.5,-93.6,0,1194,0,72,0, 
0.6667,-204.6,397.8,864.6,844.5,1044.3,-638.7,1740.6,213.0,-4816.5,957.3,-95.4,-1306.2,-1989.9,2063.4,-1739.4,1141.5,-7.2,-5.4,3249.0,1212.3,-0.9,128.4,2212.8,-120.6,0,1200,0,73,0, 
0.6700,-189.0,412.8,859.5,837.9,1030.5,-634.8,1744.2,204.6,-6298.5,941.7,387.3,-1184.4,-2033.1,2000.4,-3372.0,1150.5,-6.6,-6.0,3238.2,1191.0,-0.9,129.9,2238.3,-39.3,0,1206,0,74,0, 
0.6733,-186.0,417.3,851.7,820.5,1025.4,-645.0,1744.2,193.2,-7335.9,911.1,871.5,-1053.9,-1852.2,1808.4,-4339.8,1155.0,-6.3,-5.4,3235.2,1194.3,-0.6,101.4,2285.1,-95.7,0,1212,0,75,0, 
0.6767,-178.8,410.7,858.0,822.9,1023.3,-669.0,1722.0,200.4,-6298.5,931.2,833.1,-1104.6,-1877.7,1859.7,-3264.0,1146.0,-6.6,-5.7,3234.0,1171.5,-0.6,104.4,2187.9,-169.5,0,1218,0,76,0, 
0.6800,-193.8,398.1,852.9,824.1,1019.7,-663.3,1720.5,206.7,-4816.5,970.2,306.6,-1430.7,-1926.6,1949.7,-1676.7,1151.4,-6.6,-6.3,3230.1,1154.7,-0.9,92.1,2164.8,-91.2,0,1224,0,77,0, 
0.6833,-198.0,380.1,833.7,815.7,1021.8,-661.5,1729.2,202.8,-4890.6,898.8,-24.6,-1532.4,-1942.8,2053.5,-1806.0,1140.9,-6.9,-6.0,3210.9,1182.0,-0.6,129.0,2202.0,-109.2,0,1230,0,78,0, 
0.6867,-198.0,376.5,839.7,826.5,1032.9,-666.0,1724.4,193.8,-6669.0,923.7,228.0,-1422.0,-2076.6,1938.3,-3475.8,1144.5,-6.9,-5.7,3232.5,1195.5,-0.3,145.2,2199.9,-162.9,0,1236,0,79,0, 
0.6900,-199.2,400.5,851.1,827.7,1030.2,-668.4,1727.7,191.1,-7410.0,923.7,701.4,-1212.9,-2126.4,1852.2,-4414.5,1146.9,-6.9,-6.0,3243.6,1206.0,-0.6,114.9,2226.9,-185.1,0,1242,0,80,0, 
0.6933,-193.5,401.7,850.5,820.5,1012.5,-682.8,1715.4,193.5,-6298.5,941.4,618.9,-1227.0,-1788.3,1857.6,-3249.3,1142.4,-6.9,-5.4,3246.0,1163.1,-0.6,86.1,2196.0,-218.7,0,1248,0,81,0, 
0.6967,-188.7,391.2,834.6,813.0,1015.5,-684.0,1713.3,194.7,-4668.3,886.5,187.8,-1359.6,-1914.3,1959.3,-1653.3,1140.0,-6.9,-6.0,3224.1,1177.5,-0.9,118.8,2207.1,-188.1,0,1254,0,82,0, 
0.7000,-198.6,385.5,844.8,823.5,1036.2,-661.5,1716.3,203.4,-5112.9,926.1,-102.3,-1513.2,-2063.1,2014.2,-1865.7,1147.5,-6.3,-6.3,3242.4,1212.0,-0.9,130.2,2166.6,-128.7,0,1260,0,83,0, 
0.7033,-193.5,428.7,870.0,838.2,1052.4,-637.8,1735.5,207.3,-6817.2,914.4,-129.6,-1576.2,-2030.7,1866.3,-3687.0,1119.3,-6.9,-5.7,3283.5,1230.0,-1.2,150.0,2217.9,-83.7,0,1266,0,84,0, 
0.7067,-174.9,428.4,862.5,832.2,1032.0,-660.0,1720.2,204.3,-7632.3,959.1,147.9,-1420.2,-1905.3,1820.4,-4518.3,1115.4,-7.2,-6.0,3270.3,1188.3,-0.3,126.9,2175.9,-112.2,0,1272,0,85,0, 
0.7100,-176.7,444.9,870.9,836.1,1036.2,-660.3,1719.9,210.0,-6224.4,934.8,283.8,-1316.7,-1896.9,1722.6,-3237.9,1106.4,-6.9,-6.3,3282.6,1187.1,-0.6,101.1,2139.6,-92.1,0,1278,0,86,0, 
0.7133,-219.3,362.7,834.6,819.3,1029.9,-635.7,1735.8,198.9,-4668.3,911.7,154.8,-1438.8,-2068.8,1959.9,-1560.6,1143.0,-6.9,-6.0,3270.0,1178.1,-1.2,84.6,2169.3,-9.6,0,1284,0,87,0, 
0.7167,-201.3,367.5,844.2,821.4,1028.1,-646.5,1727.7,195.0,-5038.8,930.3,-148.5,-1589.1,-1946.1,2046.0,-1842.6,1110.9,-6.6,-5.7,3300.0,1169.7,-0.3,57.9,2152.2,-20.1,0,1290,0,88,0, 
0.7200,-199.5,383.7,840.3,824.1,1035.6,-667.2,1714.8,197.7,-6743.1,936.0,-360.6,-1612.2,-1934.1,1937.1,-3727.8,1105.2,-6.9,-5.7,3275.7,1207.5,-1.2,105.9,2152.5,-145.8,0,1296,0,89,0, 
0.7233,-192.9,375.3,836.4,822.9,1032.3,-685.8,1711.8,184.8,-7632.3,891.9,-181.2,-1458.6,-2039.4,1820.7,-4572.0,1138.5,-6.6,-5.7,3258.6,1208.7,-0.9,98.7,2169.0,-258.6,0,1302,0,90,0, 
0.7267,-204.3,379.8,843.6,831.6,1042.8,-663.6,1728.3,192.9,-6150.3,888.9,109.5,-1274.4,-1908.6,1835.1,-3211.5,1122.9,-6.9,-5.7,3286.5,1224.6,-1.2,141.3,2232.3,-180.9,0,1308,0,91,0, 
0.7300,-198.3,378.6,831.0,818.1,1029.9,-672.3,1718.4,194.7,-4520.1,906.9,138.9,-1292.4,-1830.3,1963.2,-1527.3,1114.2,-6.6,-5.7,3264.0,1195.5,-0.9,106.8,2187.9,-164.7,0,1314,0,92,0, 
0.7333,-197.7,391.2,841.5,831.6,1046.1,-647.4,1735.2,209.7,-5038.8,940.8,-207.6,-1449.9,-1901.1,1982.7,-1867.5,1103.1,-6.6,-5.7,3256.2,1203.9,-1.2,148.5,2222.4,-134.1,0,1320,0,93,0, 
0.7367,-176.1,438.6,882.3,849.9,1033.5,-675.6,1719.0,219.3,-6891.3,961.8,-474.0,-1470.9,-1894.2,1871.1,-3768.6,1089.3,-6.9,-5.7,3315.9,1162.8,-0.6,87.3,2165.7,-177.9,0,1326,0,94,0, 
0.7400,-185.1,391.5,856.5,842.4,1047.0,-654.3,1728.9,206.7,-7706.4,913.8,-212.4,-1285.8,-1997.7,1778.7,-4603.5,1152.9,-6.9,-5.4,3308.1,1199.1,-0.9,118.8,2231.1,-137.1,0,1332,0,95,0, 
0.7433,-167.7,442.8,891.6,871.2,1084.2,-616.8,1736.4,226.5,-6298.5,953.4,4.8,-1299.0,-2037.0,1822.5,-3224.1,1130.1,-6.9,-5.7,3341.4,1265.4,-0.9,183.0,2160.6,-58.8,0,1338,0,96,0, 
0.7467,-170.7,464.1,900.3,880.5,1092.6,-603.0,1749.0,236.4,-4594.2,988.8,83.1,-1253.4,-1958.1,1959.9,-1504.5,1119.6,-6.6,-6.0,3369.0,1263.0,-0.6,189.9,2184.3,-75.0,0,1344,0,97,0, 
0.7500,-162.3,476.1,920.4,890.1,1092.9,-615.6,1733.7,240.9,-4964.7,995.7,-204.6,-1494.6,-1856.7,2052.3,-1814.4,1118.7,-6.6,-5.7,3397.8,1269.3,-1.2,173.1,2150.4,-92.4,0,1350,0,98,0, 
0.7533,-169.5,448.2,907.8,888.6,1098.0,-625.5,1743.3,234.6,-6965.4,1003.2,-459.6,-1576.5,-1842.6,1911.9,-3708.0,1146.0,-7.2,-6.0,3375.0,1283.1,-0.9,194.7,2198.1,-134.4,0,1356,0,99,0, 
0.7567,-148.2,480.0,895.8,867.3,1067.4,-633.0,1741.2,220.2,-7558.2,953.4,-306.3,-1438.8,-1931.1,1823.7,-4568.4,1125.0,-7.5,-5.7,3357.9,1238.1,-0.9,138.0,2209.2,-132.6,0,1362,0,100,0, 
0.7600,-158.1,448.5,864.9,847.8,1052.1,-633.3,1737.6,210.9,-6224.4,940.2,122.1,-1343.1,-2036.1,1824.3,-3180.0,1140.6,-6.9,-6.0,3315.0,1205.1,-1.2,89.4,2209.5,-83.7,0,1368,0,101,0, 
0.7633,-175.5,420.6,853.5,832.8,1043.4,-634.8,1721.7,204.3,-4446.0,906.3,105.6,-1472.4,-1901.4,2011.5,-1431.3,1111.8,-6.9,-5.7,3301.5,1206.6,-0.6,105.9,2149.5,-62.7,0,1374,0,102,0, 
0.7667,-187.5,384.6,833.4,825.9,1047.6,-617.1,1746.3,199.8,-4890.6,931.2,-143.1,-1700.4,-1859.1,2034.3,-1782.9,1151.7,-7.5,-5.7,3288.9,1190.7,-0.6,108.9,2229.3,-49.8,0,1380,0,103,0, 
0.7700,-172.2,391.5,822.0,805.5,1014.3,-657.6,1725.3,181.5,-6817.2,909.3,-288.0,-1875.0,-1948.8,1898.1,-3724.5,1152.0,-7.2,-5.4,3268.2,1191.9,-0.6,121.5,2198.4,-172.8,0,1386,0,104,0, 
0.7733,-175.2,390.6,847.5,825.3,1036.2,-643.2,1729.5,188.1,-7632.3,933.3,-137.4,-1771.2,-2019.6,1738.5,-4585.8,1116.3,-7.5,-6.3,3314.4,1219.8,-0.9,146.1,2197.5,-158.7,0,1392,0,105,0, 
0.7767,-207.9,380.7,830.7,812.1,1021.2,-641.4,1728.6,177.6,-6150.3,903.9,189.3,-1636.8,-2085.6,1846.2,-3197.4,1140.9,-6.6,-5.7,3309.9,1203.6,-0.6,118.8,2185.8,-113.7,0,1398,0,106,0, 
0.7800,-187.8,413.1,846.9,814.5,1019.1,-664.5,1725.0,189.9,-4594.2,920.1,117.6,-1742.1,-1842.0,1998.9,-1455.9,1140.3,-7.2,-6.0,3336.6,1190.1,-1.2,122.7,2226.0,-199.5,0,1404,0,107,0, 
0.7833,-187.5,384.9,839.1,811.8,1015.8,-669.0,1722.9,186.6,-4890.6,965.1,-95.1,-1971.9,-1899.3,2044.5,-1769.1,1154.7,-6.6,-5.7,3328.2,1190.7,-0.6,102.0,2152.2,-201.3,0,1410,0,108,0, 
0.7867,-191.1,380.7,819.6,805.8,1020.0,-660.6,1722.3,178.8,-6743.1,910.2,-319.5,-1950.9,-2032.8,1951.5,-3683.4,1148.4,-6.9,-5.7,3300.6,1193.7,-0.9,131.1,2158.5,-111.3,0,1416,0,109,0, 
0.7900,-184.8,372.6,819.6,798.9,1012.5,-676.2,1715.1,171.0,-7410.0,932.1,-70.5,-1834.2,-1886.7,1882.8,-4484.1,1158.0,-6.9,-5.7,3311.4,1176.3,-0.9,112.5,2158.2,-163.8,0,1422,0,110,0, 
0.7933,-189.9,375.6,818.7,801.9,1013.4,-654.9,1728.9,175.5,-6002.1,885.3,49.2,-1800.9,-1945.5,1882.2,-3117.0,1166.1,-6.9,-5.7,3310.5,1178.1,-0.6,87.6,2181.3,-87.3,0,1428,0,111,0, 
0.7967,-168.6,431.4,834.9,808.5,1012.5,-657.0,1724.4,191.4,-4297.8,899.4,272.1,-1831.8,-1885.8,1980.3,-1422.3,1140.3,-6.6,-6.0,3304.2,1170.3,-0.6,101.7,2192.7,-175.5,0,1434,0,112,0, 
0.8000,-166.5,418.8,834.0,812.1,1002.6,-666.9,1711.8,190.2,-4964.7,944.1,-28.8,-1941.9,-1844.1,1989.3,-1778.1,1139.1,-6.9,-6.3,3332.1,1181.7,-0.6,94.8,2139.0,-213.3,0,1440,0,113,0, 
0.8033,-188.1,386.4,826.8,820.2,1022.4,-628.5,1740.6,182.4,-6743.1,934.8,-225.9,-2042.7,-1974.3,1918.2,-3732.9,1116.0,-6.9,-5.4,3334.2,1209.3,-0.9,112.5,2235.3,-119.7,0,1446,0,114,0, 
0.8067,-189.3,394.2,836.1,827.1,1025.7,-626.7,1739.4,187.5,-7632.3,941.4,-131.4,-1816.5,-1993.5,1740.9,-4586.4,1128.6,-6.6,-5.4,3351.9,1199.1,-1.2,128.7,2200.2,-79.5,0,1452,0,115,0, 
0.8100,-190.2,377.1,826.8,822.0,1016.4,-657.3,1711.2,185.1,-6076.2,932.1,143.4,-1646.1,-1995.3,1883.4,-3149.4,1120.5,-7.2,-5.7,3321.3,1182.9,-0.9,109.8,2135.7,-142.8,0,1458,0,116,0, 
0.8133,-164.7,415.5,844.2,832.5,1011.6,-659.7,1723.8,195.9,-4446.0,928.8,114.3,-1635.3,-1865.4,1990.2,-1410.3,1136.7,-7.5,-6.0,3353.1,1189.5,-0.9,106.2,2204.7,-165.6,0,1464,0,117,0, 
0.8167,-159.6,431.4,831.0,826.8,1012.5,-653.1,1726.2,195.0,-4964.7,901.2,-405.3,-1881.6,-1902.0,1957.2,-1822.2,1125.0,-7.2,-6.0,3326.7,1196.1,-0.6,129.6,2196.3,-153.3,0,1470,0,118,0, 
0.8200,-183.0,396.3,815.7,818.7,1008.9,-650.7,1725.9,177.6,-6817.2,854.1,-710.7,-1886.4,-2146.5,1833.9,-3769.2,1157.4,-6.9,-5.7,3311.1,1203.9,-0.3,130.8,2209.5,-212.7,0,1476,0,119,0, 
0.8233,-186.6,405.0,836.7,834.6,1024.2,-639.3,1730.7,185.1,-7558.2,908.4,-579.0,-1919.1,-2027.1,1739.1,-4594.5,1160.1,-7.2,-6.0,3330.0,1212.6,-0.6,129.3,2184.0,-133.8,0,1482,0,120,0, 
0.8267,-189.9,369.6,831.6,833.4,1022.7,-643.8,1724.4,187.2,-6224.4,922.5,-288.6,-1877.7,-1963.8,1842.6,-3150.3,1138.5,-7.2,-6.0,3315.0,1206.9,-0.9,121.8,2150.7,-112.5,0,1488,0,121,0, 
0.8300,-186.6,393.3,835.2,828.3,1016.4,-645.6,1731.9,188.7,-4594.2,909.9,-102.0,-1922.7,-1842.9,1962.6,-1438.2,1155.0,-6.9,-5.7,3333.0,1209.0,-0.9,133.2,2227.5,-160.2,0,1494,0,122,0, 
0.8333,-185.4,388.8,848.1,844.2,1040.1,-633.9,1725.3,197.4,-4890.6,935.1,-352.5,-1950.3,-1962.0,2010.9,-1804.5,1107.3,-6.9,-5.7,3353.1,1243.2,-0.6,135.3,2139.9,-133.8,0,1500,0,123,0, 
0.8367,-180.9,389.1,835.8,834.3,1035.3,-634.2,1734.6,189.3,-6817.2,921.0,-642.0,-2016.0,-1932.3,1924.5,-3711.6,1126.8,-6.6,-6.0,3330.9,1217.1,-0.9,127.8,2199.9,-116.4,0,1506,0,124,0, 
0.8400,-170.4,408.3,848.1,832.8,1021.5,-634.5,1733.7,180.6,-7558.2,932.7,-487.2,-1904.7,-1959.0,1806.0,-4524.3,1126.2,-6.6,-5.7,3368.4,1209.9,-0.9,119.4,2196.3,-125.1,0,1512,0,125,0, 
0.8433,-160.2,422.7,858.6,846.0,1028.7,-636.9,1731.9,190.5,-6150.3,932.1,-282.9,-1944.9,-1917.6,1867.2,-3078.9,1124.7,-6.6,-5.7,3387.9,1215.3,-1.2,132.9,2154.9,-151.5,0,1518,0,126,0, 
0.8467,-178.5,408.3,846.0,840.3,1024.5,-627.9,1737.6,189.6,-4446.0,904.8,-261.9,-1972.5,-1845.6,2039.1,-1361.7,1108.2,-6.9,-5.7,3384.6,1216.8,-0.9,122.4,2182.2,-139.2,0,1524,0,127,0, 
0.8500,-166.2,420.6,857.1,847.5,1037.4,-626.4,1744.2,198.6,-4816.5,955.2,-594.6,-2156.1,-1830.3,2029.5,-1758.3,1139.4,-6.6,-5.7,3384.6,1238.4,-0.9,139.8,2234.4,-107.4,0,1530,0,128,0, 
0.8533,-161.4,446.1,865.2,852.3,1037.4,-631.5,1739.7,193.8,-6817.2,937.5,-756.6,-2186.1,-2135.4,1857.3,-3730.5,1121.4,-6.9,-5.7,3385.8,1236.0,-0.9,131.4,2193.6,-146.1,0,1536,0,129,0, 
0.8567,-162.6,469.2,881.1,856.5,1041.3,-626.7,1732.2,197.1,-7484.1,944.7,-509.4,-2020.2,-1974.0,1806.0,-4509.6,1123.2,-6.9,-5.4,3405.6,1239.0,-0.3,155.7,2145.3,-106.5,0,1542,0,130,0, 
0.8600,-174.3,405.6,839.4,830.4,1023.6,-634.8,1734.3,175.5,-6076.2,927.6,-132.3,-1823.7,-1935.3,1866.9,-3070.8,1135.5,-7.2,-6.0,3377.7,1221.9,-0.6,138.6,2163.0,-111.6,0,1548,0,131,0, 
0.8633,-177.6,418.2,834.0,821.7,1018.8,-641.4,1732.5,177.3,-4371.9,901.2,-50.1,-1916.1,-1861.8,2007.3,-1354.8,1132.8,-6.6,-5.4,3372.6,1221.0,-0.9,132.9,2177.7,-114.9,0,1554,0,132,0, 
0.8667,-161.4,420.3,838.8,824.1,1013.1,-642.3,1731.6,173.4,-4890.6,920.1,-129.0,-2135.7,-1890.9,1972.2,-1733.7,1107.0,-7.2,-6.0,3401.4,1207.8,-0.6,109.5,2163.3,-89.7,0,1560,0,133,0, 
0.8700,-187.8,387.6,825.3,814.8,1011.9,-639.3,1725.9,162.3,-6743.1,918.6,-356.1,-2313.9,-2039.1,1869.9,-3676.5,1120.2,-6.9,-6.0,3394.2,1201.2,-0.9,107.7,2115.6,-36.9,0,1566,0,134,0, 
0.8733,-183.3,393.0,838.2,818.7,1019.1,-647.4,1740.9,157.2,-7558.2,928.5,-178.8,-2262.0,-1978.8,1770.9,-4504.5,1134.3,-6.6,-6.0,3412.8,1214.7,-0.6,129.9,2207.7,-146.1,0,1572,0,135,0, 
0.8767,-190.5,374.4,814.5,801.3,999.3,-675.0,1712.7,142.2,-6076.2,912.0,83.7,-2231.1,-1964.7,1881.3,-3058.5,1162.5,-6.3,-5.7,3374.7,1196.4,-0.9,128.1,2131.5,-219.6,0,1578,0,136,0, 
0.8800,-169.8,411.0,813.3,800.7,987.6,-679.2,1719.3,147.3,-4446.0,917.1,46.2,-2317.5,-1845.0,1983.6,-1353.3,1137.6,-7.5,-5.7,3375.9,1204.8,-1.2,148.8,2196.3,-236.7,0,1584,0,137,0, 
0.8833,-171.6,423.3,834.3,810.6,993.0,-659.1,1725.6,159.0,-4964.7,901.2,-317.1,-2579.4,-1957.8,2001.3,-1780.5,1136.4,-6.6,-5.4,3410.7,1190.7,-0.6,110.4,2156.1,-198.0,0,1590,0,138,0, 
0.8867,-215.7,352.8,777.3,784.2,980.4,-632.7,1752.0,132.3,-6891.3,859.5,-510.3,-2654.1,-2068.5,1874.7,-3733.5,1158.0,-6.9,-6.0,3356.7,1181.4,-0.3,103.5,2283.6,-77.7,0,1596,0,139,0, 
0.8900,-212.7,323.4,770.1,782.1,981.3,-657.6,1733.7,121.8,-7558.2,864.6,-330.3,-2436.9,-2122.5,1818.9,-4540.8,1149.6,-7.2,-6.3,3348.0,1187.4,-0.6,116.7,2210.4,-111.6,0,1602,0,140,0, 
0.8933,-181.2,385.2,786.6,785.4,975.6,-664.2,1713.3,128.7,-6002.1,910.5,-81.3,-2291.7,-1942.8,1867.2,-3069.9,1144.5,-6.9,-6.0,3349.2,1181.7,-0.9,112.5,2133.0,-88.8,0,1608,0,141,0, 
0.8967,-179.1,394.8,803.4,790.2,965.7,-693.3,1711.8,133.8,-4446.0,918.3,-157.8,-2244.3,-1864.8,1983.6,-1375.2,1128.9,-6.9,-6.0,3389.4,1172.1,-0.9,117.9,2138.1,-236.4,0,1614,0,142,0, 
0.9000,-191.4,374.7,800.4,796.2,974.1,-681.3,1714.2,133.8,-4964.7,899.4,-505.2,-2504.1,-1968.3,2012.7,-1792.2,1123.8,-6.6,-6.0,3396.3,1185.0,-0.6,123.3,2178.0,-203.1,0,1620,0,143,0, 
0.9033,-206.4,353.7,791.4,792.3,976.8,-660.6,1724.7,134.1,-6743.1,870.3,-628.8,-2542.8,-2002.2,1898.7,-3671.7,1134.3,-6.9,-6.0,3410.1,1170.3,-0.9,112.8,2170.5,-147.0,0,1626,0,144,0, 
0.9067,-187.5,389.7,798.0,790.2,972.9,-655.2,1732.5,133.5,-7484.1,885.0,-337.8,-2366.4,-1942.2,1756.5,-4503.9,1113.3,-6.9,-5.7,3394.8,1181.4,-0.6,117.0,2227.2,-129.0,0,1632,0,145,0, 
0.9100,-194.1,368.4,773.7,774.6,969.0,-658.8,1728.6,127.5,-6224.4,849.9,-78.0,-2226.0,-1943.7,1743.9,-3123.0,1136.7,-6.9,-6.0,3351.0,1159.8,-0.9,94.8,2199.3,-152.4,0,1638,0,146,0, 
0.9133,-227.4,348.3,802.8,804.9,988.5,-660.6,1721.4,144.6,-4446.0,927.6,-12.3,-2280.0,-1946.7,1917.0,-1391.1,1174.5,-6.9,-6.0,3414.9,1160.4,-0.6,123.9,2111.1,-178.8,0,1644,0,147,0, 
0.9167,-215.4,354.9,784.8,792.9,981.9,-635.4,1752.0,140.1,-4890.6,910.8,-333.0,-2373.0,-2035.8,2025.6,-1792.2,1149.9,-6.9,-5.7,3395.1,1173.9,-0.9,105.9,2243.1,-95.4,0,1650,0,148,0, 
0.9200,-179.7,420.6,823.2,810.9,986.1,-656.4,1731.0,152.1,-6743.1,950.4,-481.2,-2311.8,-1992.3,1793.4,-3699.6,1164.9,-6.6,-5.4,3429.0,1179.3,-1.2,117.3,2181.0,-173.1,0,1656,0,149,0, 
0.9233,-208.2,382.5,807.6,816.9,994.8,-653.1,1735.8,153.9,-7410.0,900.6,-397.8,-2178.6,-2135.7,1737.9,-4511.7,1128.3,-7.2,-5.7,3394.2,1194.9,-0.9,163.5,2215.8,-205.5,0,1662,0,150,0, 
0.9267,-191.7,383.1,816.3,820.2,994.2,-654.0,1728.9,157.8,-5928.0,907.5,-42.6,-2030.4,-1826.4,1908.0,-3005.7,1134.9,-7.2,-5.7,3387.0,1196.7,-0.6,175.5,2149.2,-207.0,0,1668,0,151,0, 
0.9300,-200.7,359.1,806.1,819.3,1006.2,-610.5,1755.3,158.7,-4446.0,881.4,51.0,-2120.4,-1813.2,1955.1,-1318.2,1148.1,-6.6,-5.4,3411.0,1215.3,-0.9,147.0,2227.2,-34.5,0,1674,0,152,0, 
0.9333,-195.9,410.1,840.6,839.1,1015.5,-631.5,1743.9,172.5,-4890.6,937.5,-225.3,-2315.4,-1908.9,2031.9,-1729.8,1131.0,-7.5,-5.7,3452.1,1222.2,-0.6,132.3,2216.7,-114.9,0,1680,0,153,0, 
0.9367,-195.3,424.2,832.8,837.0,1012.5,-650.1,1741.8,165.6,-6743.1,897.9,-449.4,-2460.9,-2125.8,1909.8,-3649.8,1160.1,-7.2,-5.7,3442.5,1216.8,-0.6,159.0,2181.0,-175.8,0,1686,0,154,0, 
0.9400,-176.7,411.3,839.7,844.8,1017.0,-630.6,1742.1,167.7,-7484.1,923.4,-408.6,-2437.2,-1924.2,1846.2,-4428.6,1128.3,-6.6,-5.7,3450.9,1218.6,-0.6,163.2,2193.3,-161.7,0,1692,0,155,0, 
0.9433,-174.6,414.0,838.8,842.4,1005.9,-637.8,1738.8,171.6,-6150.3,932.1,-150.0,-2223.6,-1890.6,1794.6,-3054.0,1137.3,-6.9,-6.0,3444.9,1199.4,-0.9,130.2,2175.0,-153.9,0,1698,0,156,0, 
0.9467,-199.2,389.1,832.5,839.7,1004.7,-634.2,1731.6,174.0,-4297.8,942.0,-75.9,-2198.1,-1890.0,2011.2,-1326.3,1143.6,-6.9,-5.4,3456.3,1186.5,-0.6,152.1,2132.4,-121.5,0,1704,0,157,0, 
0.9500,-189.9,378.0,821.1,834.0,996.3,-621.0,1751.7,172.2,-4890.6,928.2,-404.1,-2321.1,-1902.6,2072.1,-1667.7,1153.8,-7.2,-6.0,3453.9,1202.7,-0.9,150.0,2198.7,-92.1,0,1710,0,158,0, 
0.9533,-194.1,396.6,820.5,823.2,985.5,-635.1,1751.4,159.3,-6594.9,914.7,-676.8,-2397.3,-2059.2,1955.1,-3586.2,1162.8,-6.9,-6.0,3468.9,1194.9,-1.2,144.3,2241.6,-115.5,0,1716,0,159,0, 
0.9567,-184.2,406.2,811.2,823.2,993.6,-609.0,1751.1,155.7,-7484.1,888.0,-569.1,-2280.9,-2039.4,1826.1,-4376.4,1169.4,-6.9,-6.0,3440.4,1196.7,-1.5,122.4,2190.6,-17.7,0,1722,0,160,0, 
0.9600,-186.0,411.3,812.4,816.0,989.4,-621.3,1746.9,148.2,-6002.1,872.4,-324.9,-2163.9,-1904.1,1871.7,-2928.9,1111.5,-6.9,-5.7,3455.1,1199.1,-0.6,106.8,2229.6,-114.3,0,1728,0,161,0, 
0.9633,-122.1,471.0,807.6,797.4,957.0,-683.4,1716.6,153.3,-4297.8,861.0,-447.0,-2255.1,-1834.2,1851.9,-1313.7,1113.0,-6.3,-5.7,3407.1,1151.4,-1.2,56.4,2168.7,-246.9,0,1734,0,162,0, 
0.9667,-208.5,383.4,806.7,814.8,981.9,-665.4,1717.5,154.5,-4816.5,890.4,-831.0,-2406.6,-1995.0,1886.7,-1753.8,1160.4,-6.9,-6.0,3433.2,1187.7,-0.9,136.8,2085.6,-198.3,0,1740,0,163,0, 
0.9700,-203.1,360.0,784.8,798.6,968.7,-664.8,1726.5,139.2,-6743.1,907.5,-1197.3,-2424.6,-2035.2,1930.8,-3656.7,1149.9,-6.6,-5.7,3419.4,1160.1,-0.9,128.7,2138.4,-196.2,0,1746,0,164,0, 
0.9733,-214.5,322.8,769.5,781.8,948.3,-687.9,1718.4,120.3,-7410.0,900.6,-987.9,-2308.5,-2048.7,1847.7,-4411.5,1156.2,-7.2,-5.7,3408.6,1148.7,-0.9,101.4,2147.7,-229.5,0,1752,0,165,0, 
0.9767,-182.7,383.1,796.8,793.5,958.5,-689.7,1709.1,128.1,-5928.0,915.6,-819.3,-2191.5,-1913.1,1889.4,-2940.3,1133.4,-6.6,-5.7,3445.5,1151.7,-1.2,81.6,2129.7,-238.8,0,1758,0,166,0, 
0.9800,-202.2,354.9,776.7,779.7,954.6,-657.6,1728.3,125.1,-4297.8,862.2,-1001.4,-2257.5,-1867.8,1971.3,-1283.7,1132.8,-6.9,-5.7,3427.8,1158.0,-0.6,90.6,2211.9,-173.1,0,1764,0,167,0, 
0.9833,-211.2,342.9,771.0,783.3,948.6,-669.3,1726.5,126.9,-4890.6,849.0,-1265.1,-2323.8,-1959.9,2029.2,-1718.4,1124.7,-7.2,-5.7,3418.2,1174.5,-0.9,88.8,2221.2,-208.8,0,1770,0,168,0, 
0.9867,-210.3,368.4,785.7,786.6,948.9,-679.8,1707.3,132.0,-6817.2,857.7,-1578.6,-2393.4,-2037.9,1891.8,-3645.9,1157.1,-6.9,-5.7,3429.9,1158.3,-1.2,94.5,2117.4,-178.5,0,1776,0,169,0, 
0.9900,-199.5,398.1,780.0,774.0,935.1,-664.5,1719.3,121.5,-7484.1,884.1,-1542.0,-2227.2,-2003.1,1761.0,-4483.8,1143.3,-6.9,-6.0,3396.3,1128.3,-0.6,67.2,2150.7,-125.4,0,1782,0,170,0, 
0.9933,-191.7,399.0,779.4,775.5,944.4,-669.6,1714.8,127.8,-6150.3,843.3,-1362.0,-2221.8,-1986.3,1758.3,-3156.6,1146.0,-6.9,-5.7,3392.1,1142.4,-0.6,60.0,2145.3,-142.8,0,1788,0,171,0, 
0.9967,-208.8,395.4,788.1,794.7,961.5,-682.8,1707.0,132.3,-4742.4,878.4,-1443.9,-2311.5,-1947.6,1862.4,-1601.1,1126.8,-6.9,-6.0,3421.2,1173.0,-0.6,106.2,2137.5,-210.0,0,1794,0,172,0, 
1.0000,-203.4,390.6,786.6,789.6,954.9,-680.7,1715.1,133.2,-5112.9,882.9,-1756.8,-2457.0,-2180.4,1911.9,-2016.6,1115.4,-6.9,-6.0,3436.2,1157.4,-0.6,92.7,2172.9,-227.4,0,1800,0,173,0, 
1.0033,-226.2,353.7,783.9,795.9,970.5,-656.4,1727.7,132.0,-6891.3,889.5,-1985.4,-2489.4,-1995.9,1843.5,-3764.7,1149.9,-6.9,-5.4,3437.4,1164.9,-0.9,96.6,2150.4,-146.1,0,1806,0,174,0, 
1.0067,-232.2,331.2,754.8,771.6,954.0,-644.4,1746.9,120.3,-7632.3,846.9,-1830.6,-2374.8,-2029.5,1751.4,-4520.7,1137.6,-7.2,-6.0,3391.2,1154.7,-0.3,102.6,2282.1,-171.6,0,1812,0,175,0, 
1.0100,-191.7,378.6,766.2,775.8,945.9,-640.5,1733.4,127.2,-6002.1,837.3,-1544.4,-2270.1,-1861.5,1722.9,-3025.2,1093.8,-6.9,-5.4,3402.6,1137.9,-0.6,70.5,2158.2,-114.0,0,1818,0,176,0, 
1.0133,-219.9,344.1,777.6,803.1,973.8,-641.7,1720.2,145.8,-4223.7,917.1,-1439.1,-2287.8,-1979.7,1974.6,-1223.1,1098.0,-6.9,-5.7,3420.0,1199.7,-0.6,129.0,2077.8,-137.1,0,1824,0,177,0, 
1.0167,-212.1,350.7,782.7,801.3,955.5,-664.5,1719.6,140.1,-4742.4,914.1,-1708.2,-2436.6,-1917.3,2032.8,-1585.2,1136.1,-7.2,-5.7,3447.0,1169.4,-0.9,93.6,2109.3,-218.7,0,1830,0,178,0, 
1.0200,-181.8,399.3,804.0,811.8,964.2,-666.6,1711.2,144.0,-6520.8,924.0,-1919.1,-2389.8,-1871.1,1923.6,-3482.4,1089.6,-6.9,-6.3,3477.0,1182.9,-0.6,127.2,2105.7,-258.9,0,1836,0,179,0, 
1.0233,-184.8,419.7,817.2,818.1,963.3,-660.3,1706.4,140.4,-7558.2,911.1,-1721.7,-2248.2,-1913.1,1800.6,-4281.3,1086.3,-6.9,-5.7,3495.3,1161.9,-1.2,80.4,2082.3,-198.3,0,1842,0,180,0, 
1.0267,-207.0,376.8,800.4,815.4,972.0,-634.5,1727.7,145.2,-5853.9,867.3,-1343.7,-2006.7,-1892.4,1834.5,-2904.6,1093.8,-6.9,-5.7,3454.8,1181.4,-0.6,118.2,2150.1,-141.9,0,1848,0,181,0, 
1.0300,-223.8,349.2,788.7,807.0,962.7,-649.2,1726.8,146.1,-4297.8,882.6,-1470.6,-2164.8,-1926.6,2009.4,-1216.8,1136.4,-6.9,-5.7,3448.2,1176.9,-0.6,120.9,2172.9,-225.0,0,1854,0,182,0, 
1.0333,-186.9,409.2,802.5,807.6,954.6,-653.1,1713.3,153.0,-4890.6,888.0,-1746.3,-2354.4,-1892.7,2005.8,-1627.8,1091.1,-6.6,-5.7,3467.7,1152.6,-0.9,121.5,2116.8,-209.1,0,1860,0,183,0, 
1.0367,-205.2,410.7,814.2,819.0,961.8,-648.0,1727.7,152.7,-6669.0,915.9,-1999.5,-2433.9,-2091.6,1856.7,-3546.9,1119.9,-6.6,-5.7,3472.5,1173.3,-0.9,130.8,2131.8,-180.3,0,1866,0,184,0, 
1.0400,-202.5,427.2,806.4,816.9,958.5,-631.5,1741.5,150.9,-7410.0,899.4,-1848.3,-2286.3,-2040.6,1787.4,-4350.3,1116.0,-6.9,-5.7,3459.0,1176.3,-0.9,101.1,2165.4,-87.9,0,1872,0,185,0, 
1.0433,-193.2,400.2,808.8,820.8,965.4,-641.4,1729.5,145.8,-6150.3,901.5,-1603.5,-2074.8,-1905.6,1796.1,-2935.2,1124.1,-6.9,-5.4,3477.0,1182.6,-1.2,84.9,2169.9,-130.8,0,1878,0,186,0, 
1.0467,-218.4,378.9,799.8,815.4,969.6,-638.4,1731.3,144.6,-4371.9,868.2,-1564.5,-1907.1,-2017.8,1984.5,-1285.2,1143.0,-7.2,-6.3,3448.5,1194.9,-0.6,165.6,2142.3,-186.9,0,1884,0,187,0, 
1.0500,-215.1,382.5,780.6,789.0,940.8,-635.4,1754.1,122.7,-4816.5,852.6,-1928.1,-2137.5,-1968.0,1947.0,-1701.0,1143.3,-7.5,-6.3,3441.9,1185.0,-0.9,140.7,2307.3,-141.6,0,1890,0,188,0, 
1.0533,-218.1,373.5,779.4,783.0,930.9,-663.0,1721.1,113.1,-6669.0,887.4,-2157.6,-2181.9,-2018.7,1829.7,-3620.1,1109.4,-6.9,-5.7,3445.8,1135.2,-0.9,77.4,2175.3,-185.1,0,1896,0,189,0, 
1.0567,-208.5,407.7,800.7,795.3,929.4,-685.5,1706.7,112.2,-7410.0,933.6,-2163.9,-2129.1,-1919.7,1748.4,-4372.2,1125.3,-7.2,-5.7,3493.5,1149.0,-0.9,89.7,2125.2,-241.2,0,1902,0,190,0, 
1.0600,-225.3,364.8,775.2,787.8,937.8,-651.3,1722.9,111.9,-6076.2,882.6,-1845.0,-2012.7,-2026.2,1845.0,-2984.1,1142.4,-7.2,-6.3,3448.5,1164.9,-0.3,50.4,2119.5,-153.3,0,1908,0,191,0, 
1.0633,-220.5,360.3,770.7,777.0,918.9,-681.6,1706.1,102.3,-4371.9,898.8,-1714.2,-2194.5,-1959.6,2036.7,-1318.2,1146.9,-6.9,-5.7,3478.2,1131.0,-0.9,49.2,2103.6,-209.7,0,1914,0,192,0, 
1.0667,-226.2,352.5,750.9,764.1,914.4,-671.4,1717.5,93.9,-4890.6,820.2,-2003.7,-2350.2,-1955.1,2013.9,-1718.1,1139.7,-7.2,-6.3,3430.2,1146.9,-0.6,71.1,2193.0,-140.7,0,1920,0,193,0, 
1.0700,-225.3,358.8,733.5,748.2,902.1,-665.7,1722.3,84.0,-6817.2,839.1,-2300.7,-2397.6,-2039.1,1837.8,-3632.7,1147.2,-6.9,-6.0,3393.0,1124.1,-0.6,117.6,2167.2,-120.9,0,1926,0,194,0, 
1.0733,-223.2,351.0,757.5,759.0,904.8,-685.5,1707.9,87.3,-7410.0,861.9,-2127.6,-2232.9,-1953.9,1770.9,-4376.1,1115.1,-6.9,-6.0,3449.4,1125.3,-0.9,103.2,2171.1,-204.0,0,1932,0,195,0, 
1.0767,-203.4,344.4,740.7,756.3,907.8,-702.6,1691.7,80.7,-5928.0,876.0,-1833.9,-2070.9,-1961.7,1898.1,-2949.9,1113.0,-7.2,-5.7,3416.1,1126.2,-0.6,46.5,2092.5,-246.0,0,1938,0,196,0, 
1.0800,-196.8,396.6,778.2,777.6,918.3,-714.0,1688.7,106.8,-4371.9,882.0,-1878.6,-2163.9,-1839.0,1924.2,-1326.0,1105.2,-6.9,-5.7,3450.9,1122.6,-0.6,78.0,2075.7,-303.6,0,1944,0,197,0, 
1.0833,-228.3,326.1,747.0,762.0,909.3,-707.7,1705.8,90.0,-4742.4,867.9,-2258.7,-2310.0,-1977.9,2046.6,-1728.6,1144.5,-6.9,-5.7,3448.8,1140.6,-0.9,84.6,2160.9,-282.6,0,1950,0,198,0, 
1.0867,-212.1,351.0,756.3,767.7,914.4,-703.8,1704.6,90.9,-6743.1,873.9,-2459.7,-2326.8,-2031.3,1915.8,-3588.0,1110.3,-6.6,-5.4,3420.0,1151.4,-0.6,97.5,2165.1,-282.6,0,1956,0,199,0, 
1.0900,-212.4,376.8,772.8,775.8,914.1,-679.2,1713.9,93.3,-7335.9,869.7,-2301.3,-2141.4,-1905.3,1796.4,-4375.5,1108.8,-6.9,-6.0,3446.1,1144.2,-1.2,56.4,2136.3,-165.0,0,1962,0,200,0, 
1.0933,-195.6,396.0,798.0,794.4,933.6,-660.6,1717.2,111.6,-6002.1,893.4,-2110.8,-2043.3,-1858.8,1802.1,-3003.0,1092.6,-6.6,-5.4,3497.4,1147.5,-0.9,42.0,2139.9,-95.1,0,1968,0,201,0, 
1.0967,-195.9,387.9,804.0,806.7,939.3,-679.8,1708.2,123.0,-4371.9,900.3,-2019.6,-2094.3,-1885.8,1996.2,-1351.8,1113.3,-6.3,-6.0,3486.3,1139.7,-0.6,84.0,2103.3,-147.6,0,1974,0,202,0, 
1.1000,-196.5,368.1,783.0,805.2,953.7,-660.9,1728.0,125.7,-4890.6,907.2,-2453.4,-2287.8,-1836.3,2014.5,-1725.0,1113.3,-6.9,-5.7,3471.0,1172.1,-0.6,135.6,2192.4,-128.4,0,1980,0,203,0, 
1.1033,-185.4,413.4,796.5,810.0,953.7,-676.2,1718.1,126.6,-6669.0,919.2,-2574.3,-2343.6,-2158.5,1872.6,-3660.9,1104.6,-6.9,-6.0,3497.1,1181.7,-0.9,113.7,2143.5,-173.4,0,1986,0,204,0, 
1.1067,-183.9,434.1,801.3,808.5,953.4,-682.5,1723.8,121.2,-7335.9,907.2,-2543.7,-2226.0,-2038.8,1719.6,-4430.4,1114.5,-6.6,-6.0,3492.9,1175.7,-0.9,113.4,2187.6,-208.2,0,1992,0,205,0, 
1.1100,-185.7,408.6,818.1,816.3,943.8,-698.4,1705.5,128.7,-6002.1,941.7,-2258.4,-2154.3,-1905.0,1865.1,-3000.0,1094.4,-6.9,-5.7,3513.6,1146.3,-0.6,102.3,2087.4,-294.9,0,1998,0,206,0, 
1.1133,-186.0,435.0,837.9,828.6,951.3,-677.4,1729.8,145.8,-4371.9,882.9,-2435.1,-2220.3,-1802.1,2011.5,-1361.7,1099.8,-6.9,-6.0,3549.0,1161.6,-0.3,118.5,2177.1,-233.1,0,2004,0,207,0, 
1.1167,-189.9,365.4,790.5,814.8,956.7,-672.6,1727.4,140.4,-4742.4,896.4,-2716.2,-2368.2,-1871.7,2059.5,-1776.0,1109.7,-6.6,-6.3,3482.7,1177.8,-0.9,153.3,2145.3,-220.5,0,2010,0,208,0, 
1.1200,-191.4,395.1,803.7,821.7,964.2,-662.4,1728.3,134.4,-6817.2,912.9,-2905.8,-2358.9,-1878.0,1918.5,-3645.0,1086.9,-6.9,-6.6,3481.8,1219.2,-0.6,157.2,2148.0,-207.0,0,2016,0,209,0, 
1.1233,-215.7,417.6,816.9,822.0,967.8,-634.8,1744.8,129.3,-7558.2,939.0,-2712.9,-2210.1,-2002.8,1752.9,-4465.2,1142.4,-6.6,-6.0,3528.6,1207.5,-0.9,127.5,2172.3,-95.4,0,2022,0,210,0, 
1.1267,-194.7,417.3,810.6,813.9,956.1,-652.5,1730.1,125.4,-6076.2,919.8,-2480.1,-2197.5,-1958.7,1927.2,-3021.9,1104.3,-6.9,-6.0,3511.2,1189.5,-0.6,102.9,2118.9,-102.6,0,2028,0,211,0, 
1.1300,-185.4,424.5,802.2,803.1,952.2,-637.5,1749.9,126.3,-4371.9,903.6,-2442.0,-2286.3,-1842.0,1985.1,-1407.0,1116.0,-6.9,-5.7,3495.0,1186.2,-0.9,107.4,2239.8,-129.0,0,2034,0,212,0, 
1.1333,-178.2,426.3,797.4,791.7,930.0,-672.9,1721.4,117.9,-4964.7,895.8,-2867.1,-2437.5,-1916.7,1925.7,-1835.1,1135.2,-7.2,-6.3,3489.9,1148.4,-0.6,82.5,2131.8,-169.5,0,2040,0,213,0, 
1.1367,-191.1,406.8,777.0,783.3,924.3,-670.5,1721.4,105.0,-6891.3,892.8,-3057.0,-2391.0,-2003.4,1846.8,-3729.6,1133.1,-6.6,-6.0,3485.7,1150.5,-0.6,91.2,2158.8,-183.0,0,2046,0,214,0, 
1.1400,-226.2,355.2,774.6,789.3,946.5,-669.0,1719.9,102.3,-7335.9,911.1,-2896.2,-2204.7,-2046.9,1746.9,-4468.5,1149.9,-6.9,-5.7,3480.9,1165.2,-0.6,136.8,2139.3,-184.5,0,2052,0,215,0, 
1.1433,-220.8,359.4,772.5,782.4,924.6,-684.9,1706.7,101.4,-6150.3,880.8,-2725.5,-2150.1,-1993.2,1867.5,-3071.7,1141.2,-6.9,-5.7,3475.2,1154.1,-1.2,108.0,2111.7,-245.7,0,2058,0,216,0, 
1.1467,-215.4,352.8,768.6,775.8,909.0,-683.4,1715.7,103.5,-4297.8,871.8,-2820.6,-2231.4,-1882.5,2008.2,-1398.9,1158.9,-6.9,-6.0,3469.5,1146.0,-1.2,95.7,2142.6,-241.8,0,2064,0,217,0, 
1.1500,-208.2,378.6,767.1,765.3,895.2,-671.7,1722.9,94.5,-4964.7,848.1,-3103.8,-2432.7,-1871.7,1991.4,-1802.4,1144.8,-6.9,-5.7,3471.3,1131.3,-0.9,65.7,2220.9,-168.3,0,2070,0,218,0, 
1.1533,-193.8,416.1,790.2,786.0,913.2,-669.3,1713.0,107.7,-6669.0,894.6,-3230.1,-2422.8,-1963.8,1841.4,-3702.6,1122.3,-7.2,-6.0,3493.5,1158.6,-1.2,95.7,2107.2,-136.8,0,2076,0,219,0, 
1.1567,-193.2,385.2,750.9,753.9,880.8,-692.1,1708.5,82.8,-7558.2,875.4,-3149.1,-2370.6,-1886.7,1754.4,-4469.1,1147.5,-6.9,-6.0,3450.0,1107.3,-0.9,68.7,2165.4,-198.9,0,2082,0,220,0, 
1.1600,-200.4,359.1,740.7,742.5,873.9,-708.0,1688.4,80.4,-6150.3,820.2,-2883.3,-2286.0,-1991.4,1797.9,-3099.0,1122.3,-6.9,-6.6,3452.7,1097.7,-0.6,49.8,2090.4,-245.7,0,2088,0,221,0, 
1.1633,-237.0,348.6,741.3,756.6,903.6,-672.6,1718.1,100.2,-4594.2,835.8,-2940.9,-2342.1,-2083.5,1932.3,-1513.8,1112.7,-7.2,-6.0,3411.6,1135.8,-0.9,86.4,2196.3,-225.3,0,2094,0,222,0, 
1.1667,-205.2,390.6,755.7,765.6,900.9,-681.6,1704.6,108.6,-4964.7,871.8,-3245.4,-2389.2,-2009.7,1992.9,-1918.5,1092.3,-6.9,-6.0,3434.7,1119.9,-0.9,58.2,2120.7,-199.8,0,2100,0,223,0, 
1.1700,-215.7,381.6,779.1,777.6,899.4,-706.5,1683.3,104.1,-6743.1,906.6,-3441.9,-2395.5,-2015.4,1879.5,-3727.2,1103.7,-6.6,-6.0,3477.3,1122.9,-0.9,110.1,2029.2,-320.7,0,2106,0,224,0, 
1.1733,-220.2,354.3,761.1,765.6,906.0,-687.6,1699.5,99.6,-7632.3,865.2,-3227.4,-2194.8,-2041.2,1806.3,-4498.5,1108.8,-6.6,-6.0,3434.4,1112.1,-0.3,90.6,2116.2,-240.3,0,2112,0,225,0, 
1.1767,-210.0,373.5,769.2,768.0,906.6,-662.4,1710.3,102.6,-6150.3,867.6,-2891.4,-2188.2,-1843.5,1856.1,-3080.4,1111.2,-6.9,-6.0,3454.2,1123.5,-0.6,80.7,2158.5,-172.5,0,2118,0,226,0, 
1.1800,-180.3,418.2,791.4,779.1,900.9,-690.3,1697.7,117.0,-4520.1,877.8,-2841.0,-2250.9,-1749.9,1913.7,-1487.7,1069.2,-7.2,-6.0,3491.7,1102.2,-0.6,46.2,2135.7,-260.1,0,2124,0,227,0, 
1.1833,-204.3,367.8,768.3,767.7,893.4,-695.4,1695.0,108.0,-5112.9,893.1,-3146.4,-2442.6,-1914.0,1965.9,-1911.6,1113.3,-6.6,-6.0,3463.2,1102.8,-0.6,78.9,2121.6,-227.1,0,2130,0,228,0, 
1.1867,-210.9,389.4,779.4,785.4,915.0,-657.3,1712.1,118.8,-6891.3,896.4,-3277.8,-2411.4,-2040.0,1814.7,-3805.8,1083.9,-6.6,-5.7,3468.6,1144.8,-0.6,97.8,2121.6,-110.1,0,2136,0,229,0, 
1.1900,-199.8,426.0,791.4,780.0,906.9,-669.9,1714.5,117.6,-7558.2,883.5,-3065.7,-2273.7,-1985.7,1751.1,-4560.3,1096.2,-6.6,-6.3,3480.6,1120.5,-0.6,93.3,2119.8,-172.8,0,2142,0,230,0, 
1.1933,-213.6,372.9,770.4,781.5,912.6,-657.3,1717.5,117.9,-6224.4,884.7,-2811.6,-2232.0,-1964.7,1786.5,-3170.4,1103.4,-7.5,-6.0,3467.7,1133.1,-0.3,109.2,2146.8,-168.6,0,2148,0,231,0, 
1.1967,-199.5,392.4,777.9,790.2,935.1,-652.8,1726.8,126.9,-4594.2,886.2,-2945.1,-2314.2,-1837.8,1973.4,-1535.4,1092.3,-6.6,-6.3,3450.3,1156.5,-0.9,115.5,2179.5,-210.9,0,2154,0,232,0, 
1.2000,-206.1,412.8,801.6,799.5,935.7,-654.0,1729.8,130.8,-4964.7,901.8,-3155.7,-2540.1,-1917.3,1976.4,-1938.3,1120.2,-6.9,-5.7,3512.7,1152.0,-1.2,96.9,2221.2,-226.2,0,2160,0,233,0, 
1.2033,-187.2,453.0,831.3,813.0,939.6,-642.6,1718.1,138.9,-7039.5,920.4,-3409.2,-2571.6,-2033.1,1878.6,-3813.3,1065.0,-6.9,-6.3,3525.9,1131.0,-0.9,96.6,2115.9,-153.6,0,2166,0,234,0, 
1.2067,-175.2,459.9,825.3,811.2,939.9,-659.1,1707.3,135.0,-7558.2,915.0,-3320.4,-2385.6,-1869.6,1773.6,-4533.9,1107.6,-6.9,-5.7,3500.4,1157.1,-0.6,134.1,2093.4,-222.3,0,2172,0,235,0, 
1.2100,-204.9,410.4,821.7,813.3,954.3,-625.5,1737.0,135.3,-6150.3,890.7,-3028.2,-2365.8,-1852.2,1810.8,-3172.8,1104.0,-6.9,-6.0,3525.0,1171.8,-0.6,132.3,2205.6,-147.6,0,2178,0,236,0, 
1.2133,-176.7,406.8,804.0,801.6,939.9,-657.6,1716.3,127.2,-4594.2,898.5,-3038.7,-2526.0,-1913.7,2004.6,-1573.8,1071.6,-6.9,-6.0,3524.4,1166.4,-0.6,135.9,2141.1,-232.8,0,2184,0,237,0, 
1.2167,-196.2,439.2,831.6,817.5,947.7,-660.0,1706.1,137.1,-5112.9,943.8,-3351.3,-2686.8,-1962.9,1937.7,-1987.2,1095.3,-6.6,-5.7,3514.2,1166.1,-1.2,134.1,2071.2,-259.8,0,2190,0,238,0, 
1.2200,-202.8,410.7,804.6,796.8,929.7,-639.6,1721.1,119.7,-6891.3,935.4,-3513.6,-2697.9,-2033.4,1905.6,-3857.7,1111.2,-6.6,-5.7,3498.0,1143.6,-0.6,70.8,2142.6,-139.5,0,2196,0,239,0, 
1.2233,-205.5,402.9,801.3,787.2,911.1,-646.5,1717.5,109.2,-7632.3,900.0,-3436.8,-2635.5,-1968.9,1755.0,-4583.4,1104.9,-6.9,-6.0,3506.1,1116.6,-0.6,55.2,2094.9,-122.7,0,2202,0,240,0, 
1.2267,-212.4,368.1,768.0,773.4,906.3,-665.7,1709.4,100.8,-6150.3,865.5,-3310.5,-2640.9,-1827.0,1825.8,-3187.2,1113.9,-6.6,-5.4,3478.2,1132.8,-0.6,132.3,2130.9,-169.2,0,2208,0,241,0, 
1.2300,-205.2,365.4,760.5,763.2,883.5,-679.8,1713.9,97.2,-4668.3,901.8,-3389.4,-2706.3,-1844.7,1955.4,-1589.7,1130.4,-6.9,-6.0,3480.0,1107.9,-0.9,82.8,2153.4,-252.3,0,2214,0,242,0, 
1.2333,-202.5,396.6,774.0,768.0,876.9,-684.9,1711.2,101.4,-5038.8,891.3,-3855.0,-2928.3,-1838.1,1997.4,-2000.4,1122.6,-7.2,-6.0,3515.4,1105.2,-1.2,110.7,2158.2,-272.4,0,2220,0,243,0, 
1.2367,-210.6,365.4,754.2,748.8,863.4,-687.0,1703.4,82.5,-6891.3,873.6,-3963.3,-2910.9,-1984.2,1914.0,-3846.3,1138.8,-6.6,-5.7,3502.2,1086.3,-0.9,72.3,2087.1,-196.8,0,2226,0,244,0, 
1.2400,-215.4,368.7,761.4,751.5,874.2,-692.1,1701.3,82.8,-7632.3,887.7,-3848.4,-2711.4,-2001.0,1803.6,-4596.0,1141.8,-6.9,-5.7,3513.9,1103.7,-0.9,93.3,2113.2,-265.8,0,2232,0,245,0, 
1.2433,-220.8,373.5,753.3,745.2,862.2,-701.4,1704.0,78.9,-6224.4,913.2,-3627.0,-2668.2,-1999.8,1853.4,-3240.9,1145.1,-6.6,-5.7,3496.5,1092.0,-1.2,52.5,2146.8,-274.8,0,2238,0,246,0, 
1.2467,-211.2,364.5,744.3,735.6,843.6,-715.2,1690.5,77.4,-4668.3,866.1,-3720.3,-2866.8,-1849.8,2013.0,-1586.7,1128.6,-6.9,-5.7,3491.1,1079.4,-0.9,40.2,2101.2,-289.2,0,2244,0,247,0, 
1.2500,-216.0,358.8,733.5,723.0,839.4,-690.6,1710.6,70.8,-5187.0,854.4,-4068.0,-3016.2,-1853.1,2014.5,-2014.2,1137.9,-6.6,-5.1,3454.8,1065.3,-0.6,20.1,2181.6,-191.4,0,2250,0,248,0, 
1.2533,-204.9,373.5,753.9,751.2,858.0,-694.8,1695.9,81.6,-6965.4,859.2,-4141.2,-3004.2,-2085.0,1852.2,-3903.3,1121.7,-6.6,-6.0,3489.6,1091.1,-0.9,62.7,2075.7,-260.4,0,2256,0,249,0, 
1.2567,-212.1,404.4,759.3,752.7,870.3,-659.1,1722.0,84.9,-7632.3,862.2,-3940.2,-2928.9,-2030.7,1740.3,-4704.6,1114.8,-7.2,-6.0,3484.5,1122.6,-0.9,72.3,2152.5,-183.6,0,2262,0,250,0, 
1.2600,-204.3,408.9,766.5,763.8,875.4,-687.6,1698.9,96.9,-6446.7,834.0,-3717.6,-2868.3,-1896.6,1770.9,-3303.9,1111.5,-6.6,-5.7,3498.6,1137.3,-1.5,88.5,2110.2,-243.0,0,2268,0,251,0, 
1.2633,-223.2,379.8,762.0,766.2,880.8,-678.6,1704.9,102.6,-4742.4,855.9,-3741.0,-3010.8,-1917.6,1836.0,-1739.1,1097.4,-6.9,-6.0,3506.4,1135.5,-0.9,127.5,2150.4,-249.3,0,2274,0,252,0, 
1.2667,-208.8,393.0,756.0,758.1,869.1,-691.8,1705.5,101.1,-5261.1,857.7,-4057.2,-3136.5,-2058.3,1850.1,-2201.4,1133.1,-6.9,-5.7,3478.8,1088.1,-1.2,87.0,2125.8,-251.4,0,2280,0,253,0, 
1.2700,-213.6,408.6,769.5,767.1,873.6,-677.7,1715.1,101.7,-7113.6,929.4,-4202.4,-3130.5,-2168.1,1822.2,-4073.7,1095.6,-6.3,-6.0,3502.5,1106.4,-0.6,90.3,2176.5,-227.7,0,2286,0,254,0, 
1.2733,-176.4,443.1,778.2,774.9,878.7,-675.3,1705.8,108.3,-7706.4,901.5,-4074.0,-2857.5,-1805.4,1720.8,-4787.4,1070.1,-6.6,-6.0,3489.0,1100.4,-0.3,49.5,2093.1,-176.4,0,2292,0,255,0, 
1.2767,-190.5,361.2,747.6,756.0,878.4,-669.3,1702.5,96.6,-6446.7,918.3,-3954.6,-2667.3,-1887.9,1714.8,-3450.0,1095.3,-7.2,-5.7,3475.2,1102.2,-0.3,47.4,2085.3,-122.4,0,2298,0,0,0, 
1.2800,-203.1,381.6,779.1,789.9,909.0,-654.3,1711.2,121.8,-4890.6,907.8,-4172.4,-2712.6,-1943.7,1892.7,-1848.9,1086.0,-6.9,-6.0,3510.9,1140.6,-1.2,125.1,2055.9,-154.5,0,2304,0,1,0, 
1.2833,-192.0,383.7,768.6,775.2,899.7,-641.4,1734.9,116.1,-5335.2,882.3,-4538.4,-2850.3,-1864.5,1954.2,-2287.8,1092.0,-7.2,-5.7,3501.9,1152.6,-0.9,113.1,2252.7,-126.9,0,2310,0,2,0, 
1.2867,-182.1,409.8,772.2,785.4,906.0,-638.7,1727.4,120.6,-7261.8,893.7,-4931.7,-2916.6,-1978.2,1864.8,-4121.4,1105.8,-6.9,-5.7,3496.5,1143.6,-0.9,109.2,2149.5,-136.8,0,2316,0,3,0, 
1.2900,-190.8,407.4,780.9,788.1,902.7,-666.0,1728.3,112.8,-7928.7,928.2,-4757.1,-2770.5,-2038.8,1670.1,-4898.1,1141.8,-6.9,-5.4,3502.8,1144.8,-0.3,124.8,2185.2,-253.5,0,2322,0,4,0, 
1.2933,-177.9,429.9,804.9,807.9,917.4,-673.5,1698.3,130.8,-6446.7,953.4,-4659.0,-2816.7,-1904.4,1842.3,-3432.0,1084.2,-6.9,-6.0,3495.0,1140.3,-0.9,146.1,2050.8,-222.6,0,2328,0,5,0, 
1.2967,-158.1,440.7,809.7,807.3,906.6,-679.8,1701.0,137.4,-4890.6,931.8,-4824.0,-3075.0,-1631.4,1920.9,-1830.0,1095.6,-6.9,-5.7,3518.7,1124.1,-0.9,125.7,2106.0,-238.2,0,2334,0,6,0, 
1.3000,-186.6,426.3,805.5,815.1,919.2,-660.6,1716.9,139.2,-5409.3,912.0,-5234.1,-3188.1,-2012.1,1944.0,-2266.5,1113.9,-7.2,-6.0,3526.8,1164.9,-0.9,149.7,2161.5,-237.9,0,2340,0,7,0, 
1.3033,-173.7,431.1,786.9,811.2,923.7,-649.8,1726.5,131.1,-7187.7,910.5,-5392.8,-3043.2,-1965.0,1860.6,-4111.5,1106.1,-6.9,-6.3,3492.0,1166.1,-0.6,135.3,2185.8,-174.0,0,2346,0,8,0, 
1.3067,-166.5,400.8,778.8,803.1,900.3,-676.5,1710.9,124.2,-7780.5,946.8,-5254.8,-2990.1,-1846.2,1745.7,-4812.9,1088.4,-7.2,-6.0,3466.2,1157.1,-0.6,135.0,2118.0,-218.7,0,2352,0,9,0, 
1.3100,-179.4,377.7,764.7,787.8,892.2,-670.2,1719.0,113.1,-6520.8,905.4,-5190.3,-2948.1,-1839.9,1838.1,-3442.5,1069.2,-6.6,-5.4,3471.6,1150.5,-1.5,72.9,2171.7,-181.2,0,2358,0,10,0, 
1.3133,-186.3,387.9,777.9,801.9,899.1,-660.9,1713.0,128.1,-4890.6,918.0,-5368.5,-3098.1,-1947.3,1938.6,-1818.9,1074.3,-6.9,-6.0,3491.1,1139.7,-0.9,97.5,2058.3,-130.5,0,2364,0,11,0, 
1.3167,-209.4,375.3,764.1,789.0,881.4,-670.2,1723.5,117.3,-5261.1,889.8,-5722.5,-3261.6,-2047.2,1991.7,-2266.8,1108.8,-6.6,-6.0,3503.1,1136.4,-0.6,87.9,2144.4,-108.3,0,2370,0,12,0, 
1.3200,-188.4,414.0,766.5,773.7,858.6,-680.4,1728.9,106.2,-7261.8,867.0,-5995.8,-3203.4,-2006.4,1832.7,-4114.8,1135.2,-7.2,-5.4,3489.6,1114.5,-0.6,75.3,2231.7,-162.0,0,2376,0,13,0, 
1.3233,-200.4,364.5,733.2,757.2,851.1,-703.2,1717.5,90.3,-7928.7,876.3,-5927.7,-3004.8,-1957.5,1687.8,-4907.7,1101.3,-6.9,-5.7,3447.6,1103.7,-1.2,63.3,2185.8,-212.7,0,2382,0,14,0, 
1.3267,-204.9,388.2,765.0,773.7,857.4,-710.7,1700.1,102.9,-6446.7,909.6,-5904.6,-2938.8,-1843.5,1809.0,-3446.4,1100.7,-6.6,-5.4,3460.8,1101.3,-0.6,105.0,2059.8,-300.0,0,2388,0,15,0, 
1.3300,-196.8,372.9,759.9,775.2,860.4,-696.3,1707.9,107.7,-4816.5,887.1,-6141.0,-3052.8,-1838.1,1884.0,-1896.3,1091.4,-6.9,-6.0,3462.6,1107.9,-0.6,68.1,2112.9,-213.9,0,2394,0,16,0, 
1.3333,-193.8,403.8,770.7,779.7,865.2,-677.7,1710.6,120.6,-5483.4,886.5,-6570.0,-3215.7,-1994.4,1898.4,-2349.3,1113.6,-6.9,-5.7,3475.2,1095.6,-0.9,70.2,2091.9,-133.8,0,2400,0,17,0, 
1.3367,-221.4,369.3,753.6,779.7,879.6,-665.7,1729.8,111.0,-7187.7,883.5,-6885.9,-3195.9,-2013.9,1831.8,-4209.9,1140.9,-6.9,-5.7,3458.1,1135.5,-0.6,108.0,2184.6,-100.8,0,2406,0,18,0, 
1.3400,-185.4,388.2,757.8,769.5,868.8,-696.9,1706.7,104.4,-8002.8,880.5,-6747.9,-3064.5,-1915.2,1758.6,-4902.6,1119.3,-6.9,-6.0,3432.0,1124.7,-0.6,100.5,2139.6,-203.1,0,2412,0,19,0, 
1.3433,-199.8,365.7,758.7,776.7,873.9,-714.9,1710.0,106.2,-6594.9,885.0,-6508.2,-2946.3,-1913.7,1771.8,-3521.7,1141.2,-6.9,-5.7,3452.1,1140.0,-0.6,100.8,2150.7,-303.0,0,2418,0,20,0, 
1.3467,-216.6,351.3,756.0,779.7,876.0,-702.0,1717.2,114.3,-4890.6,886.5,-6671.7,-3065.1,-1953.0,1948.8,-1915.2,1140.6,-6.9,-5.7,3455.4,1129.8,-0.6,88.5,2162.4,-231.6,0,2424,0,21,0, 
1.3500,-196.2,371.1,771.9,787.8,878.1,-696.9,1720.8,120.6,-5483.4,893.4,-7032.3,-3267.6,-1863.0,1935.6,-2354.1,1139.7,-6.6,-6.3,3479.1,1122.9,-0.6,83.1,2160.6,-206.4,0,2430,0,22,0, 
1.3533,-221.4,344.4,762.6,787.5,880.5,-672.3,1740.6,114.3,-7187.7,898.5,-7123.5,-3199.2,-2014.5,1787.4,-4259.4,1123.2,-6.9,-6.0,3472.2,1134.0,-0.6,95.4,2252.1,-201.0,0,2436,0,23,0, 
1.3567,-193.2,392.1,776.1,792.3,880.5,-677.4,1719.0,115.8,-8002.8,893.7,-6965.4,-3102.9,-1955.7,1719.3,-4958.7,1130.7,-6.6,-6.0,3479.4,1130.7,-0.6,92.7,2114.1,-177.3,0,2442,0,24,0, 
1.3600,-196.8,387.0,780.3,794.4,885.3,-671.1,1719.0,119.1,-6594.9,894.3,-6934.2,-3129.0,-1955.4,1777.2,-3570.0,1110.6,-7.2,-5.7,3455.7,1134.0,-0.9,100.5,2115.0,-149.1,0,2448,0,25,0, 
1.3633,-179.1,419.4,777.3,796.5,893.4,-657.3,1728.9,129.3,-4964.7,892.8,-7012.2,-3284.4,-1824.9,1818.9,-1987.5,1087.2,-7.2,-6.3,3463.5,1137.6,-0.9,113.1,2166.3,-86.7,0,2454,0,26,0, 
1.3667,-156.0,448.2,801.6,806.1,886.2,-675.6,1709.1,138.0,-5483.4,892.5,-7419.0,-3462.0,-1992.0,1851.0,-2460.0,1104.6,-6.6,-5.7,3478.8,1148.4,-0.6,73.8,2068.8,-83.4,0,2460,0,27,0, 
1.3700,-216.0,366.0,760.2,790.5,892.2,-668.1,1743.9,117.9,-7335.9,861.6,-7401.9,-3394.5,-2016.9,1746.3,-4311.3,1137.3,-6.6,-6.0,3451.5,1159.2,-0.3,110.4,2242.8,-181.2,0,2466,0,28,0, 
1.3733,-159.0,421.8,787.2,796.5,883.8,-689.7,1717.5,122.1,-7928.7,917.7,-7213.2,-3306.6,-1866.9,1674.0,-5037.0,1095.0,-6.9,-5.7,3498.3,1124.4,-0.9,74.7,2203.8,-202.2,0,2472,0,29,0, 
1.3767,-189.9,377.4,801.9,815.7,904.8,-678.3,1708.2,135.3,-6669.0,909.6,-6886.8,-3211.5,-1927.2,1716.9,-3560.1,1104.0,-6.6,-6.3,3509.4,1176.6,-0.9,101.4,2096.1,-196.2,0,2478,0,30,0, 
1.3800,-191.7,374.7,803.4,824.1,915.6,-653.4,1737.9,145.8,-4964.7,912.9,-6977.4,-3309.9,-1876.2,1953.6,-1953.3,1122.0,-7.2,-6.0,3534.9,1194.3,-0.9,113.7,2199.9,-155.4,0,2484,0,31,0, 
1.3833,-184.8,393.0,811.8,824.4,911.4,-666.6,1721.7,145.5,-5409.3,906.0,-7123.8,-3362.4,-1829.4,1930.5,-2356.8,1112.7,-7.2,-5.4,3548.1,1171.5,-0.9,122.4,2120.7,-212.4,0,2490,0,32,0, 
1.3867,-204.0,402.9,829.5,837.6,924.9,-648.6,1726.8,150.0,-7335.9,952.8,-7155.0,-3382.8,-1937.4,1800.0,-4225.2,1089.0,-6.9,-6.0,3558.0,1185.9,-1.2,151.5,2140.8,-156.9,0,2496,0,33,0, 
1.3900,-201.3,386.1,804.6,820.5,905.7,-660.3,1721.7,130.8,-7854.6,945.9,-6927.0,-3405.3,-1951.5,1744.2,-4909.5,1104.3,-6.9,-5.7,3520.8,1170.6,-1.2,155.1,2126.1,-139.8,0,2502,0,34,0, 
1.3933,-200.4,386.1,790.8,810.0,902.7,-673.2,1724.4,130.5,-6224.4,909.9,-6616.5,-3376.2,-1904.7,1819.5,-3468.9,1132.5,-6.9,-5.4,3500.1,1178.4,-0.6,150.0,2158.5,-172.2,0,2508,0,35,0, 
1.3967,-185.1,425.1,806.1,818.4,902.7,-664.2,1721.7,137.4,-4964.7,902.1,-6560.4,-3587.4,-2033.4,1931.7,-1898.7,1081.5,-6.9,-6.0,3534.3,1175.4,-0.9,117.6,2153.7,-172.5,0,2514,0,36,0, 
1.4000,-197.4,396.6,789.9,797.1,885.6,-671.4,1737.6,123.3,-5483.4,889.5,-6676.2,-3676.5,-1879.5,1944.0,-2342.1,1101.9,-6.6,-5.4,3545.1,1147.8,-0.6,79.2,2268.6,-181.8,0,2520,0,37,0, 
1.4033,-179.4,377.4,773.7,797.1,883.5,-693.3,1698.9,114.6,-7187.7,929.7,-6675.3,-3627.9,-1844.1,1888.8,-4158.0,1105.2,-6.6,-6.0,3517.2,1154.4,-0.9,116.7,2096.7,-221.1,0,2526,0,38,0, 
1.4067,-164.1,417.3,790.5,796.8,878.7,-685.5,1706.4,114.3,-7928.7,935.4,-6274.8,-3379.8,-1916.1,1720.8,-4893.6,1078.8,-6.6,-5.7,3523.2,1136.1,-0.3,90.6,2132.1,-149.7,0,2532,0,39,0, 
1.4100,-165.3,422.4,784.5,786.3,885.9,-680.4,1713.6,108.3,-6594.9,922.2,-5944.5,-3416.1,-1797.9,1688.4,-3538.5,1115.1,-6.9,-6.0,3507.6,1141.5,-0.6,90.9,2176.5,-169.8,0,2538,0,40,0, 
1.4133,-167.4,406.2,769.5,774.6,884.1,-687.0,1709.4,107.4,-4964.7,867.6,-5973.9,-3524.1,-1639.2,1799.4,-1956.6,1091.4,-6.9,-6.0,3485.7,1149.6,-0.6,114.0,2163.0,-217.2,0,2544,0,41,0, 
1.4167,-197.4,351.6,767.7,790.2,893.7,-675.9,1715.4,111.3,-5557.5,888.6,-6106.8,-3606.0,-2000.7,1905.3,-2442.3,1111.2,-6.9,-6.0,3510.3,1161.9,-0.6,106.5,2157.3,-164.7,0,2550,0,42,0, 
1.4200,-230.7,339.6,759.0,789.6,897.0,-652.2,1722.6,108.6,-7261.8,850.8,-5995.8,-3537.9,-2306.1,1811.1,-4324.2,1143.3,-7.2,-6.0,3493.5,1171.2,-0.6,88.8,2135.4,-50.7,0,2556,0,43,0, 
1.4233,-200.1,378.0,765.3,786.0,894.9,-660.3,1719.0,109.8,-8002.8,882.9,-5596.2,-3411.6,-2107.5,1723.2,-5004.0,1148.7,-7.2,-6.0,3484.2,1168.8,-1.2,94.2,2183.4,-93.9,0,2562,0,44,0, 
1.4267,-195.9,358.2,764.1,777.9,885.0,-678.3,1716.6,104.1,-6446.7,886.8,-5595.6,-3597.6,-1914.9,1766.7,-3563.7,1135.5,-6.6,-5.7,3531.3,1167.9,-0.3,62.4,2190.9,-181.8,0,2568,0,45,0, 
1.4300,-198.3,322.8,762.3,780.6,891.9,-687.9,1707.0,105.3,-4964.7,886.5,-5650.2,-3724.5,-1844.4,1937.1,-1944.3,1113.0,-6.9,-6.0,3505.5,1168.2,-0.9,113.1,2164.8,-264.9,0,2574,0,46,0, 
1.4333,-163.8,414.0,798.0,784.5,887.4,-709.2,1683.6,112.8,-5557.5,891.0,-5912.7,-3875.1,-1746.0,1848.3,-2421.3,1124.7,-7.2,-6.0,3515.7,1158.6,-0.9,81.9,2089.2,-261.9,0,2580,0,47,0, 
1.4367,-194.7,383.4,786.3,792.0,899.1,-698.4,1703.1,115.5,-7261.8,909.6,-5921.1,-3883.5,-1929.9,1685.7,-4334.1,1114.8,-6.6,-5.4,3507.9,1162.2,-0.9,94.2,2131.2,-229.8,0,2586,0,48,0, 
1.4400,-216.9,350.7,786.6,806.4,918.9,-673.2,1721.4,119.1,-8002.8,898.2,-5541.9,-3672.9,-2031.3,1666.5,-5035.5,1115.4,-7.2,-6.0,3525.6,1176.0,-0.6,122.1,2165.7,-173.4,0,2592,0,49,0, 
1.4433,-228.0,336.6,784.5,805.5,924.3,-663.3,1717.2,121.2,-6520.8,904.5,-5342.7,-3821.7,-2010.6,1767.9,-3574.2,1104.3,-6.9,-5.7,3521.1,1208.7,-0.6,150.3,2160.3,-157.5,0,2598,0,50,0, 
1.4467,-204.0,368.1,787.2,783.9,893.4,-692.1,1695.9,113.7,-4964.7,892.2,-5439.6,-4142.1,-1871.1,1878.0,-1967.1,1086.3,-6.9,-6.0,3521.1,1171.2,-0.6,105.6,2113.5,-206.4,0,2604,0,51,0, 
1.4500,-217.5,334.5,763.5,767.4,878.4,-707.4,1696.2,102.9,-5483.4,883.5,-5643.3,-4356.6,-1877.1,1881.0,-2417.7,1101.3,-6.6,-5.4,3497.7,1152.9,-0.9,82.8,2154.0,-214.8,0,2610,0,52,0, 
1.4533,-219.9,315.9,749.4,760.5,874.2,-686.1,1710.9,91.8,-7335.9,858.0,-5606.4,-4324.5,-1968.0,1832.1,-4266.9,1107.3,-7.2,-5.7,3495.6,1150.8,-0.6,69.0,2192.1,-202.5,0,2616,0,53,0, 
1.4567,-221.1,346.2,774.6,785.7,899.1,-664.5,1721.4,103.5,-7854.6,888.3,-5349.9,-4167.3,-1988.7,1655.1,-4996.5,1125.6,-6.9,-6.0,3532.2,1184.1,-0.9,96.6,2174.7,-128.4,0,2622,0,54,0, 
1.4600,-202.2,372.9,791.1,795.3,902.7,-679.2,1698.0,113.7,-6520.8,890.7,-5033.4,-4131.3,-1942.2,1722.3,-3549.0,1094.4,-6.9,-5.7,3542.7,1194.6,-0.6,76.5,2119.2,-153.0,0,2628,0,55,0, 
1.4633,-201.3,423.0,817.5,815.4,922.2,-659.7,1713.9,137.4,-5038.8,898.2,-5040.3,-4225.2,-1899.3,1784.4,-1964.1,1117.2,-6.9,-6.0,3559.5,1185.6,-0.9,132.0,2135.1,-168.9,0,2634,0,56,0, 
1.4667,-178.5,461.7,823.5,816.9,923.4,-642.0,1740.6,147.0,-5631.6,864.9,-5285.7,-4436.7,-1826.4,1770.0,-2496.9,1053.0,-7.2,-6.0,3549.9,1166.1,-0.9,90.6,2250.0,-123.6,0,2640,0,57,0, 
1.4700,-225.9,423.6,840.9,847.2,952.2,-629.7,1717.5,154.2,-7335.9,966.0,-5312.7,-4311.6,-2078.4,1695.0,-4340.1,1058.1,-6.6,-6.0,3583.2,1204.5,-0.9,127.2,2125.5,-108.0,0,2646,0,58,0, 
1.4733,-175.8,423.3,832.2,837.6,938.4,-654.0,1697.1,140.7,-8076.9,968.4,-5091.6,-4111.5,-1972.5,1673.4,-5004.9,1039.5,-6.6,-5.4,3584.1,1200.9,-0.3,141.3,2045.7,-144.0,0,2652,0,59,0, 
1.4767,-225.3,364.5,800.4,828.6,944.4,-631.2,1719.9,138.9,-6372.6,912.3,-4832.7,-3939.6,-1909.2,1685.7,-3529.5,1070.4,-6.6,-6.0,3531.0,1237.5,-0.9,169.8,2153.1,-115.2,0,2658,0,60,0, 
1.4800,-230.4,352.8,804.3,822.9,927.6,-654.9,1701.6,136.8,-4964.7,914.1,-4894.8,-4010.7,-1876.8,1934.7,-1917.9,1067.4,-6.9,-6.0,3561.3,1221.3,-1.2,178.2,2106.3,-195.9,0,2664,0,61,0, 
1.4833,-222.0,334.8,795.9,807.9,917.1,-655.2,1706.7,130.5,-5261.1,911.7,-5041.5,-4153.8,-1848.6,1989.0,-2346.0,1072.2,-6.9,-5.7,3572.7,1197.0,-0.6,136.2,2169.0,-177.0,0,2670,0,62,0, 
1.4867,-217.5,345.0,789.9,798.9,911.7,-661.5,1702.5,119.4,-7187.7,931.5,-5063.4,-4062.0,-1897.5,1836.6,-4223.1,1069.8,-7.2,-5.7,3539.7,1187.1,-0.9,119.7,2151.3,-157.5,0,2676,0,63,0, 
1.4900,-206.4,378.6,791.4,787.5,895.2,-671.4,1701.6,113.7,-7928.7,874.2,-4795.8,-3961.2,-1898.7,1700.1,-4897.8,1115.1,-7.2,-6.0,3576.0,1174.5,-0.9,93.3,2142.3,-169.5,0,2682,0,64,0, 
1.4933,-219.0,350.4,763.5,774.6,899.1,-644.1,1717.5,104.1,-6446.7,860.1,-4590.6,-3954.9,-2050.2,1783.2,-3467.4,1063.8,-7.2,-5.7,3519.6,1158.6,-1.2,68.4,2193.0,-83.4,0,2688,0,65,0, 
1.4967,-159.9,413.4,775.5,766.2,876.3,-691.8,1689.9,109.8,-4816.5,893.1,-4632.0,-4147.8,-1695.9,1877.1,-1855.5,1086.9,-6.9,-5.7,3505.2,1131.0,-0.6,73.8,2120.4,-240.3,0,2694,0,66,0, 
1.5000,-228.6,327.0,755.4,765.6,894.6,-648.9,1726.2,108.3,-5483.4,863.4,-4983.6,-4287.0,-1978.2,1848.0,-2397.6,1127.7,-7.2,-6.0,3507.9,1151.1,-0.6,115.2,2232.9,-156.0,0,2700,0,67,0, 
1.5033,-198.3,372.3,786.6,774.6,877.5,-699.6,1677.3,103.8,-7187.7,925.5,-5125.8,-4319.1,-1909.5,1832.7,-4198.5,1093.8,-7.2,-6.0,3562.2,1125.0,-0.3,64.2,2047.2,-236.7,0,2706,0,68,0, 
1.5067,-194.4,367.2,763.2,766.2,878.1,-696.3,1685.7,99.6,-7780.5,883.2,-4883.4,-4158.0,-1981.8,1681.2,-4887.9,1098.3,-6.9,-6.0,3533.1,1134.9,-0.9,76.5,2118.3,-240.0,0,2712,0,69,0, 
1.5100,-225.9,337.5,763.2,771.9,885.6,-681.9,1699.8,102.9,-6298.5,871.5,-4734.3,-4111.8,-2011.5,1782.0,-3429.9,1119.6,-7.2,-6.3,3522.6,1150.8,-0.9,107.1,2168.7,-210.0,0,2718,0,70,0, 
1.5133,-199.5,380.4,772.2,783.0,899.7,-676.8,1698.0,117.0,-4890.6,896.1,-4710.0,-4228.5,-2123.7,1921.2,-1840.8,1099.8,-7.2,-5.7,3539.7,1170.6,-0.9,114.0,2134.5,-167.7,0,2724,0,71,0, 
1.5167,-205.2,362.7,765.9,774.9,894.9,-679.2,1704.6,107.1,-5335.2,851.7,-5021.4,-4397.4,-1889.4,1939.5,-2247.6,1148.7,-6.9,-5.7,3547.5,1184.7,-0.6,88.2,2133.6,-142.5,0,2730,0,72,0, 
1.5200,-207.6,372.6,767.7,768.9,885.6,-683.4,1712.7,103.2,-7187.7,862.2,-5018.7,-4380.9,-1918.8,1783.8,-4134.6,1123.5,-6.9,-5.7,3513.3,1147.5,-0.6,25.2,2207.1,-174.0,0,2736,0,73,0, 
1.5233,-213.9,353.1,767.4,774.6,884.1,-695.4,1692.6,102.6,-7854.6,869.7,-4755.6,-4245.3,-2016.3,1735.2,-4791.3,1111.5,-7.2,-5.7,3547.2,1149.9,-0.6,79.5,2081.1,-242.7,0,2742,0,74,0, 
1.5267,-220.5,342.9,758.7,777.6,902.4,-644.4,1730.4,109.8,-6446.7,846.6,-4586.7,-4253.7,-1947.6,1753.8,-3354.0,1115.4,-6.9,-5.7,3535.8,1148.4,-1.2,100.5,2209.2,-94.5,0,2748,0,75,0, 
1.5300,-225.6,345.3,778.5,786.6,892.5,-684.6,1702.8,126.0,-4742.4,843.6,-4606.5,-4447.2,-1920.9,1873.8,-1784.4,1125.9,-7.2,-5.1,3565.2,1134.3,-0.6,79.5,2139.9,-190.5,0,2754,0,76,0, 
1.5333,-192.9,357.0,787.2,793.8,903.3,-686.1,1687.5,134.1,-5261.1,894.0,-4710.0,-4509.3,-1861.2,1913.1,-2238.9,1079.7,-7.2,-6.0,3555.6,1164.0,-0.9,115.2,2091.0,-246.3,0,2760,0,77,0, 
1.5367,-210.9,322.8,758.4,769.2,880.2,-688.5,1701.6,110.1,-7187.7,863.4,-4717.5,-4419.6,-2035.8,1757.7,-4164.0,1119.6,-6.6,-6.0,3512.1,1137.6,-0.9,58.5,2175.9,-228.6,0,2766,0,78,0, 
1.5400,-231.6,331.2,781.5,790.8,917.7,-657.3,1709.1,120.0,-7854.6,877.8,-4505.7,-4324.5,-2001.6,1691.4,-4811.4,1129.5,-6.9,-6.0,3525.9,1180.5,-0.9,101.1,2120.7,-128.1,0,2772,0,79,0, 
1.5433,-209.1,348.6,787.5,785.7,902.1,-678.0,1701.0,122.7,-6298.5,851.1,-4267.5,-4226.7,-1892.4,1776.9,-3337.2,1086.6,-6.9,-5.7,3553.5,1158.0,-0.9,104.4,2129.1,-223.5,0,2778,0,80,0, 
1.5467,-204.6,378.9,778.8,781.8,890.1,-669.3,1708.2,126.6,-4668.3,922.8,-4157.7,-4291.2,-1830.0,1837.2,-1777.8,1094.1,-6.6,-6.0,3565.5,1139.7,-0.6,111.6,2171.4,-169.2,0,2784,0,81,0, 
1.5500,-195.9,402.3,801.0,791.1,889.2,-672.3,1708.2,135.0,-5409.3,873.9,-4430.1,-4452.6,-1979.7,1830.9,-2310.6,1084.8,-6.9,-5.7,3617.1,1141.5,-0.3,67.2,2165.7,-186.9,0,2790,0,82,0, 
1.5533,-203.4,411.3,803.7,801.6,911.7,-645.6,1713.3,136.5,-7261.8,870.0,-4440.0,-4399.5,-2004.0,1745.7,-4158.3,1078.2,-6.9,-6.0,3599.4,1174.5,-0.9,113.7,2138.7,-130.2,0,2796,0,83,0, 
1.5567,-204.3,360.9,784.5,787.5,896.4,-669.3,1703.1,121.8,-7854.6,866.7,-4143.6,-4261.5,-1848.3,1576.2,-4852.5,1095.3,-6.9,-5.7,3596.4,1154.4,-0.9,80.1,2140.8,-212.1,0,2802,0,84,0, 
1.5600,-240.6,332.7,784.2,797.4,923.1,-631.5,1724.1,128.4,-6224.4,905.7,-3981.3,-4261.5,-2009.7,1717.5,-3390.9,1117.8,-6.3,-5.7,3592.2,1181.1,-0.9,107.4,2207.1,-92.1,0,2808,0,85,0, 
1.5633,-211.5,369.0,797.1,792.3,906.3,-669.9,1700.4,137.7,-4816.5,904.8,-4027.5,-4376.4,-1842.3,1831.5,-1814.1,1095.3,-6.9,-6.0,3613.8,1151.1,-0.6,54.3,2131.5,-202.2,0,2814,0,86,0, 
1.5667,-189.3,383.4,803.7,802.8,907.8,-681.0,1680.6,140.4,-5335.2,896.7,-4297.5,-4508.4,-1945.5,1905.3,-2274.3,1055.7,-6.9,-5.7,3609.3,1159.5,-1.2,111.6,2062.2,-192.9,0,2820,0,87,0, 
1.5700,-211.8,379.8,811.5,807.9,917.7,-652.2,1709.1,138.9,-7187.7,861.6,-4410.0,-4514.1,-1925.7,1750.5,-4158.6,1088.1,-7.2,-6.3,3629.7,1182.3,-0.6,115.5,2159.7,-159.0,0,2826,0,88,0, 
1.5733,-213.0,376.2,806.7,811.5,935.7,-654.0,1704.3,141.9,-7854.6,853.8,-4122.3,-4324.5,-2052.6,1722.0,-4781.7,1088.1,-6.9,-5.7,3635.4,1211.7,-0.9,116.1,2112.9,-201.3,0,2832,0,89,0, 
1.5767,-215.4,349.5,785.4,792.0,924.3,-666.0,1703.7,128.7,-6298.5,871.5,-3838.2,-4336.2,-1943.1,1765.2,-3312.6,1079.1,-6.9,-5.7,3628.8,1188.3,-0.6,110.1,2165.4,-207.9,0,2838,0,90,0, 
1.5800,-207.9,368.7,785.7,782.7,909.9,-669.3,1696.8,127.5,-4742.4,878.1,-3886.5,-4544.4,-1905.3,1933.5,-1721.4,1092.6,-7.2,-6.0,3625.8,1165.8,-0.9,87.3,2126.1,-163.5,0,2844,0,91,0, 
1.5833,-188.1,398.7,799.2,781.2,903.0,-665.7,1695.9,135.0,-5409.3,939.9,-4305.6,-4787.7,-1781.4,1917.9,-2208.9,1077.9,-6.6,-6.0,3661.2,1138.8,-1.2,58.8,2114.7,-161.4,0,2850,0,92,0, 
1.5867,-180.3,394.2,783.9,767.1,898.5,-680.4,1697.1,116.7,-7261.8,901.2,-4286.4,-4740.6,-1940.1,1744.5,-4118.1,1116.3,-6.9,-5.7,3633.3,1134.3,-0.6,105.0,2131.8,-211.2,0,2856,0,93,0, 
1.5900,-208.2,383.1,786.3,772.2,927.9,-628.5,1725.3,113.7,-7780.5,839.4,-4144.2,-4509.0,-2103.3,1708.2,-4788.0,1084.2,-6.6,-5.7,3639.9,1176.6,-0.9,100.5,2199.6,-87.9,0,2862,0,94,0, 
1.5933,-204.3,401.7,789.3,767.7,916.8,-673.2,1709.7,115.2,-6224.4,842.4,-3948.0,-4515.9,-1946.4,1722.0,-3310.8,1111.2,-6.9,-5.7,3629.7,1174.5,-0.6,109.2,2232.9,-233.7,0,2868,0,95,0, 
1.5967,-219.0,373.2,774.9,765.9,930.9,-649.2,1713.3,116.7,-4890.6,826.2,-3949.8,-4543.2,-1975.2,1837.8,-1749.0,1110.9,-6.6,-5.7,3595.2,1185.3,-0.9,131.4,2184.3,-159.3,0,2874,0,96,0, 
1.6000,-186.6,396.6,779.1,768.9,915.3,-668.7,1694.4,120.6,-5187.0,913.8,-4158.3,-4685.4,-1877.1,1905.3,-2199.6,1120.2,-6.9,-5.7,3631.5,1142.7,-0.6,63.9,2088.6,-156.3,0,2880,0,97,0, 
1.6033,-207.6,345.9,769.2,758.7,894.6,-684.3,1693.2,114.0,-7335.9,894.6,-4251.0,-4686.9,-1873.5,1810.5,-4058.1,1104.6,-6.9,-5.7,3634.5,1107.6,-0.9,86.7,2118.9,-215.4,0,2886,0,98,0, 
1.6067,-222.0,314.1,765.9,752.7,889.2,-695.1,1691.1,103.8,-7632.3,903.3,-4022.7,-4514.4,-1948.2,1747.2,-4676.7,1128.6,-6.9,-5.4,3623.4,1107.9,-0.9,106.5,2109.9,-230.7,0,2892,0,99,0, 
1.6100,-214.8,338.1,777.3,762.9,906.3,-669.0,1701.0,107.1,-6224.4,902.4,-3905.7,-4467.3,-1862.4,1809.9,-3204.0,1117.2,-6.9,-5.7,3640.2,1145.4,-0.6,77.1,2145.0,-213.0,0,2898,0,100,0, 
1.6133,-207.0,352.5,784.5,764.1,905.7,-671.7,1697.1,105.6,-4594.2,907.5,-3986.7,-4572.6,-1983.3,1956.0,-1637.1,1140.0,-6.6,-5.7,3666.9,1151.7,-0.6,91.8,2148.9,-187.8,0,2904,0,101,0, 
1.6167,-197.7,381.3,784.2,762.6,915.3,-660.0,1713.9,116.1,-5409.3,843.6,-4081.5,-4592.7,-1937.4,1931.4,-2168.7,1124.7,-7.2,-6.0,3648.3,1180.5,-0.6,98.1,2185.2,-187.8,0,2910,0,102,0, 
1.6200,-181.2,386.4,771.0,757.2,913.2,-668.7,1713.3,106.8,-7039.5,833.7,-4090.8,-4465.5,-1869.3,1763.7,-4032.0,1072.5,-6.9,-5.7,3590.1,1152.9,-0.9,115.8,2196.0,-242.7,0,2916,0,103,0, 
1.6233,-169.2,416.7,799.8,770.1,918.6,-658.5,1700.1,121.5,-7780.5,870.9,-3780.9,-4202.4,-2038.8,1595.1,-4754.1,1072.2,-6.3,-6.0,3639.9,1177.8,-0.9,115.8,2129.7,-167.1,0,2922,0,104,0, 
1.6267,-210.0,376.8,807.9,779.4,919.8,-650.4,1701.0,122.1,-6002.1,930.6,-3523.2,-4144.2,-1956.9,1750.5,-3210.6,1095.9,-6.9,-6.0,3689.4,1176.0,-0.6,117.9,2089.2,-133.5,0,2928,0,105,0, 
1.6300,-195.0,369.9,792.6,755.4,884.4,-682.8,1696.2,110.7,-4742.4,931.5,-3703.2,-4299.3,-1768.8,1917.3,-1664.4,1117.2,-6.6,-5.7,3679.8,1130.1,-0.9,78.9,2160.0,-204.6,0,2934,0,106,0, 
1.6333,-211.2,363.0,795.0,777.3,921.9,-636.3,1720.5,125.7,-5261.1,907.5,-3978.3,-4366.8,-1950.6,1898.1,-2211.6,1113.9,-6.6,-5.7,3675.0,1174.8,-1.2,133.2,2168.1,-105.3,0,2940,0,107,0, 
1.6367,-209.7,366.6,805.2,782.7,927.9,-644.1,1717.5,126.6,-7187.7,892.2,-4094.7,-4272.3,-1980.3,1810.8,-4094.4,1106.7,-6.9,-6.0,3725.1,1186.8,-1.2,142.8,2176.8,-165.6,0,2946,0,108,0, 
1.6400,-190.8,370.8,787.5,771.3,925.2,-627.9,1719.3,119.1,-7780.5,879.6,-3793.5,-4054.8,-1829.7,1691.1,-4714.8,1106.1,-6.6,-5.7,3675.6,1168.8,-0.6,117.9,2192.7,-111.3,0,2952,0,109,0, 
1.6433,-183.0,384.3,795.6,777.6,928.8,-649.2,1695.6,127.8,-6298.5,917.4,-3594.3,-3902.7,-1960.2,1669.8,-3305.7,1095.9,-6.9,-5.7,3675.6,1173.9,-0.9,88.5,2110.2,-194.1,0,2958,0,110,0, 
1.6467,-217.2,401.1,828.9,804.0,948.3,-626.1,1721.4,145.5,-4816.5,938.1,-3701.1,-3979.8,-2048.4,1900.8,-1742.4,1110.9,-6.3,-6.0,3722.1,1179.6,-0.9,140.7,2139.9,-189.3,0,2964,0,111,0, 
1.6500,-185.4,421.5,830.1,796.5,931.5,-631.2,1717.5,144.9,-5261.1,940.8,-4175.4,-4196.7,-1805.7,1930.5,-2230.2,1068.3,-6.9,-6.3,3733.5,1178.4,-1.2,119.4,2160.9,-153.3,0,2970,0,112,0, 
1.6533,-203.7,398.4,802.5,786.6,947.4,-619.8,1722.9,137.1,-7113.6,888.6,-4189.8,-4125.0,-1899.6,1800.6,-4110.0,1077.6,-6.9,-5.7,3709.2,1193.4,-0.9,143.7,2149.5,-112.2,0,2976,0,113,0, 
1.6567,-199.8,392.4,813.9,790.5,955.2,-624.3,1714.2,136.5,-7706.4,913.8,-3948.6,-3922.2,-1925.1,1701.0,-4776.6,1070.1,-6.6,-5.7,3718.8,1194.9,-0.6,99.3,2121.0,-75.0,0,2982,0,114,0, 
1.6600,-183.6,374.1,786.0,765.6,934.2,-642.3,1704.0,122.1,-6224.4,819.9,-3782.1,-3878.7,-1840.5,1689.0,-3350.4,1088.1,-6.9,-6.3,3686.7,1162.2,-0.6,80.7,2110.5,-68.4,0,2988,0,115,0, 
1.6633,-212.4,365.4,796.5,772.5,932.7,-661.5,1695.0,130.5,-4890.6,902.4,-3793.2,-4051.8,-1872.3,1821.9,-1820.1,1053.6,-6.3,-5.7,3714.3,1158.9,-0.6,135.9,2108.1,-215.1,0,2994,0,116,0, 
1.6667,-228.0,323.7,758.1,741.3,911.4,-669.6,1713.6,110.1,-5335.2,860.1,-4223.4,-4228.8,-1923.3,1930.2,-2325.9,1115.4,-6.9,-6.0,3674.1,1131.0,-0.6,122.1,2232.3,-213.3,0,3000,0,117,0, 
1.6700,-219.3,352.5,786.3,763.5,935.4,-662.4,1701.6,121.8,-7187.7,921.0,-4220.4,-4120.8,-2090.7,1832.1,-4178.1,1110.0,-6.6,-6.0,3696.0,1166.1,-0.9,119.7,2088.6,-219.9,0,3006,0,118,0, 
1.6733,-187.2,382.5,777.3,749.7,915.3,-664.8,1698.3,111.3,-7780.5,877.8,-4025.1,-4088.1,-1951.8,1750.5,-4788.0,1079.7,-7.2,-6.0,3703.8,1149.3,-0.9,109.5,2102.7,-220.8,0,3012,0,119,0, 
1.6767,-215.4,349.8,756.3,735.6,901.2,-672.0,1707.0,104.4,-6298.5,877.8,-3791.7,-4100.1,-1903.2,1769.7,-3302.4,1121.4,-6.9,-6.3,3690.6,1118.4,-1.2,87.3,2130.0,-228.0,0,3018,0,120,0, 
1.6800,-185.7,372.3,774.6,744.3,894.0,-678.9,1705.2,112.2,-4742.4,868.2,-3856.2,-4177.8,-1771.8,1894.8,-1781.7,1106.4,-7.2,-6.3,3687.6,1121.4,-0.9,90.0,2157.6,-249.6,0,3024,0,121,0, 
1.6833,-217.2,361.5,774.3,760.2,921.3,-651.9,1719.6,120.9,-5557.5,895.5,-4176.3,-4303.8,-2055.0,1885.2,-2376.0,1107.9,-6.6,-6.0,3702.9,1163.1,-0.9,130.8,2186.7,-198.3,0,3030,0,122,0, 
1.6867,-173.4,428.1,783.6,754.8,909.0,-661.2,1713.0,117.0,-7187.7,896.4,-4126.8,-4222.5,-1868.1,1797.6,-4210.8,1069.5,-6.9,-6.3,3736.8,1146.0,-0.6,92.4,2154.0,-197.4,0,3036,0,123,0, 
1.6900,-201.3,371.7,774.6,761.1,913.2,-674.4,1702.5,111.0,-7780.5,910.2,-3857.4,-4094.4,-1948.5,1669.2,-4852.5,1095.0,-6.9,-6.0,3723.6,1138.2,-0.9,104.4,2156.1,-215.1,0,3042,0,124,0, 
1.6933,-184.8,417.0,787.2,755.4,907.5,-658.5,1713.0,115.5,-6446.7,874.5,-3692.7,-4023.6,-1857.6,1665.9,-3435.0,1083.3,-7.2,-5.7,3752.1,1139.1,-0.6,65.1,2187.0,-149.4,0,3048,0,125,0, 
1.6967,-196.8,379.8,772.5,754.2,916.8,-664.5,1701.3,111.0,-4816.5,849.9,-3747.0,-4095.3,-1870.2,1823.7,-1886.4,1134.0,-6.9,-5.7,3750.3,1160.4,-0.9,112.8,2138.7,-179.7,0,3054,0,126,0, 
1.7000,-203.1,369.3,766.2,745.2,913.2,-651.3,1702.5,108.0,-5557.5,855.9,-4048.8,-4267.8,-2013.9,1859.1,-2443.2,1110.3,-6.9,-6.3,3713.4,1144.5,-0.9,94.5,2178.9,-152.4,0,3060,0,127,0, 
1.7033,-207.3,375.3,764.4,746.4,913.5,-662.1,1708.2,107.4,-7335.9,889.2,-4041.3,-4175.7,-2078.1,1708.8,-4359.6,1132.8,-7.2,-6.0,3713.7,1144.5,-0.3,112.2,2158.5,-213.0,0,3066,0,128,0, 
1.7067,-206.7,337.8,759.6,743.1,912.0,-642.0,1704.9,103.5,-7928.7,899.7,-3782.7,-3960.0,-1995.9,1719.3,-4935.9,1098.6,-7.2,-6.0,3704.1,1146.0,-0.9,137.1,2085.3,-97.2,0,3072,0,129,0, 
1.7100,-195.6,340.5,756.6,745.2,909.9,-662.7,1701.9,103.5,-6372.6,869.7,-3718.2,-3898.5,-1868.4,1755.3,-3472.2,1120.2,-6.9,-6.0,3745.8,1140.9,-0.6,114.3,2154.9,-177.3,0,3078,0,130,0, 
1.7133,-193.5,370.2,777.0,756.0,921.6,-665.4,1701.0,117.0,-4890.6,902.1,-3828.6,-3963.0,-1946.1,1887.3,-1908.3,1100.1,-6.9,-6.0,3751.5,1176.9,-0.9,119.1,2155.2,-202.2,0,3084,0,131,0, 
1.7167,-180.0,414.9,783.3,746.1,905.7,-666.6,1712.7,111.0,-5409.3,857.1,-4109.1,-4131.3,-1906.8,1821.0,-2482.2,1133.7,-7.2,-6.0,3772.5,1128.9,-0.9,88.8,2195.4,-183.9,0,3090,0,132,0, 
1.7200,-209.4,363.3,782.4,759.3,926.1,-660.0,1712.1,111.9,-7410.0,932.4,-4233.0,-4068.6,-1995.9,1780.8,-4330.8,1114.2,-6.9,-5.7,3760.5,1164.9,-0.6,118.2,2154.9,-175.2,0,3096,0,133,0, 
1.7233,-191.1,381.3,759.9,735.3,909.6,-671.7,1703.4,95.1,-8002.8,883.2,-3982.8,-3927.0,-1788.0,1662.3,-4950.9,1099.5,-6.3,-6.3,3734.4,1144.8,-0.9,93.0,2205.0,-145.8,0,3102,0,134,0, 
1.7267,-212.7,345.3,767.4,750.3,930.9,-650.7,1709.7,111.6,-6372.6,890.7,-3785.1,-3812.1,-1970.7,1699.2,-3508.5,1116.6,-6.9,-6.0,3752.1,1158.0,-1.2,93.6,2137.2,-143.7,0,3108,0,135,0, 
1.7300,-189.3,400.2,798.9,759.0,932.7,-662.4,1693.2,123.0,-4964.7,888.3,-3961.5,-4028.7,-1849.8,1860.9,-1962.0,1103.7,-6.9,-6.0,3818.1,1166.4,-0.9,85.8,2095.2,-140.4,0,3114,0,136,0, 
1.7333,-196.8,372.3,784.2,763.5,940.8,-657.9,1692.6,122.4,-5557.5,894.3,-4353.6,-4036.2,-1852.5,1886.1,-2514.3,1086.3,-6.9,-6.0,3803.4,1177.8,-0.6,141.0,2064.0,-207.6,0,3120,0,137,0, 
1.7367,-214.2,343.2,770.7,755.4,933.3,-676.2,1692.9,114.3,-7335.9,883.8,-4457.1,-3930.9,-1951.5,1805.7,-4376.7,1120.5,-6.9,-6.0,3788.4,1170.0,-0.9,153.6,2122.8,-289.5,0,3126,0,138,0, 
1.7400,-189.9,395.4,794.7,767.1,940.5,-671.7,1690.8,122.7,-8002.8,933.9,-4291.8,-3805.8,-1926.9,1712.7,-4985.7,1077.3,-7.2,-5.7,3789.3,1177.5,-0.6,141.0,2112.0,-241.8,0,3132,0,139,0, 
1.7433,-192.6,389.4,785.7,759.9,933.6,-666.0,1687.2,115.2,-6446.7,900.3,-3985.2,-3735.6,-1865.1,1766.7,-3495.0,1061.7,-6.9,-5.7,3774.3,1158.6,-0.6,118.2,2108.4,-200.4,0,3138,0,140,0, 
1.7467,-191.1,390.0,792.3,767.4,934.2,-669.6,1688.1,114.6,-4964.7,910.8,-4133.4,-3868.5,-1867.5,1860.9,-1962.9,1081.8,-6.9,-5.4,3799.8,1164.6,-0.9,99.3,2120.7,-205.2,0,3144,0,141,0, 
1.7500,-190.2,402.6,783.3,759.3,928.5,-666.0,1700.1,111.0,-5557.5,862.2,-4416.3,-4098.3,-1911.3,1880.7,-2525.1,1061.7,-6.9,-6.0,3798.9,1159.8,-0.9,60.0,2161.8,-219.6,0,3150,0,142,0, 
1.7533,-181.5,399.6,766.2,739.2,908.4,-668.4,1691.7,98.7,-7410.0,856.2,-4393.2,-3967.8,-1925.7,1751.1,-4397.4,1059.6,-7.5,-6.3,3792.3,1124.4,-1.2,66.9,2103.3,-116.7,0,3156,0,143,0, 
1.7567,-205.5,353.4,733.5,724.5,904.5,-649.8,1710.0,91.2,-7928.7,835.2,-4232.4,-3803.1,-2145.9,1588.8,-5060.7,1082.1,-6.9,-6.0,3767.1,1131.3,-0.9,93.6,2182.8,-59.7,0,3162,0,144,0, 
1.7600,-216.0,366.6,754.2,742.8,917.7,-686.1,1686.6,96.3,-6520.8,898.2,-3990.3,-3662.1,-2015.1,1732.2,-3512.7,1058.7,-6.9,-6.0,3787.2,1144.8,-0.9,118.2,2103.0,-266.4,0,3168,0,145,0, 
1.7633,-196.5,373.8,750.9,735.0,909.0,-665.1,1698.0,94.5,-5112.9,846.3,-4140.9,-3802.5,-1817.7,1875.9,-1941.3,1095.0,-7.5,-5.7,3762.0,1149.0,-0.9,74.1,2160.0,-228.6,0,3174,0,146,0, 
1.7667,-204.6,355.2,746.4,738.0,906.9,-681.0,1681.5,93.0,-5557.5,869.4,-4353.6,-3966.0,-1930.2,1832.4,-2494.8,1070.1,-7.2,-6.0,3780.9,1155.3,-0.9,108.9,2063.1,-240.0,0,3180,0,147,0, 
1.7700,-218.7,319.8,729.3,724.5,897.9,-683.4,1682.7,76.5,-7335.9,859.2,-4432.8,-3956.4,-2055.0,1785.0,-4371.9,1094.4,-6.9,-5.7,3778.5,1141.5,-0.6,84.0,2071.8,-222.0,0,3186,0,148,0, 
1.7733,-208.5,336.9,736.2,723.0,901.2,-679.8,1689.9,74.1,-7928.7,856.8,-4173.9,-3744.9,-1919.7,1638.6,-4965.0,1103.1,-6.9,-5.4,3796.5,1128.0,-1.2,50.4,2130.9,-195.3,0,3192,0,149,0, 
1.7767,-221.1,324.6,732.3,717.3,897.3,-662.4,1702.5,73.2,-6372.6,876.6,-3934.2,-3701.1,-1850.7,1733.1,-3457.5,1131.6,-7.2,-6.0,3787.8,1098.6,-0.9,41.7,2160.3,-98.4,0,3198,0,150,0, 
1.7800,-211.5,359.7,753.0,733.5,912.9,-674.1,1692.0,93.6,-4890.6,849.6,-3972.3,-3717.0,-1930.5,1815.3,-1950.3,1090.2,-6.6,-6.0,3804.3,1146.9,-0.6,89.4,2097.0,-219.3,0,3204,0,151,0, 
1.7833,-211.8,378.9,754.2,733.2,918.0,-672.6,1695.9,95.4,-5779.8,849.9,-4259.7,-3804.3,-1940.1,1851.0,-2523.3,1070.1,-6.9,-5.7,3777.9,1148.1,-1.2,112.8,2134.5,-235.2,0,3210,0,152,0, 
1.7867,-203.4,353.1,752.4,730.8,913.5,-690.3,1680.6,84.3,-7410.0,852.6,-4325.7,-3727.8,-1942.5,1729.2,-4337.4,1081.2,-6.9,-5.7,3796.5,1147.2,-0.6,110.1,2139.0,-251.4,0,3216,0,153,0, 
1.7900,-219.6,341.7,751.8,736.5,924.3,-670.5,1685.1,85.5,-7928.7,875.7,-3997.2,-3606.6,-1930.2,1657.8,-4930.8,1076.1,-6.9,-5.7,3799.5,1146.6,-0.6,74.1,2101.8,-217.2,0,3222,0,154,0, 
1.7933,-204.9,349.8,753.0,723.6,900.6,-687.9,1683.0,83.7,-6372.6,864.9,-3840.3,-3556.2,-1932.6,1704.9,-3444.3,1098.0,-6.9,-6.0,3791.1,1124.4,-0.6,100.2,2105.7,-252.6,0,3228,0,155,0, 
1.7967,-198.0,366.6,750.6,727.8,909.9,-683.4,1681.8,93.6,-4890.6,843.9,-3987.6,-3757.2,-1863.3,1866.6,-1903.8,1081.2,-6.9,-6.0,3788.1,1149.0,-0.6,108.0,2093.1,-259.2,0,3234,0,156,0, 
1.8000,-186.6,393.6,745.2,714.3,895.5,-687.9,1692.0,85.5,-5483.4,843.3,-4161.6,-3872.7,-1932.6,1859.1,-2472.3,1098.6,-6.9,-5.7,3795.0,1114.2,-0.9,62.4,2208.3,-232.2,0,3240,0,157,0, 
1.8033,-177.3,397.2,759.6,717.9,896.4,-696.6,1682.1,82.8,-7484.1,899.4,-4310.7,-3893.4,-1920.0,1687.8,-4360.8,1099.5,-7.2,-5.7,3815.1,1112.7,-0.9,79.8,2106.3,-219.3,0,3246,0,158,0, 
1.8067,-198.6,359.7,754.8,725.1,914.4,-677.7,1695.3,78.3,-8076.9,906.3,-4078.8,-3628.2,-2038.2,1639.2,-4986.3,1126.5,-6.9,-5.7,3840.6,1147.8,-0.9,82.8,2158.2,-192.0,0,3252,0,159,0, 
1.8100,-203.7,374.7,769.8,741.3,933.9,-661.5,1697.1,96.0,-6372.6,896.1,-3905.7,-3635.1,-2061.0,1722.3,-3488.7,1073.4,-7.2,-6.0,3855.6,1177.5,-0.6,126.6,2106.0,-142.5,0,3258,0,160,0, 
1.8133,-208.2,355.5,762.3,743.4,934.2,-671.4,1695.9,102.3,-4816.5,925.2,-3995.7,-3819.6,-1897.5,1908.3,-1889.1,1107.6,-6.9,-5.7,3840.0,1154.1,-0.9,115.8,2092.5,-175.8,0,3264,0,161,0, 
1.8167,-214.5,354.0,754.2,729.3,923.1,-676.8,1701.0,95.4,-5557.5,887.4,-4324.2,-4012.8,-1806.3,1908.6,-2459.4,1104.9,-7.5,-5.7,3845.7,1138.8,-0.9,95.7,2149.8,-187.8,0,3270,0,162,0, 
1.8200,-204.6,371.1,765.9,735.9,928.5,-687.9,1689.6,89.1,-7335.9,890.1,-4462.8,-3968.7,-1914.6,1787.4,-4335.6,1088.7,-7.2,-5.7,3871.8,1151.1,-0.6,105.9,2124.0,-202.2,0,3276,0,163,0, 
1.8233,-184.8,396.0,768.9,729.6,920.4,-680.1,1695.9,90.6,-7928.7,895.8,-4249.8,-3737.1,-1892.7,1655.4,-4932.9,1086.9,-6.6,-6.0,3894.6,1124.4,-0.9,85.5,2115.6,-171.0,0,3282,0,164,0, 
1.8267,-197.4,370.8,767.1,731.7,922.8,-685.2,1698.6,95.1,-6520.8,902.4,-4011.3,-3680.1,-1836.3,1669.5,-3461.4,1141.2,-6.9,-5.7,3873.6,1135.2,-0.6,89.1,2140.2,-192.6,0,3288,0,165,0, 
1.8300,-206.7,371.7,769.8,742.2,934.8,-687.0,1687.8,102.9,-4890.6,901.8,-4128.6,-3778.5,-1841.4,1853.7,-1933.2,1099.2,-7.2,-5.7,3889.2,1187.7,-0.6,119.4,2122.5,-243.9,0,3294,0,166,0, 
1.8333,-181.2,416.7,774.9,743.7,934.8,-660.9,1703.7,105.0,-5557.5,863.7,-4390.8,-3974.7,-1842.9,1854.0,-2508.3,1080.6,-6.9,-5.7,3891.0,1193.4,-0.9,131.1,2182.5,-168.3,0,3300,0,167,0, 
1.8367,-187.2,401.4,767.1,739.5,928.8,-674.7,1688.4,95.1,-7410.0,857.7,-4452.6,-3963.3,-1952.7,1593.0,-4434.9,1123.5,-7.2,-5.7,3878.4,1183.2,-0.9,88.2,2104.8,-173.1,0,3306,0,168,0, 
1.8400,-212.1,405.0,790.2,754.2,946.5,-648.6,1700.7,105.6,-7854.6,882.3,-4125.9,-3807.9,-2203.8,1698.9,-5017.8,1100.7,-7.2,-5.7,3889.5,1180.8,-0.6,136.8,2115.0,-117.3,0,3312,0,169,0, 
1.8433,-204.9,375.0,743.7,712.5,890.4,-677.4,1709.4,87.6,-6372.6,882.9,-3853.8,-3809.7,-2070.3,1729.5,-3508.5,1116.3,-6.9,-5.7,3836.1,1098.3,-0.9,36.6,2202.9,-207.3,0,3318,0,170,0, 
1.8467,-187.2,406.2,773.4,732.9,912.9,-679.8,1686.6,109.5,-4890.6,867.0,-3896.7,-4020.6,-1827.0,1860.6,-1949.1,1046.7,-6.3,-6.0,3872.4,1119.3,-0.6,87.6,2103.3,-183.9,0,3324,0,171,0, 
1.8500,-217.5,350.4,763.2,742.8,932.4,-677.7,1694.1,112.2,-5557.5,841.8,-4172.7,-4185.3,-1892.7,1858.2,-2537.1,1084.8,-6.6,-6.0,3884.4,1164.0,-0.9,126.9,2116.8,-222.6,0,3330,0,172,0, 
1.8533,-202.5,367.2,773.1,753.0,934.8,-680.1,1693.5,105.3,-7335.9,924.3,-4353.3,-4183.2,-1979.4,1773.3,-4405.2,1077.9,-6.3,-5.7,3897.0,1180.2,-1.2,122.7,2112.6,-257.7,0,3336,0,173,0, 
1.8567,-177.6,382.2,775.2,749.7,930.6,-695.1,1678.8,106.5,-7854.6,886.8,-4019.1,-3921.6,-1925.1,1672.8,-4986.0,1054.8,-7.2,-6.3,3889.2,1177.5,-0.3,116.4,2053.2,-267.9,0,3342,0,174,0, 
1.8600,-215.7,344.7,769.5,747.3,939.3,-666.6,1692.0,108.3,-6446.7,887.1,-3927.9,-3888.3,-1907.4,1703.1,-3484.5,1065.3,-6.9,-5.7,3888.6,1176.0,-0.9,112.2,2076.6,-203.1,0,3348,0,175,0, 
1.8633,-209.1,346.8,743.4,726.0,922.5,-658.2,1711.5,97.5,-4816.5,836.7,-4019.1,-4028.7,-1776.0,1870.5,-1961.4,1089.9,-7.2,-6.0,3868.5,1162.5,-0.6,76.5,2200.2,-179.7,0,3354,0,176,0, 
1.8667,-218.4,345.6,759.6,733.5,928.2,-650.4,1707.9,98.4,-5557.5,877.5,-4333.8,-4187.4,-1885.5,1859.1,-2561.1,1105.2,-6.6,-5.4,3884.4,1152.9,-0.6,42.6,2126.1,-144.9,0,3360,0,177,0, 
1.8700,-151.5,466.5,802.5,747.9,927.6,-675.6,1680.6,108.6,-7410.0,915.6,-4373.7,-4191.0,-1783.2,1686.6,-4410.9,1045.8,-6.9,-5.7,3907.5,1160.1,-0.6,52.8,2036.1,-213.9,0,3366,0,178,0, 
1.8733,-198.3,385.2,745.8,718.8,924.6,-651.0,1706.7,81.9,-7928.7,805.5,-4122.6,-4019.4,-2137.5,1516.8,-5076.6,1095.9,-6.9,-6.0,3843.3,1149.6,-1.2,59.7,2170.2,-138.9,0,3372,0,179,0, 
1.8767,-237.6,334.2,750.0,731.7,933.9,-667.5,1703.7,91.8,-6446.7,835.2,-3904.8,-3943.5,-1976.4,1712.7,-3504.9,1130.4,-6.9,-5.7,3861.6,1176.3,-0.9,167.4,2182.5,-240.6,0,3378,0,180,0, 
1.8800,-217.5,330.3,754.5,728.4,930.9,-661.5,1706.4,94.8,-4964.7,862.2,-4015.2,-4080.9,-1840.8,1890.6,-1947.3,1123.2,-6.6,-6.3,3861.6,1168.2,-0.6,97.5,2162.1,-212.1,0,3384,0,181,0, 
1.8833,-212.1,351.0,771.3,743.4,929.4,-678.0,1683.0,108.3,-5483.4,870.9,-4384.8,-4286.7,-1928.4,1940.4,-2491.2,1107.0,-6.9,-6.0,3893.7,1169.7,-1.2,103.5,2040.9,-237.3,0,3390,0,182,0, 
1.8867,-201.9,390.9,785.7,746.7,935.4,-662.1,1692.0,113.4,-7410.0,903.9,-4516.8,-4294.8,-1922.7,1794.3,-4361.7,1102.5,-6.6,-6.3,3906.3,1173.6,-0.9,99.6,2106.6,-175.2,0,3396,0,183,0, 
1.8900,-195.9,405.6,795.0,754.8,933.0,-669.3,1687.8,114.6,-7928.7,870.3,-4152.0,-4150.2,-1923.9,1708.2,-4920.6,1096.2,-6.9,-6.0,3936.6,1168.8,-1.2,126.6,2096.4,-246.6,0,3402,0,184,0, 
1.8933,-192.0,402.6,782.7,738.0,930.6,-636.3,1709.1,111.3,-6372.6,874.5,-4009.2,-4137.0,-1850.1,1717.2,-3438.0,1104.9,-6.9,-6.3,3913.2,1167.6,-0.6,79.2,2201.4,-125.7,0,3408,0,185,0, 
1.8967,-197.7,414.0,789.9,742.8,933.0,-640.2,1703.1,116.4,-4964.7,921.6,-4169.4,-4347.6,-1971.3,1790.1,-1971.6,1118.7,-6.9,-5.7,3928.5,1168.5,-0.9,84.6,2132.4,-144.9,0,3414,0,186,0, 
1.9000,-199.8,417.9,804.3,753.9,939.9,-664.5,1684.8,118.2,-5631.6,895.2,-4527.6,-4625.7,-1964.1,1875.0,-2547.6,1072.5,-6.9,-6.0,3950.1,1183.2,-0.6,118.8,2096.1,-260.4,0,3420,0,187,0, 
1.9033,-194.7,409.2,806.7,752.7,933.9,-658.8,1684.5,111.3,-7410.0,906.0,-4692.9,-4628.7,-2007.6,1804.8,-4372.2,1104.6,-7.5,-5.4,3964.5,1178.1,-0.9,119.4,2072.1,-256.2,0,3426,0,188,0, 
1.9067,-189.9,400.2,782.1,740.1,930.9,-639.3,1699.5,104.4,-7928.7,858.3,-4542.6,-4478.4,-1906.5,1692.0,-4947.3,1092.6,-6.9,-6.0,3913.2,1192.8,-0.9,122.1,2167.2,-177.9,0,3432,0,189,0, 
1.9100,-196.5,365.7,765.9,727.8,913.2,-676.8,1686.0,96.3,-6372.6,858.6,-4329.3,-4479.6,-1882.8,1772.7,-3393.0,1128.6,-6.9,-5.4,3900.9,1163.4,-1.2,115.5,2126.4,-254.7,0,3438,0,190,0, 
1.9133,-210.6,373.5,780.3,741.0,936.3,-645.6,1708.5,105.6,-4816.5,871.5,-4453.5,-4692.3,-1861.2,1900.8,-1918.5,1108.2,-6.6,-5.7,3922.5,1196.1,-0.3,155.1,2168.7,-172.5,0,3444,0,191,0, 
1.9167,-191.7,405.6,780.0,735.9,934.2,-649.2,1697.1,113.1,-5631.6,878.7,-4585.5,-4861.5,-1825.5,1919.4,-2521.8,1103.7,-6.3,-5.7,3901.2,1188.9,-0.9,133.2,2103.9,-179.1,0,3450,0,192,0, 
1.9200,-189.3,373.8,760.8,731.4,930.9,-639.0,1705.8,100.2,-7410.0,906.3,-4440.6,-4804.8,-1818.9,1794.0,-4374.3,1108.5,-6.9,-6.0,3879.0,1186.2,-0.6,136.5,2154.9,-157.2,0,3456,0,193,0, 
1.9233,-195.9,359.7,769.5,730.8,923.4,-648.6,1710.9,95.4,-7928.7,893.7,-4188.6,-4805.4,-1997.1,1711.2,-4951.2,1113.3,-6.6,-5.7,3899.4,1176.9,-0.9,112.5,2191.2,-177.9,0,3462,0,194,0, 
1.9267,-172.2,446.4,802.8,743.4,928.8,-630.6,1717.2,108.9,-6224.4,931.8,-4085.1,-4832.1,-1724.7,1706.1,-3460.5,1087.2,-6.9,-5.7,3947.7,1176.6,-0.6,99.9,2221.5,-139.2,0,3468,0,195,0, 
1.9300,-140.4,461.7,797.7,742.8,915.6,-651.6,1697.7,116.1,-4964.7,858.6,-4279.8,-5132.7,-1804.2,1765.5,-2016.6,1074.3,-6.9,-5.4,3927.9,1166.1,-0.9,60.6,2085.0,-171.3,0,3474,0,196,0, 
1.9333,-224.4,367.5,784.2,747.0,929.4,-644.4,1700.7,115.5,-5631.6,861.3,-4485.6,-5289.6,-2029.5,1804.8,-2634.3,1103.4,-6.9,-5.7,3912.0,1165.2,-1.2,80.4,2073.9,-160.2,0,3480,0,197,0, 
1.9367,-206.7,371.4,776.1,741.6,921.6,-653.4,1703.7,109.2,-7335.9,870.0,-4339.2,-5192.1,-1996.8,1794.0,-4462.5,1111.2,-6.9,-5.7,3907.2,1168.8,-0.6,80.4,2128.8,-208.2,0,3486,0,198,0, 
1.9400,-202.5,351.0,777.6,746.1,940.8,-645.9,1691.7,110.7,-7854.6,870.3,-4020.3,-5092.8,-1914.0,1706.4,-4966.8,1101.3,-6.9,-5.7,3921.9,1209.3,-0.9,132.9,2057.7,-225.9,0,3492,0,199,0, 
1.9433,-193.5,366.6,779.4,738.3,927.0,-661.2,1692.9,105.0,-6372.6,921.6,-3694.5,-5108.7,-1845.9,1753.5,-3456.3,1087.5,-7.2,-5.7,3924.6,1181.7,-0.9,111.6,2078.4,-239.1,0,3498,0,200,0, 
1.9467,-152.4,455.1,785.1,723.9,909.0,-660.9,1699.2,107.1,-4890.6,827.7,-3538.5,-5306.1,-1804.5,1804.8,-1976.4,1071.9,-6.9,-6.0,3893.7,1159.8,-0.9,72.9,2151.9,-167.1,0,3504,0,201,0, 
1.9500,-181.2,406.8,756.6,712.8,905.4,-664.2,1705.5,97.2,-5779.8,783.0,-3687.6,-5508.3,-1946.1,1725.9,-2637.3,1103.1,-6.6,-6.0,3854.4,1149.6,0.0,46.8,2183.1,-144.0,0,3510,0,202,0, 
1.9533,-208.5,360.6,760.8,728.7,912.0,-671.4,1692.9,99.9,-7484.1,864.0,-3577.8,-5456.1,-2090.4,1730.1,-4483.5,1086.3,-6.6,-6.0,3888.6,1149.6,-0.6,45.9,2073.9,-202.2,0,3516,0,203,0, 
1.9567,-185.1,358.2,746.4,716.1,899.4,-673.8,1693.5,87.3,-8002.8,863.7,-3283.8,-5394.6,-2006.1,1641.9,-5000.1,1106.7,-6.6,-5.7,3888.0,1141.5,-0.9,62.7,2070.3,-204.6,0,3522,0,204,0, 
1.9600,-211.8,307.5,716.4,690.3,887.4,-690.0,1702.8,70.5,-6298.5,823.8,-3015.3,-5322.0,-1924.8,1716.0,-3441.0,1143.3,-6.9,-5.4,3845.1,1143.6,-0.9,71.7,2209.2,-317.4,0,3528,0,205,0, 
1.9633,-177.0,368.7,762.9,725.7,915.6,-679.8,1683.6,100.5,-4964.7,857.7,-3004.5,-5387.4,-1807.5,1823.4,-1919.1,1092.9,-6.9,-5.7,3893.1,1172.1,-0.9,87.6,2068.2,-325.5,0,3534,0,206,0, 
1.9667,-204.3,367.2,767.1,730.8,930.3,-657.3,1701.3,101.7,-5557.5,854.1,-3335.1,-5614.8,-1942.5,1851.6,-2556.0,1125.9,-7.2,-5.7,3885.9,1194.6,-0.6,127.2,2126.1,-251.4,0,3540,0,207,0, 
1.9700,-199.8,363.3,779.1,739.8,934.5,-634.5,1719.0,103.8,-7410.0,875.4,-3258.9,-5436.3,-1918.8,1777.5,-4344.9,1123.5,-6.9,-6.0,3924.9,1193.1,-0.6,116.7,2156.7,-197.4,0,3546,0,208,0, 
1.9733,-172.5,403.8,783.0,730.2,921.0,-635.7,1713.3,101.4,-7780.5,914.7,-2922.3,-5366.4,-1885.2,1700.7,-4881.9,1125.3,-6.9,-5.7,3912.3,1155.9,-0.6,95.1,2128.5,-151.5,0,3552,0,209,0, 
1.9767,-173.4,382.5,767.4,733.5,927.6,-628.2,1707.6,104.7,-6150.3,862.2,-2553.9,-5322.0,-1858.2,1731.6,-3318.0,1110.6,-6.9,-6.3,3893.4,1173.6,-0.6,121.5,2080.2,-157.8,0,3558,0,210,0, 
1.9800,-185.1,377.4,772.5,731.7,918.0,-653.1,1702.2,105.3,-4742.4,868.8,-2430.6,-5546.7,-1756.8,1941.3,-1788.0,1135.8,-6.9,-5.4,3908.1,1162.2,-0.9,82.8,2130.3,-211.5,0,3564,0,211,0, 
1.9833,-177.6,409.2,784.5,739.5,919.5,-650.4,1704.9,107.7,-5409.3,904.5,-2619.0,-5713.8,-1829.4,1797.3,-2429.4,1144.8,-6.6,-5.7,3910.2,1158.6,-0.3,51.3,2183.4,-205.8,0,3570,0,212,0, 
1.9867,-169.5,417.3,792.6,764.7,961.2,-633.6,1699.5,126.3,-7335.9,881.1,-2510.4,-5683.8,-1880.1,1718.1,-4295.1,1116.3,-6.6,-6.0,3910.5,1225.2,-0.6,144.6,2085.9,-216.9,0,3576,0,213,0, 
1.9900,-199.2,362.1,759.6,740.4,951.6,-619.8,1713.9,111.3,-7706.4,794.1,-1999.5,-5422.8,-2050.8,1694.4,-4809.0,1141.2,-6.9,-5.4,3882.0,1207.2,-0.9,129.0,2184.0,-173.4,0,3582,0,214,0, 
1.9933,-192.0,401.7,807.3,779.7,975.6,-605.4,1709.1,142.2,-6224.4,897.0,-1773.0,-5417.4,-1869.9,1774.8,-3233.7,1086.9,-6.9,-6.0,3952.2,1220.1,-0.6,119.1,2065.2,-109.2,0,3588,0,215,0, 
1.9967,-174.3,449.4,816.9,774.0,967.8,-618.0,1703.7,147.9,-4594.2,905.4,-1884.0,-5613.0,-1883.1,1876.5,-1749.0,1048.2,-6.9,-6.0,3956.1,1200.0,-0.9,114.3,2109.0,-161.4,0,3594,0,216,0, 
2.0000,-182.7,424.2,792.3,762.6,957.0,-623.4,1709.4,141.0,-5335.2,872.7,-1731.9,-5718.0,-1992.9,1882.8,-2324.4,1082.7,-6.6,-6.0,3922.5,1183.5,-0.6,97.2,2102.7,-176.4,0,3600,0,217,0, 
2.0033,-182.4,395.4,769.2,744.9,944.4,-652.2,1702.2,115.8,-7113.6,888.6,-1602.0,-5550.9,-1965.6,1812.6,-4119.3,1089.3,-7.2,-5.7,3911.7,1193.7,-0.6,111.3,2118.6,-273.6,0,3606,0,218,0, 
2.0067,-168.6,414.6,772.5,740.7,938.7,-660.9,1694.1,107.7,-7558.2,863.7,-1089.6,-5321.1,-1859.7,1694.1,-4600.8,1065.3,-6.6,-6.0,3918.3,1170.3,-0.3,109.8,2108.7,-244.5,0,3612,0,219,0, 
2.0100,-199.5,377.1,753.3,713.7,909.0,-658.8,1702.5,87.3,-6002.1,861.3,-699.6,-5078.4,-1917.3,1742.7,-3050.1,1077.9,-6.9,-6.0,3910.2,1152.3,-0.9,82.8,2170.8,-151.5,0,3618,0,220,0, 
2.0133,-215.7,356.1,733.8,694.5,883.8,-693.6,1676.7,73.5,-4594.2,843.3,-686.1,-5109.6,-1881.0,1839.6,-1637.1,1071.6,-7.5,-6.0,3894.0,1125.9,-0.6,60.9,2131.8,-256.8,0,3624,0,221,0, 
2.0167,-212.4,341.7,742.8,714.0,900.0,-695.1,1663.2,84.3,-5261.1,837.3,-956.1,-5211.0,-1911.9,1904.1,-2313.6,1057.2,-6.9,-6.0,3892.5,1164.6,-0.6,96.6,1992.0,-295.8,0,3630,0,222,0, 
2.0200,-225.6,313.5,727.5,699.9,891.3,-687.0,1673.7,66.9,-7335.9,824.4,-878.7,-5116.2,-1940.4,1798.5,-4154.7,1059.0,-6.6,-5.7,3862.2,1158.0,-0.9,66.0,2082.6,-258.9,0,3636,0,223,0, 
2.0233,-226.5,328.8,728.7,700.2,888.6,-698.7,1670.1,61.2,-7706.4,834.3,-696.6,-5012.4,-1906.8,1691.7,-4683.3,1079.7,-7.2,-6.3,3845.7,1152.0,-0.9,68.7,2082.9,-260.1,0,3642,0,224,0, 
2.0267,-203.7,374.7,763.2,720.3,899.7,-683.7,1668.9,74.7,-6076.2,869.7,-448.2,-4977.3,-1805.4,1734.3,-3135.0,1040.4,-7.2,-5.7,3885.9,1152.6,-0.9,47.7,2087.7,-222.6,0,3648,0,225,0, 
2.0300,-190.5,402.6,762.9,714.9,891.9,-690.0,1660.8,76.2,-4668.3,801.9,-588.0,-5099.1,-1762.5,1823.4,-1662.3,1035.0,-6.9,-6.0,3867.3,1131.6,-0.6,28.2,2041.5,-211.5,0,3654,0,226,0, 
2.0333,-221.4,350.7,747.9,720.3,911.4,-683.1,1667.4,73.8,-5261.1,818.7,-728.4,-5122.5,-2048.7,1859.1,-2300.7,1059.0,-6.9,-5.7,3865.2,1168.2,-0.9,78.9,2046.0,-227.1,0,3660,0,227,0, 
2.0367,-216.6,369.6,746.4,719.1,906.0,-666.0,1675.5,71.4,-7187.7,825.3,-902.4,-5008.2,-2083.8,1734.0,-4151.1,1056.6,-6.9,-6.0,3846.6,1142.7,-1.2,42.0,2052.3,-143.4,0,3666,0,228,0, 
2.0400,-220.5,363.3,753.0,720.3,898.8,-697.8,1659.9,58.8,-7632.3,806.4,-531.3,-4835.7,-1904.7,1646.1,-4662.6,1037.1,-6.6,-5.7,3873.6,1131.3,-1.2,45.3,2079.9,-250.2,0,3672,0,229,0, 
2.0433,-225.6,346.8,742.2,713.1,890.7,-686.7,1667.4,59.4,-6076.2,813.3,-157.8,-4786.5,-1952.4,1698.9,-3148.8,1067.1,-6.6,-6.0,3865.5,1122.0,-1.2,15.0,2135.1,-201.9,0,3678,0,230,0, 
2.0467,-220.8,336.0,740.1,709.5,888.6,-698.4,1664.1,57.9,-4668.3,797.7,-219.0,-4979.4,-1923.9,1833.0,-1676.4,1054.2,-6.6,-5.4,3868.8,1120.2,-0.6,3.3,2106.3,-177.9,0,3684,0,231,0, 
2.0500,-202.2,402.3,767.1,726.3,897.0,-717.0,1649.7,71.4,-5409.3,844.5,-453.9,-5112.9,-2025.6,1793.4,-2292.3,1076.1,-6.6,-6.0,3890.4,1140.3,-0.9,30.9,1998.9,-290.1,0,3690,0,232,0, 
2.0533,-233.7,361.8,750.3,721.5,901.5,-708.0,1662.9,57.0,-7039.5,795.9,-483.6,-4932.3,-2066.4,1698.9,-4129.2,1074.6,-6.6,-5.4,3872.4,1169.7,-0.3,63.6,2076.6,-274.8,0,3696,0,233,0, 
2.0567,-244.2,320.4,740.1,713.1,899.7,-698.1,1667.4,46.5,-7558.2,805.5,-164.1,-4789.5,-1901.7,1649.7,-4590.6,1101.0,-6.9,-5.7,3850.2,1166.7,-0.9,86.4,2115.0,-257.1,0,3702,0,234,0, 
2.0600,-243.6,294.3,729.3,702.9,884.4,-713.4,1669.2,42.3,-5928.0,800.4,226.5,-4723.5,-1874.1,1764.6,-3021.9,1107.9,-6.6,-6.3,3833.4,1136.1,-0.9,56.7,2127.6,-258.6,0,3708,0,235,0, 
2.0633,-229.2,318.0,739.8,703.2,873.6,-719.1,1660.5,48.6,-4446.0,834.6,217.2,-4873.2,-1751.7,1877.7,-1496.1,1085.4,-7.2,-5.7,3841.5,1125.9,-0.9,30.6,2091.6,-260.4,0,3714,0,236,0, 
2.0667,-228.0,357.3,765.9,727.5,898.5,-711.9,1655.1,64.5,-5187.0,828.3,52.5,-4931.4,-1983.6,1889.7,-2127.0,1050.6,-7.5,-6.0,3854.1,1150.8,-0.6,62.7,2049.3,-242.1,0,3720,0,237,0, 
2.0700,-237.3,329.7,742.8,718.2,890.4,-697.2,1670.7,46.8,-7039.5,833.4,90.9,-4885.2,-2073.3,1773.0,-3958.2,1093.5,-7.2,-5.7,3828.6,1149.6,-0.6,62.7,2108.1,-160.8,0,3726,0,238,0, 
2.0733,-211.2,395.1,785.7,745.8,913.5,-678.3,1677.3,61.8,-7484.1,844.2,475.5,-4724.1,-1806.6,1655.1,-4449.3,1054.2,-7.2,-6.0,3860.1,1161.0,-0.3,71.4,2103.6,-72.3,0,3732,0,239,0, 
2.0767,-237.0,356.7,766.8,737.1,906.9,-704.4,1672.8,59.1,-6002.1,821.4,733.5,-4752.0,-2014.5,1701.6,-2964.6,1083.6,-6.9,-6.0,3840.3,1158.0,-1.2,50.7,2082.0,-223.2,0,3738,0,240,0, 
2.0800,-224.4,380.7,783.3,751.8,922.2,-696.0,1672.5,78.9,-4520.1,857.1,816.3,-4935.9,-1995.6,1874.7,-1505.1,1062.0,-6.6,-5.4,3847.8,1165.2,-0.9,78.0,2116.2,-216.9,0,3744,0,241,0, 
2.0833,-235.2,376.8,783.6,757.2,919.8,-701.4,1670.1,75.9,-5187.0,841.2,661.8,-5059.8,-1994.7,1891.8,-2088.0,1101.6,-7.2,-5.4,3855.0,1156.2,-0.6,52.8,2096.1,-189.0,0,3750,0,242,0, 
2.0867,-223.5,358.2,777.6,751.5,926.1,-680.4,1678.5,68.4,-6965.4,855.3,616.5,-5072.1,-1977.6,1764.9,-3951.9,1047.3,-6.9,-6.0,3851.7,1165.2,-0.6,73.8,2155.2,-172.8,0,3756,0,243,0, 
2.0900,-217.2,379.2,777.0,746.7,914.1,-691.8,1665.9,66.6,-7335.9,814.8,860.1,-4821.6,-1843.2,1610.4,-4457.4,1077.3,-6.9,-6.0,3819.9,1150.2,-0.9,52.8,2031.6,-201.0,0,3762,0,244,0, 
2.0933,-228.6,343.2,776.1,750.0,918.3,-719.1,1645.2,63.3,-5779.8,831.0,1053.9,-4732.2,-1776.3,1782.0,-2874.6,1050.3,-6.9,-6.3,3811.8,1184.1,-0.6,116.4,2037.9,-345.3,0,3768,0,245,0, 
2.0967,-250.8,285.3,737.4,733.8,923.4,-685.8,1664.1,51.3,-4371.9,841.5,1086.9,-4761.3,-1915.5,1926.9,-1400.1,1068.3,-6.9,-5.4,3774.6,1181.7,-0.6,94.5,2074.5,-252.0,0,3774,0,246,0, 
2.1000,-252.0,298.5,733.5,718.5,897.6,-702.0,1673.1,42.0,-5038.8,801.3,853.8,-4744.5,-1911.3,1933.5,-2028.9,1041.0,-6.9,-6.0,3778.5,1157.1,-0.6,47.7,2170.8,-255.0,0,3780,0,247,0, 
2.1033,-229.8,334.2,753.3,723.0,896.4,-720.0,1649.4,43.5,-6965.4,843.3,892.5,-4674.6,-1970.1,1788.3,-3843.9,1055.1,-6.9,-5.7,3808.5,1148.1,-0.6,52.5,2040.3,-231.0,0,3786,0,248,0, 
2.1067,-216.6,349.2,760.8,726.3,897.6,-716.1,1649.4,42.3,-7261.8,843.0,1268.7,-4482.3,-1923.9,1731.3,-4335.0,1038.3,-6.9,-5.7,3820.2,1150.8,-0.6,36.9,2027.1,-194.4,0,3792,0,249,0, 
2.1100,-237.6,345.6,771.0,733.8,891.6,-710.7,1652.7,46.8,-5705.7,843.9,1669.8,-4363.2,-1855.8,1761.6,-2763.0,1062.9,-6.6,-5.7,3839.4,1148.4,-0.9,37.2,2043.0,-211.2,0,3798,0,250,0, 
2.1133,-224.7,360.3,762.6,723.9,877.5,-716.1,1655.7,46.2,-4371.9,793.5,1675.5,-4455.0,-1726.2,1896.9,-1311.6,1076.1,-6.6,-6.3,3821.7,1150.8,-0.9,38.7,2101.5,-266.7,0,3804,0,251,0, 
2.1167,-223.5,347.1,746.7,715.2,865.5,-727.8,1650.3,34.8,-5038.8,808.2,1477.8,-4549.8,-1989.6,1917.9,-1958.4,1058.7,-7.2,-6.0,3780.0,1127.4,-0.9,19.2,2066.4,-238.8,0,3810,0,252,0, 
2.1200,-237.3,360.3,736.8,705.6,857.4,-721.5,1671.6,22.2,-6965.4,745.8,1588.2,-4438.8,-2054.7,1680.6,-3841.8,1104.0,-6.6,-5.4,3735.9,1140.9,-0.6,0.0,2196.0,-232.5,0,3816,0,253,0, 
2.1233,-249.9,347.4,756.3,735.6,891.3,-691.8,1677.0,38.1,-7187.7,789.0,1970.1,-4138.2,-2100.6,1645.8,-4350.6,1025.4,-6.6,-6.0,3750.6,1182.0,-0.9,85.2,2131.2,-187.2,0,3822,0,254,0, 
2.1267,-257.7,300.3,737.4,725.1,886.5,-700.2,1650.0,36.3,-5779.8,805.5,2379.9,-3979.2,-2097.9,1810.5,-2746.8,1069.2,-6.6,-5.7,3717.9,1168.5,-0.6,78.0,1992.6,-209.1,0,3828,0,255,0, 
2.1300,-248.4,328.2,751.2,728.4,889.5,-697.5,1658.7,45.3,-4223.7,788.4,2369.1,-4163.4,-1952.1,1939.5,-1262.4,1048.2,-6.9,-5.7,3711.0,1157.7,-1.2,63.9,2080.2,-189.6,0,3834,0,0,0, 
2.1333,-258.9,326.1,762.9,734.7,889.5,-696.9,1669.8,39.9,-4890.6,808.8,1984.5,-4275.6,-1998.6,1929.9,-1889.4,1089.0,-6.9,-5.4,3723.9,1156.8,-0.6,59.4,2116.2,-167.4,0,3840,0,1,0, 
2.1367,-225.6,387.9,801.9,749.4,888.9,-722.7,1645.2,48.3,-6669.0,824.7,2085.3,-4184.4,-1890.0,1785.9,-3723.9,1032.9,-6.9,-6.0,3753.9,1143.3,-0.6,17.1,2016.9,-248.1,0,3846,0,2,0, 
2.1400,-245.7,349.8,790.5,749.7,903.6,-713.4,1662.6,39.6,-7187.7,812.7,2445.0,-3898.8,-1969.5,1671.6,-4230.3,1076.4,-6.6,-5.4,3742.8,1180.5,-0.6,48.0,2128.8,-259.2,0,3852,0,3,0, 
2.1433,-242.4,336.9,780.0,750.6,911.7,-716.7,1645.2,40.5,-5705.7,798.3,2690.1,-3826.8,-1888.5,1778.7,-2680.2,1044.9,-6.9,-6.0,3714.3,1195.8,-0.6,47.7,2026.8,-233.1,0,3858,0,4,0, 
2.1467,-239.4,316.5,763.8,739.2,910.2,-716.7,1657.2,44.1,-4223.7,802.5,2612.7,-4005.6,-1821.0,1895.7,-1187.4,1063.5,-6.9,-6.0,3689.7,1183.8,-0.9,82.8,2090.1,-286.5,0,3864,0,5,0, 
2.1500,-243.0,297.0,744.9,723.6,899.4,-711.6,1662.9,36.6,-4890.6,813.3,2407.2,-4089.0,-1898.7,1924.8,-1835.7,1043.7,-6.9,-6.0,3674.4,1162.5,-0.6,37.8,2103.3,-222.6,0,3870,0,6,0, 
2.1533,-233.4,310.5,740.4,712.2,879.6,-714.0,1667.1,21.6,-6669.0,795.0,2563.8,-3989.1,-1912.2,1815.9,-3648.6,1044.3,-6.9,-5.7,3651.6,1125.6,-0.6,17.1,2139.0,-183.0,0,3876,0,7,0, 
2.1567,-237.6,307.5,740.7,716.1,891.0,-708.6,1657.2,19.8,-7261.8,783.0,2913.6,-3711.9,-2042.1,1710.6,-4156.8,1041.0,-6.6,-5.7,3648.9,1137.9,-0.6,21.9,2038.2,-167.7,0,3882,0,8,0, 
2.1600,-226.8,341.4,768.3,739.5,905.7,-724.8,1647.0,35.7,-5557.5,789.3,3004.2,-3611.4,-1864.2,1810.2,-2570.4,1038.9,-6.9,-5.7,3681.3,1168.8,-0.9,54.3,2050.2,-240.6,0,3888,0,9,0, 
2.1633,-231.0,359.7,778.8,748.5,916.2,-705.3,1656.6,42.3,-4223.7,820.2,2971.5,-3606.0,-2080.5,1879.8,-1194.9,1048.8,-7.2,-5.7,3677.7,1169.1,-0.6,39.6,2098.2,-209.4,0,3894,0,10,0, 
2.1667,-222.3,351.9,765.0,743.1,905.7,-726.6,1653.3,38.7,-4816.5,803.7,2647.8,-3883.5,-1872.6,1932.6,-1791.3,1072.2,-6.9,-6.0,3648.9,1167.0,-1.2,44.4,2066.4,-282.9,0,3900,0,11,0, 
2.1700,-238.8,327.0,759.6,742.2,905.7,-725.1,1650.9,32.1,-6743.1,804.6,2593.8,-3810.6,-2027.4,1776.0,-3626.4,1071.0,-6.9,-6.0,3633.6,1149.0,-0.9,68.4,2076.9,-280.2,0,3906,0,12,0, 
2.1733,-217.8,352.5,762.0,745.8,905.7,-711.6,1664.1,35.7,-7187.7,773.7,2923.8,-3562.2,-2069.4,1754.4,-4139.1,1079.4,-6.9,-6.3,3623.4,1169.1,-1.2,71.4,2100.3,-210.3,0,3912,0,13,0, 
2.1767,-219.0,347.4,787.5,768.3,919.5,-694.5,1672.2,50.1,-5557.5,815.7,3101.4,-3474.6,-1821.0,1785.6,-2579.7,1040.4,-6.6,-6.0,3665.1,1191.0,-0.6,88.8,2122.2,-221.7,0,3918,0,14,0, 
2.1800,-219.0,330.0,778.5,760.8,911.7,-690.0,1678.8,47.7,-4149.6,794.1,2943.9,-3530.1,-1881.0,1958.4,-1135.5,1065.9,-6.9,-5.7,3653.7,1167.0,-0.3,62.7,2133.0,-196.2,0,3924,0,15,0, 
2.1833,-213.3,343.2,790.8,774.0,922.5,-696.3,1663.8,51.9,-4668.3,849.0,2661.9,-3549.3,-1823.1,1921.5,-1779.9,1047.6,-6.6,-6.0,3668.1,1182.0,-0.9,65.7,2057.1,-200.1,0,3930,0,16,0, 
2.1867,-175.5,398.1,795.9,762.6,909.0,-707.7,1662.0,43.2,-6743.1,810.3,2555.7,-3540.6,-1869.3,1726.8,-3678.3,994.5,-6.9,-5.4,3652.2,1157.1,-0.6,22.5,2087.7,-217.5,0,3936,0,17,0, 
2.1900,-221.1,375.6,794.4,763.2,905.4,-708.0,1668.3,34.8,-7113.6,826.2,2814.6,-3242.1,-2135.1,1577.4,-4190.1,1052.7,-6.6,-5.7,3673.5,1162.8,-1.2,37.5,2113.8,-213.3,0,3942,0,18,0, 
2.1933,-218.4,384.9,780.9,747.0,884.1,-724.8,1642.8,26.4,-5631.6,775.2,2987.1,-3216.9,-2105.7,1752.0,-2656.8,1043.7,-7.2,-6.6,3640.8,1151.1,-0.6,20.7,2013.6,-205.8,0,3948,0,19,0, 
