Time,P3,C3,F3,Fz,F4,C4,P4,Cz,CM,A1,Fp1,Fp2,T3,T5,O1,O2,X3,X2,F7,F8,X1,A2,T6,T4,Trigger,Time_Offset,ADC_Status,ADC_Sequence,Event,Comments
0.0033,216.6,40.5,-278.4,34.8,8005.8,48.0,431.7,9830.1,44460.0,220.5,8027.7,8967.3,256.5,9827.1,9830.1,9830.1,-6.9,-6.0,9813.6,9830.1,-0.6,276.3,2435.1,-25.2,0,6,36219192918016,52,0, 
0.0067,286.5,45.0,-240.3,120.6,-6249.0,-258.9,523.8,-3525.6,-65504.4,379.5,-4629.0,-4742.7,-389.7,-4626.3,-7084.5,-3546.6,-7.5,-6.0,-4242.9,-4373.7,-0.3,447.3,-8589.9,-93.0,0,12,36219192918016,53,0, 
0.0100,261.0,27.3,-250.5,96.9,-9819.9,-287.1,519.0,-9830.1,-143457.6,361.2,-9830.1,-9817.8,-537.0,-9827.4,-9830.1,-9830.1,-6.9,-5.7,-9830.1,-9830.1,-0.6,422.1,-9830.1,-96.6,0,18,36219192918016,54,0, 
0.0133,175.2,34.8,-299.1,-3.3,540.3,-11.4,414.0,-5132.7,-80176.2,174.9,-2893.8,-2952.9,-1.8,-5883.6,-8470.8,-5034.3,-6.6,-5.7,-4030.2,-4338.3,-0.6,235.2,-1669.5,-37.2,0,24,36219192918016,55,0, 
0.0167,158.1,42.6,-312.6,-35.4,9819.6,204.6,376.2,9654.6,36457.2,102.0,8111.4,9261.6,511.8,9342.6,8035.2,9700.2,-6.9,-6.0,9758.1,9799.2,-0.6,154.8,8396.1,10.2,0,30,36219192918016,56,0, 
0.0200,233.7,49.5,-279.6,40.8,8075.1,58.8,448.5,9830.1,44904.6,225.9,8094.0,9015.6,295.5,9827.1,9830.1,9830.1,-7.2,-5.7,9830.1,9830.1,-0.3,286.8,2449.8,-23.4,0,36,36219192918016,57,0, 
0.0233,294.0,20.7,-250.5,119.7,-6180.6,-253.2,533.1,-3366.6,-64837.5,392.4,-4484.1,-4566.0,-364.5,-4487.1,-7102.5,-3408.3,-6.6,-5.7,-4131.0,-4212.9,-0.9,452.7,-8545.5,-91.2,0,42,36219192918016,58,0, 
0.0267,262.2,13.5,-267.9,93.9,-9819.9,-291.6,519.6,-9830.1,-142938.9,353.1,-9830.1,-9817.8,-533.7,-9827.4,-9830.1,-9830.1,-6.9,-6.0,-9830.1,-9830.1,-0.9,422.7,-9830.1,-99.3,0,48,36219192918016,59,0, 
0.0300,177.9,21.3,-310.2,-8.1,586.2,-7.8,420.9,-5055.0,-80028.0,177.0,-2758.2,-2900.4,4.8,-5865.9,-8536.5,-4959.0,-6.9,-6.0,-3987.6,-4294.2,-0.6,237.9,-1641.6,-42.0,0,54,36219192918016,60,0, 
0.0333,159.6,41.7,-322.5,-45.9,9819.6,205.8,374.7,9686.7,37198.2,93.3,8145.3,9302.4,509.1,9396.3,8151.0,9733.8,-7.2,-5.7,9799.2,9817.2,-0.9,154.5,8449.2,6.3,0,60,36219192918016,61,0, 
0.0367,230.4,45.9,-283.2,32.7,8114.1,52.2,444.3,9830.1,45645.6,216.9,8161.2,8998.2,296.1,9827.1,9830.1,9830.1,-6.9,-6.0,9830.1,9830.1,-0.6,281.7,2506.2,-28.5,0,66,36219192918016,62,0, 
0.0400,287.1,22.5,-254.4,109.8,-6270.3,-263.4,530.4,-3387.0,-64911.6,378.6,-4555.2,-4712.4,-368.7,-4492.2,-7019.7,-3432.0,-7.2,-5.7,-4128.0,-4270.8,-0.3,444.3,-8579.1,-104.4,0,72,36219192918016,63,0, 
0.0433,256.8,17.1,-264.9,79.2,-9819.9,-303.6,515.4,-9830.1,-143902.2,352.2,-9830.1,-9817.8,-549.3,-9827.4,-9830.1,-9830.1,-6.9,-6.3,-9830.1,-9830.1,-0.3,415.2,-9830.1,-109.5,0,78,36219192918016,64,0, 
0.0467,181.8,27.3,-313.2,-12.9,-482.4,-34.5,422.1,-6271.5,-87289.8,180.6,-3633.0,-4148.1,-38.7,-7105.2,-9680.7,-6224.4,-7.2,-5.7,-5286.6,-5540.7,-0.3,243.0,-2384.7,-46.8,0,84,36219192918016,65,0, 
0.0500,155.1,42.0,-321.0,-39.9,9819.6,176.4,378.9,9115.5,21118.5,100.5,6693.0,8479.8,444.0,8631.9,6872.4,9147.6,-6.9,-6.0,9203.7,9277.2,-0.9,161.7,7168.8,1.5,0,90,36219192918016,66,0, 
0.0533,223.2,41.4,-283.5,37.2,7354.8,39.9,444.9,9830.1,29936.4,225.0,6369.6,8048.4,242.7,9827.1,8985.0,9830.1,-7.8,-6.0,9355.2,9521.4,-0.6,286.2,1611.0,-25.8,0,96,36219192918016,67,0, 
0.0567,285.9,33.9,-249.9,116.1,-6840.0,-269.4,528.0,-5011.5,-80250.3,381.3,-5630.1,-6042.9,-406.2,-6230.7,-8898.9,-5098.8,-6.9,-5.7,-5767.8,-5728.5,-0.3,450.3,-8787.6,-96.0,0,102,36219192918016,68,0, 
0.0600,255.3,21.9,-266.7,84.9,-9819.9,-308.4,512.7,-9830.1,-156202.8,344.1,-9830.1,-9817.8,-551.4,-9827.4,-9548.7,-9830.1,-6.6,-6.0,-9830.1,-9830.1,-0.3,411.0,-9830.1,-102.6,0,108,36219192918016,69,0, 
0.0633,173.1,30.9,-316.2,-19.8,211.8,-32.7,410.7,-5970.0,-91809.9,163.2,-3502.8,-3714.6,-20.1,-6901.2,-9830.1,-5958.6,-6.9,-6.0,-5001.9,-5070.9,-0.3,223.8,-1896.3,-41.7,0,114,36219192918016,70,0, 
0.0667,147.0,28.2,-333.9,-54.0,9819.6,180.3,365.7,9404.4,22452.3,86.4,7482.9,9084.9,488.1,8919.9,6834.6,9422.1,-6.9,-6.0,9530.4,9626.1,-0.3,146.4,7817.4,6.3,0,120,36219192918016,71,0, 
0.0700,220.5,45.6,-296.4,21.3,7849.2,33.3,429.3,9830.1,30306.9,215.1,6958.8,8466.0,264.0,9827.1,8810.1,9830.1,-7.5,-5.7,9648.6,9793.5,-0.3,275.4,1964.1,-23.7,0,126,36219192918016,72,0, 
0.0733,276.9,10.5,-265.5,99.0,-6349.5,-267.9,508.8,-4239.3,-77953.2,371.7,-5050.5,-5273.1,-386.1,-5618.7,-9199.2,-4335.3,-7.2,-5.7,-4996.5,-4963.5,-0.6,434.4,-8567.1,-105.0,0,132,36219192918016,73,0, 
0.0767,245.4,7.5,-281.4,69.6,-9819.9,-303.3,498.0,-9830.1,-157388.4,343.2,-9830.1,-9817.8,-572.7,-9827.4,-9345.9,-9830.1,-6.9,-6.0,-9830.1,-9830.1,-0.6,402.6,-9830.1,-116.1,0,138,36219192918016,74,0, 
0.0800,169.2,13.5,-315.3,-24.9,-24.3,-19.8,404.4,-6063.9,-96181.8,160.8,-3606.6,-3833.4,-33.6,-7027.2,-9830.1,-6044.1,-6.6,-5.7,-5061.9,-5226.0,-0.6,222.9,-2118.9,-45.6,0,144,36219192918016,75,0, 
0.0833,144.0,31.5,-334.5,-62.1,9819.6,192.0,357.6,9330.9,21044.4,69.6,7671.3,9068.1,459.9,8845.2,6230.1,9365.1,-6.6,-6.0,9516.9,9567.0,-0.9,135.9,8019.0,10.2,0,150,36219192918016,76,0, 
0.0867,204.3,23.7,-305.7,9.6,7911.9,45.9,419.1,9830.1,30232.8,202.5,7429.2,8623.2,245.4,9827.1,8615.1,9830.1,-6.9,-5.7,9690.9,9830.1,-0.9,268.8,2093.1,-26.4,0,156,36219192918016,77,0, 
0.0900,273.6,10.5,-264.9,97.2,-6327.3,-266.1,513.9,-4074.3,-79879.8,370.8,-4988.1,-5237.7,-402.0,-5509.8,-9561.6,-4207.5,-6.9,-5.7,-4865.4,-4762.5,-0.9,436.2,-8612.7,-95.1,0,162,36219192918016,78,0, 
0.0933,241.5,-1.5,-280.2,66.3,-9819.9,-314.7,494.4,-9830.1,-159166.8,336.6,-9830.1,-9817.8,-581.4,-9827.4,-9214.5,-9830.1,-6.9,-6.0,-9830.1,-9830.1,-1.2,406.5,-9830.1,-101.4,0,168,36219192918016,79,0, 
0.0967,159.9,5.4,-326.1,-31.2,140.7,-29.1,397.5,-5767.2,-96552.3,153.6,-3670.8,-3593.4,-38.4,-6795.6,-9830.1,-5734.8,-6.6,-6.0,-4837.2,-4988.4,-0.9,219.0,-2066.1,-43.8,0,174,36219192918016,80,0, 
0.1000,130.8,16.8,-344.4,-75.0,9819.6,170.4,340.8,9426.9,21118.5,55.8,7755.0,9213.6,460.8,8932.5,5906.1,9468.0,-6.6,-6.0,9604.5,9658.8,-0.9,118.8,8091.0,-10.8,0,180,36219192918016,81,0, 
0.1033,199.2,19.2,-310.5,-1.2,7995.3,25.8,413.1,9830.1,30455.1,199.2,7649.7,8814.6,247.5,9827.1,8546.7,9830.1,-6.9,-5.4,9790.5,9830.1,-1.2,255.3,2187.6,-45.9,0,186,36219192918016,82,0, 
0.1067,256.5,-6.6,-276.9,78.0,-6211.5,-291.0,495.9,-3761.4,-79361.1,355.8,-4824.6,-4887.6,-423.0,-5301.9,-9747.6,-3861.3,-6.6,-6.3,-4456.8,-4489.5,-0.3,415.2,-8581.2,-126.9,0,192,36219192918016,83,0, 
0.1100,229.8,-10.2,-291.6,53.1,-9819.9,-330.9,490.5,-9830.1,-158129.4,329.4,-9830.1,-9817.8,-594.0,-9827.4,-9171.9,-9830.1,-6.9,-6.0,-9830.1,-9830.1,-0.6,394.2,-9830.1,-123.0,0,198,36219192918016,84,0, 
0.1133,150.6,-5.1,-336.6,-45.9,349.2,-49.8,392.1,-5437.5,-95144.4,145.2,-3303.3,-3363.6,-52.2,-6575.7,-9830.1,-5412.9,-6.3,-6.0,-4457.1,-4545.6,-0.6,207.0,-1919.7,-64.5,0,204,36219192918016,85,0, 
0.1167,120.0,3.0,-352.2,-84.0,9819.6,162.0,339.0,9554.7,22674.6,53.7,8035.8,9245.1,459.6,9045.9,5873.7,9580.5,-7.2,-6.0,9682.2,9753.0,-0.9,115.8,8265.9,-19.5,0,210,36219192918016,86,0, 
0.1200,194.1,9.9,-310.5,-1.2,8217.0,26.4,410.7,9830.1,33196.8,191.1,8048.7,9042.3,247.5,9827.1,8897.7,9830.1,-7.2,-6.0,9830.1,9830.1,-0.9,252.6,2466.6,-46.5,0,216,36219192918016,87,0, 
0.1233,260.1,-5.1,-273.0,80.7,-6000.0,-288.0,499.2,-3145.2,-76100.7,360.3,-4557.0,-4432.8,-411.0,-4811.7,-9484.8,-3250.2,-7.2,-5.7,-3986.4,-3930.3,-0.6,418.5,-8490.6,-124.8,0,222,36219192918016,88,0, 
0.1267,231.6,-19.8,-283.2,59.1,-9819.9,-330.6,482.1,-9830.1,-155684.1,334.8,-9830.1,-9817.8,-580.8,-9827.4,-9274.8,-9830.1,-6.9,-5.7,-9830.1,-9830.1,-0.9,396.9,-9830.1,-125.4,0,228,36219192918016,89,0, 
0.1300,154.2,1.2,-321.0,-32.4,424.2,-48.6,386.7,-5104.5,-93366.0,153.3,-3084.9,-2941.5,-38.4,-6316.8,-9830.1,-5092.8,-6.9,-6.3,-4110.0,-4266.6,-0.9,216.0,-1872.9,-60.6,0,234,36219192918016,90,0, 
0.1333,129.3,9.6,-341.7,-74.4,9819.6,167.4,342.9,9634.5,25490.4,73.8,8192.4,9307.5,491.1,9126.3,6077.7,9649.2,-7.2,-6.0,9738.9,9800.4,-1.2,132.3,8359.2,-15.3,0,240,36219192918016,91,0, 
0.1367,200.4,15.6,-300.6,6.9,8263.2,26.7,408.9,9830.1,36086.7,203.7,8241.6,9137.1,279.3,9827.1,9191.1,9830.1,-7.2,-6.0,9830.1,9830.1,-0.6,263.1,2601.3,-45.0,0,246,36219192918016,92,0, 
0.1400,261.0,-4.2,-272.1,87.9,-5944.5,-297.9,495.0,-2836.2,-72988.5,363.0,-4266.0,-4268.7,-382.5,-4628.7,-9157.8,-2989.5,-7.5,-5.7,-3751.5,-3690.6,-0.6,425.1,-8491.8,-123.9,0,252,36219192918016,93,0, 
0.1433,236.7,-9.3,-280.2,73.2,-9819.9,-329.7,486.9,-9830.1,-152201.4,344.4,-9830.1,-9817.8,-561.3,-9827.4,-9433.2,-9830.1,-7.2,-5.7,-9830.1,-9830.1,-0.6,400.2,-9830.1,-130.8,0,258,36219192918016,94,0, 
0.1467,155.1,7.2,-320.4,-28.5,586.5,-60.6,386.7,-4772.4,-90179.7,157.2,-2633.4,-2708.1,-42.6,-6137.7,-9830.1,-4819.5,-6.9,-6.0,-3838.2,-3982.5,-0.6,216.0,-1755.6,-64.8,0,264,36219192918016,95,0, 
0.1500,132.0,13.8,-336.0,-63.6,9819.6,165.3,337.5,9738.3,28158.0,69.3,8311.8,9333.6,489.0,9196.5,6381.6,9743.7,-7.2,-6.3,9811.8,9830.1,-0.3,127.2,8409.9,-11.1,0,270,36219192918016,96,0, 
0.1533,200.4,14.4,-295.5,15.0,8382.3,31.5,410.1,9830.1,39569.4,200.4,8491.5,9252.3,293.7,9827.1,9620.4,9830.1,-7.2,-6.0,9830.1,9830.1,-0.3,256.5,2764.8,-42.6,0,276,36219192918016,97,0, 
0.1567,263.4,3.0,-260.7,98.1,-5737.5,-279.9,499.2,-2356.5,-68764.8,369.6,-3840.3,-4008.3,-371.7,-4208.4,-8555.1,-2479.2,-7.2,-5.7,-3306.6,-3170.4,-0.3,425.7,-8419.2,-120.0,0,282,36219192918016,98,0, 
0.1600,232.8,-3.6,-273.0,67.8,-9819.9,-321.9,484.5,-9830.1,-148051.8,336.0,-9830.1,-9817.8,-547.8,-9827.4,-9687.3,-9830.1,-7.2,-6.0,-9830.1,-9830.1,-0.6,395.1,-9830.1,-130.2,0,288,36219192918016,99,0, 
0.1633,153.3,1.5,-319.5,-27.0,716.1,-44.1,385.8,-4552.5,-86252.4,158.7,-2427.6,-2645.7,-11.7,-5844.6,-9600.3,-4505.7,-6.6,-6.0,-3481.8,-3582.0,-0.6,216.3,-1706.4,-66.3,0,294,36219192918016,100,0, 
0.1667,131.4,22.8,-334.5,-61.2,9819.6,177.3,340.8,9777.6,32085.3,71.4,8372.7,9294.6,514.2,9295.2,6879.0,9801.9,-6.9,-6.0,9830.1,9830.1,-0.6,130.5,8511.9,-16.2,0,300,36219192918016,101,0, 
0.1700,202.8,31.5,-299.4,10.2,8472.9,35.4,405.9,9830.1,43941.3,205.5,8601.9,9374.7,304.8,9827.1,9830.1,9830.1,-6.9,-5.7,9830.1,9830.1,-0.6,262.5,2897.1,-45.0,0,306,36219192918016,102,0, 
0.1733,266.4,9.6,-260.4,95.1,-5622.9,-280.5,494.4,-1984.5,-64244.7,364.8,-3597.9,-3734.1,-351.6,-3785.4,-7862.4,-2116.5,-6.9,-5.4,-3118.5,-2942.1,-0.6,429.3,-8352.6,-115.5,0,312,36219192918016,103,0, 
0.1767,244.8,6.6,-268.8,76.8,-9819.9,-324.0,484.8,-9830.1,-144050.4,351.3,-9830.1,-9817.8,-531.3,-9827.4,-9830.1,-9830.1,-7.2,-6.3,-9830.1,-9830.1,-0.3,408.6,-9830.1,-120.6,0,318,36219192918016,104,0, 
0.1800,153.6,7.5,-324.6,-30.0,675.3,-45.3,384.6,-4414.8,-82843.8,159.9,-2358.9,-2385.9,4.2,-5716.2,-9133.5,-4406.1,-6.6,-5.7,-3569.1,-3613.8,-0.9,218.7,-1673.4,-65.7,0,324,36219192918016,105,0, 
0.1833,135.3,24.3,-335.1,-61.8,9819.6,173.7,347.4,9809.7,35419.8,83.1,8367.0,9330.0,524.7,9320.4,7283.1,9827.1,-6.9,-6.3,9820.8,9830.1,-0.6,136.2,8563.8,-10.8,0,330,36219192918016,106,0, 
0.1867,206.4,29.7,-295.2,13.8,8509.5,36.6,415.2,9830.1,47201.7,210.6,8712.3,9468.0,333.3,9827.1,9830.1,9830.1,-7.5,-6.0,9830.1,9830.1,-0.6,263.4,2976.6,-47.4,0,336,36219192918016,107,0, 
0.1900,265.8,11.1,-265.5,90.3,-5603.4,-280.5,501.3,-1819.5,-60836.1,372.6,-3526.2,-3529.5,-335.4,-3726.9,-7154.1,-1970.7,-7.5,-6.0,-3033.3,-2855.1,-0.3,432.6,-8334.0,-125.7,0,342,36219192918016,108,0, 
0.1933,233.4,-5.7,-287.1,62.4,-9819.9,-328.8,479.4,-9830.1,-140271.3,339.9,-9830.1,-9817.8,-515.1,-9827.4,-9830.1,-9830.1,-6.6,-5.7,-9830.1,-9830.1,-0.6,400.2,-9830.1,-140.4,0,348,36219192918016,109,0, 
0.1967,151.5,-0.3,-324.3,-32.1,693.3,-57.6,389.1,-4407.9,-79657.5,165.0,-2298.3,-2467.2,8.7,-5787.0,-8623.5,-4398.3,-6.0,-6.3,-3561.9,-3677.7,-0.3,221.7,-1676.7,-73.8,0,354,36219192918016,110,0, 
0.2000,129.0,23.1,-338.7,-70.2,9819.6,177.0,342.3,9830.1,38309.7,79.8,8375.4,9274.8,532.5,9336.6,7593.6,9830.1,-7.2,-6.3,9830.1,9830.1,-0.6,131.7,8551.5,-15.9,0,360,36219192918016,111,0, 
0.2033,194.1,28.8,-297.0,1.5,8725.8,36.3,407.4,9830.1,52092.3,202.5,8924.1,9550.5,335.7,9827.1,9830.1,9830.1,-6.9,-5.7,9830.1,9830.1,-0.6,254.1,3275.1,-48.9,0,366,36219192918016,112,0, 
0.2067,255.9,2.1,-267.9,78.0,-4844.4,-264.0,487.8,-534.9,-49647.0,360.0,-2427.0,-2541.0,-294.6,-2546.7,-5551.2,-670.8,-7.2,-6.0,-1734.3,-1633.2,-0.3,416.1,-8024.4,-124.2,0,372,36219192918016,113,0, 
0.2100,231.9,0.3,-272.4,60.6,-9819.9,-290.4,484.2,-9830.1,-119449.2,334.8,-8658.3,-9817.8,-440.7,-9827.4,-9830.1,-9830.1,-6.9,-5.7,-9830.1,-9830.1,-0.9,392.7,-9786.9,-121.5,0,378,36219192918016,114,0, 
0.2133,150.6,-1.5,-318.0,-31.8,2393.1,-28.5,381.3,-1944.0,-57427.5,154.5,-475.8,-241.2,67.5,-3559.8,-6322.5,-1912.8,-6.6,-6.0,-1010.4,-1132.2,-0.6,208.5,-596.7,-66.0,0,384,36219192918016,115,0, 
0.2167,128.4,24.0,-326.1,-66.6,9819.6,192.9,338.7,9830.1,58613.1,74.1,8950.5,9470.1,574.2,9827.1,9263.7,9830.1,-6.9,-5.7,9830.1,9830.1,-0.6,125.7,9203.1,-18.3,0,390,36219192918016,116,0, 
0.2200,198.3,35.7,-291.0,9.9,9012.3,42.3,401.7,9830.1,70469.1,198.3,9368.7,9817.5,364.8,9827.1,9830.1,9830.1,-7.2,-5.7,9830.1,9830.1,-0.9,252.6,3738.9,-54.6,0,396,36219192918016,117,0, 
0.2233,256.5,-0.3,-265.2,89.1,-5115.6,-273.0,494.4,27.6,-37865.1,364.8,-2368.8,-2381.7,-297.0,-1689.0,-3101.4,-110.7,-6.9,-5.7,-1532.4,-1389.0,-0.6,424.2,-8073.9,-128.1,0,402,36219192918016,118,0, 
0.2267,231.6,-1.5,-263.7,74.1,-9819.9,-314.4,486.6,-9830.1,-118782.3,340.5,-9830.1,-9817.8,-484.8,-9827.4,-9830.1,-9830.1,-7.2,-5.7,-9830.1,-9830.1,-0.6,400.2,-9830.1,-133.2,0,408,36219192918016,119,0, 
0.2300,148.5,6.3,-311.4,-21.3,949.8,-45.9,389.7,-3260.4,-59428.2,159.0,-1629.0,-1643.1,20.1,-4465.8,-5803.2,-3230.1,-7.2,-6.3,-2644.8,-2756.7,-0.9,213.6,-1437.9,-72.6,0,414,36219192918016,120,0, 
0.2333,123.6,25.5,-323.4,-57.6,9819.6,175.2,345.3,9830.1,56612.4,78.0,8550.9,9280.2,550.2,9643.5,9341.4,9830.1,-6.9,-6.3,9830.1,9830.1,-0.9,133.2,8723.1,-15.6,0,420,36219192918016,121,0, 
0.2367,190.2,27.9,-292.2,14.1,8682.3,33.3,406.8,9830.1,68764.8,204.0,9029.1,9718.8,345.6,9827.1,9830.1,9830.1,-6.9,-5.7,9830.1,9830.1,-0.6,256.8,3344.7,-52.5,0,426,36219192918016,122,0, 
0.2400,246.6,1.8,-261.6,90.0,-5382.9,-280.2,492.6,-826.5,-37939.2,360.0,-2793.9,-3039.6,-306.3,-2369.7,-2348.1,-917.7,-7.2,-6.0,-2275.2,-2146.2,-0.3,418.5,-8130.0,-125.7,0,432,36219192918016,123,0, 
0.2433,215.1,-15.0,-284.4,62.4,-9819.9,-328.8,480.9,-9830.1,-117670.8,334.5,-9830.1,-9817.8,-493.2,-9827.4,-9830.1,-9830.1,-7.2,-6.0,-9830.1,-9830.1,-0.3,391.2,-9830.1,-142.8,0,438,36219192918016,124,0, 
0.2467,134.4,-10.8,-329.1,-33.0,527.7,-50.7,387.3,-4044.6,-60169.2,156.6,-2015.4,-2349.0,10.2,-5039.1,-5304.3,-3975.3,-6.6,-6.0,-3299.7,-3462.9,-0.6,211.8,-1650.9,-78.9,0,444,36219192918016,125,0, 
0.2500,112.8,6.9,-340.8,-71.7,9819.6,166.8,341.1,9827.4,55723.2,69.3,8339.1,9069.3,529.8,9456.6,9472.2,9830.1,-7.2,-5.7,9711.3,9781.8,-0.9,121.8,8560.5,-24.9,0,450,36219192918016,126,0, 
0.2533,186.9,16.5,-306.0,3.3,8621.4,40.5,409.2,9830.1,69135.3,198.3,9036.9,9669.3,340.2,9827.1,9830.1,9830.1,-6.9,-6.0,9830.1,9830.1,-0.6,252.0,3348.6,-54.0,0,456,36219192918016,127,0, 
0.2567,244.2,-10.8,-275.4,77.7,-5428.8,-277.2,492.3,-1262.4,-37272.3,355.2,-2943.9,-3231.9,-330.9,-2651.1,-1834.8,-1317.3,-6.9,-6.0,-2584.5,-2423.7,-0.6,414.6,-8130.3,-125.7,0,462,36219192918016,128,0, 
0.2600,216.6,-20.1,-289.8,56.4,-9819.9,-324.3,479.7,-9830.1,-118041.3,324.9,-9830.1,-9817.8,-517.8,-9827.4,-9830.1,-9830.1,-6.6,-5.7,-9830.1,-9830.1,-0.3,386.7,-9830.1,-135.6,0,468,36219192918016,129,0, 
0.2633,140.4,-16.8,-326.7,-34.5,337.2,-56.1,387.0,-4482.9,-61058.4,154.8,-2265.9,-2572.2,-4.8,-5410.2,-5190.9,-4465.2,-6.6,-6.0,-3755.7,-3904.5,-0.6,208.8,-1761.0,-70.5,0,474,36219192918016,130,0, 
0.2667,118.8,6.9,-344.4,-74.1,9819.6,170.4,341.4,9697.8,54908.1,64.8,8279.1,9068.1,519.0,9329.1,9463.8,9705.9,-6.9,-5.7,9617.4,9685.5,-0.6,125.4,8487.9,-2.7,0,480,36219192918016,131,0, 
0.2700,183.6,3.3,-310.2,-3.3,8557.2,28.8,405.9,9830.1,68320.2,192.0,8897.7,9579.0,326.7,9827.1,9830.1,9830.1,-6.9,-6.3,9830.1,9830.1,-0.9,244.5,3268.8,-39.3,0,486,36219192918016,132,0, 
0.2733,254.1,-9.0,-266.4,85.8,-5501.4,-280.8,495.0,-1656.0,-38161.5,357.3,-3215.7,-3430.5,-332.7,-2915.4,-1858.5,-1767.9,-7.2,-5.7,-2911.8,-2691.6,-0.3,416.1,-8168.7,-111.3,0,492,36219192918016,133,0, 
0.2767,228.9,-16.8,-276.6,64.5,-9819.9,-326.7,483.0,-9830.1,-119375.1,340.2,-9830.1,-9817.8,-522.3,-9827.4,-9830.1,-9830.1,-6.9,-6.0,-9830.1,-9830.1,-1.2,399.6,-9830.1,-120.6,0,498,36219192918016,134,0, 
0.2800,139.8,-17.1,-331.8,-41.1,102.0,-70.8,384.3,-4935.9,-62836.8,154.2,-2635.5,-2988.3,-21.3,-5637.0,-5320.2,-4893.3,-7.2,-6.0,-4167.9,-4204.2,-0.9,210.9,-1877.7,-62.7,0,504,36219192918016,135,0, 
0.2833,120.3,0.0,-345.0,-79.5,9819.6,148.5,336.3,9552.9,53277.9,69.9,8056.5,8931.9,501.6,9228.3,9405.3,9582.3,-6.9,-6.0,9509.7,9591.0,-0.9,127.2,8325.0,-7.2,0,510,36219192918016,136,0, 
0.2867,190.8,6.0,-305.1,2.7,8512.5,27.3,408.9,9830.1,67060.5,194.1,8796.3,9530.4,318.3,9827.1,9830.1,9830.1,-7.2,-6.0,9830.1,9830.1,-0.6,255.3,3174.3,-29.1,0,516,36219192918016,137,0, 
0.2900,251.1,-7.2,-272.4,91.2,-5505.3,-285.3,498.9,-1995.3,-38754.3,359.1,-3399.0,-3543.0,-338.1,-3108.6,-1940.1,-2061.6,-7.2,-5.7,-3154.8,-2943.3,-0.6,420.6,-8170.8,-99.3,0,522,36219192918016,138,0, 
0.2933,222.0,-20.1,-278.7,70.5,-9819.9,-332.1,487.8,-9830.1,-119967.9,339.6,-9830.1,-9817.8,-530.7,-9827.4,-9830.1,-9830.1,-6.9,-5.7,-9830.1,-9830.1,-0.6,398.7,-9830.1,-112.8,0,528,36219192918016,139,0, 
0.2967,142.5,-16.8,-331.2,-27.6,33.3,-64.5,390.9,-5230.2,-63874.2,159.6,-2852.4,-2998.8,-18.0,-5830.5,-5541.0,-5153.7,-6.6,-5.7,-4379.7,-4392.9,-0.6,223.5,-1977.6,-50.1,0,534,36219192918016,140,0, 
0.3000,118.2,-3.0,-348.9,-65.1,9819.6,161.4,341.1,9453.0,52314.6,64.2,7915.5,8883.6,492.9,9165.6,9303.3,9495.9,-6.9,-6.0,9428.1,9553.5,-0.9,128.7,8270.7,5.1,0,540,36219192918016,141,0, 
0.3033,186.9,1.5,-313.8,9.3,8491.2,30.6,406.2,9830.1,66541.8,190.8,8700.6,9487.8,312.9,9827.1,9830.1,9830.1,-6.6,-6.0,9830.1,9830.1,-0.6,252.3,3143.4,-21.0,0,546,36219192918016,142,0, 
0.3067,243.0,-12.0,-281.4,87.6,-5563.2,-278.1,489.6,-2247.0,-39717.6,352.8,-3687.0,-3774.0,-342.0,-3167.7,-2153.4,-2250.0,-6.6,-6.3,-3242.4,-3019.2,-0.9,416.7,-8187.6,-108.6,0,552,36219192918016,143,0, 
0.3100,225.0,-13.5,-288.9,72.3,-9819.9,-331.2,484.2,-9830.1,-121449.9,333.6,-9830.1,-9817.8,-542.7,-9827.4,-9830.1,-9830.1,-6.9,-6.0,-9830.1,-9830.1,-0.9,397.2,-9830.1,-112.2,0,558,36219192918016,144,0, 
0.3133,145.5,-0.3,-336.0,-26.7,-37.2,-60.6,384.0,-5416.8,-65282.1,153.9,-3087.9,-3251.7,-38.7,-5866.2,-5688.9,-5333.1,-6.6,-6.3,-4552.2,-4517.7,-0.9,214.2,-2051.4,-59.1,0,564,36219192918016,145,0, 
0.3167,117.6,-3.3,-351.3,-69.0,9819.6,165.6,339.0,9380.4,50980.8,69.3,7831.5,8844.9,501.9,9129.3,9237.6,9417.3,-6.9,-6.0,9383.1,9502.8,-0.9,128.4,8241.9,0.9,0,570,36219192918016,146,0, 
0.3200,182.1,4.8,-321.9,0.9,8472.0,30.9,405.6,9830.1,64763.4,186.9,8572.8,9438.9,311.1,9827.1,9830.1,9830.1,-6.9,-6.3,9830.1,9830.1,-0.6,254.4,3083.4,-21.9,0,576,36219192918016,147,0, 
0.3233,249.6,-4.2,-286.5,89.1,-5613.3,-282.6,498.6,-2466.0,-41199.6,355.5,-3853.8,-3864.6,-342.3,-3240.9,-2505.0,-2531.4,-7.2,-6.0,-3379.8,-3321.3,-1.2,423.9,-8192.7,-93.0,0,582,36219192918016,148,0, 
0.3267,226.2,-15.3,-303.0,63.6,-9819.9,-342.6,489.6,-9830.1,-123821.1,331.8,-9830.1,-9817.8,-547.2,-9827.4,-9830.1,-9830.1,-6.9,-6.6,-9830.1,-9830.1,-0.9,400.5,-9830.1,-114.3,0,588,36219192918016,149,0, 
0.3300,144.3,-7.2,-347.1,-27.6,-206.4,-78.3,393.0,-5669.1,-67801.5,159.9,-3218.4,-3386.4,-31.2,-5994.9,-6091.8,-5579.7,-6.9,-6.0,-4735.2,-4812.9,-0.9,227.4,-2195.7,-45.3,0,594,36219192918016,150,0, 
0.3333,120.9,1.2,-360.0,-65.4,9819.6,147.3,342.6,9281.4,48609.6,69.0,7708.8,8792.7,491.7,9074.4,9055.2,9334.5,-6.9,-6.0,9302.7,9438.3,-0.9,129.9,8102.1,9.0,0,600,36219192918016,151,0, 
0.3367,192.6,13.2,-312.3,13.5,8415.0,24.0,417.3,9830.1,62688.6,202.5,8483.4,9418.8,312.9,9827.1,9830.1,9830.1,-6.9,-6.0,9830.1,9830.1,-0.9,262.2,2933.1,-10.5,0,606,36219192918016,152,0, 
0.3400,250.5,-4.2,-279.6,90.6,-5649.0,-286.2,499.5,-2725.5,-43052.1,361.8,-4195.8,-4142.1,-340.8,-3386.4,-2966.4,-2725.5,-7.2,-6.0,-3738.6,-3569.1,-0.9,428.1,-8261.1,-92.4,0,612,36219192918016,153,0, 
0.3433,224.4,-12.6,-291.6,67.5,-9819.9,-352.8,489.6,-9830.1,-125006.7,339.0,-9830.1,-9817.8,-537.0,-9827.4,-9830.1,-9830.1,-6.9,-5.7,-9830.1,-9830.1,-0.6,409.2,-9830.1,-106.5,0,618,36219192918016,154,0, 
0.3467,139.5,-9.6,-330.9,-38.1,-294.6,-86.4,389.1,-5892.3,-69579.9,155.1,-3714.3,-3820.5,-37.2,-6143.7,-6420.6,-5795.7,-6.6,-6.0,-5121.9,-5192.4,-0.6,218.7,-2268.0,-56.7,0,624,36219192918016,155,0, 
0.3500,112.5,3.3,-348.0,-77.1,9819.6,141.3,340.2,9195.9,47201.7,71.4,7464.6,8737.8,490.8,9010.2,8907.3,9244.8,-6.9,-5.7,9207.0,9303.0,-0.9,131.7,8092.5,3.0,0,630,36219192918016,156,0, 
0.3533,182.7,12.3,-302.7,2.4,8448.0,12.3,404.1,9830.1,62095.8,192.3,8272.8,9294.3,311.7,9827.1,9830.1,9830.1,-6.9,-6.0,9830.1,9830.1,-0.6,254.4,2965.5,-23.7,0,636,36219192918016,157,0, 
0.3567,245.1,-4.8,-266.1,86.7,-5610.3,-296.7,492.9,-2748.3,-44385.9,364.2,-4267.8,-4116.9,-339.0,-3386.1,-3328.2,-2812.2,-7.2,-6.0,-3933.0,-3603.0,-0.6,422.1,-8216.7,-95.1,0,642,36219192918016,158,0, 
0.3600,221.1,-12.3,-285.9,65.1,-9819.9,-351.6,478.8,-9830.1,-127081.5,336.9,-9830.1,-9817.8,-542.4,-9827.4,-9830.1,-9830.1,-7.2,-6.0,-9830.1,-9830.1,-0.6,392.7,-9830.1,-114.6,0,648,36219192918016,159,0, 
0.3633,139.8,-7.2,-330.3,-27.9,-283.8,-83.7,384.0,-5916.3,-71136.0,165.6,-3735.3,-3626.1,-27.6,-6105.0,-6756.9,-5844.6,-6.9,-5.7,-5151.3,-5011.5,-0.3,209.4,-2264.4,-57.3,0,654,36219192918016,160,0, 
0.3667,112.2,8.7,-349.8,-72.0,9819.6,138.9,330.3,9174.0,45645.6,78.3,7451.7,8699.7,489.9,9014.7,8721.6,9221.4,-6.6,-5.7,9204.0,9360.0,-0.9,113.7,8042.4,-9.6,0,660,36219192918016,161,0, 
0.3700,183.6,15.6,-313.8,0.6,8463.6,19.5,400.8,9830.1,60539.7,199.5,8302.8,9359.7,316.8,9827.1,9830.1,9830.1,-7.5,-5.4,9830.1,9830.1,-0.9,238.5,2963.1,-36.0,0,666,36219192918016,162,0, 
0.3733,246.0,0.3,-280.5,83.4,-5581.2,-304.8,481.5,-2818.5,-45719.7,365.4,-4292.1,-4122.6,-345.9,-3377.4,-3578.7,-2841.6,-6.9,-6.3,-3823.8,-3481.5,-0.6,399.9,-8241.9,-120.3,0,672,36219192918016,163,0, 
0.3767,225.9,-1.5,-283.8,70.8,-9819.9,-352.8,478.5,-9830.1,-128711.7,350.1,-9830.1,-9817.8,-541.2,-9827.4,-9830.1,-9830.1,-7.2,-6.0,-9830.1,-9830.1,-0.6,383.4,-9830.1,-124.5,0,678,36219192918016,164,0, 
0.3800,145.8,-5.1,-335.4,-32.4,-297.0,-85.2,388.2,-5986.8,-72692.1,163.5,-3732.9,-3688.5,-29.1,-6109.2,-6878.4,-5910.6,-7.2,-6.0,-5037.0,-4954.2,-0.3,207.9,-2335.5,-68.7,0,684,36219192918016,165,0, 
0.3833,117.0,8.1,-348.6,-79.5,9819.6,141.9,336.3,9147.3,44756.4,56.1,7595.4,8781.6,492.6,9014.4,8670.9,9192.3,-6.9,-6.0,9251.4,9397.8,-0.6,118.8,8103.9,-11.7,0,690,36219192918016,166,0, 
0.3867,186.0,10.8,-310.5,-5.1,8462.1,14.1,405.6,9830.1,59946.9,175.2,8313.3,9341.7,317.1,9827.1,9830.1,9830.1,-7.2,-6.0,9830.1,9830.1,-0.6,247.2,3002.7,-36.0,0,696,36219192918016,167,0, 
0.3900,240.9,-13.2,-285.9,69.9,-5598.9,-292.8,491.1,-2785.8,-46238.4,327.9,-4259.7,-4178.1,-351.6,-3228.3,-3756.3,-2806.8,-6.9,-5.4,-3814.8,-3392.1,-0.9,420.6,-8241.9,-107.4,0,702,36219192918016,168,0, 
0.3933,217.8,-21.6,-294.0,55.5,-9819.9,-344.1,485.4,-9830.1,-129378.6,309.6,-9830.1,-9817.8,-555.0,-9827.4,-9830.1,-9830.1,-6.9,-6.3,-9830.1,-9830.1,-0.9,401.1,-9830.1,-119.1,0,708,36219192918016,169,0, 
0.3967,129.9,-15.3,-342.9,-42.9,-352.5,-80.7,386.1,-6042.6,-74025.9,129.3,-3817.8,-3783.0,-62.7,-6097.2,-7139.1,-5946.0,-6.9,-5.7,-5163.6,-5022.0,-0.3,221.4,-2365.5,-61.8,0,714,36219192918016,170,0, 
0.4000,110.1,15.9,-347.4,-76.2,9819.6,156.6,339.0,9112.2,43496.7,40.8,7436.7,8702.4,487.5,9009.0,8510.4,9160.8,-7.2,-5.7,9177.0,9359.4,-0.9,126.3,8062.8,-5.7,0,720,36219192918016,171,0, 
0.4033,180.0,5.4,-306.0,2.4,8464.2,30.6,411.9,9830.1,58835.4,176.4,8214.9,9337.2,319.2,9827.1,9830.1,9830.1,-6.6,-6.3,9830.1,9830.1,-1.2,249.6,3003.9,-27.9,0,726,36219192918016,172,0, 
0.4067,245.7,-0.3,-268.5,83.4,-5605.5,-279.9,501.6,-2857.5,-47868.6,345.9,-4330.2,-4056.6,-340.8,-3236.7,-4032.9,-2894.7,-6.6,-6.0,-3977.1,-3489.9,-0.3,423.3,-8233.5,-101.7,0,732,36219192918016,173,0, 
0.4100,220.5,-6.6,-285.9,64.5,-9819.9,-333.3,492.0,-9830.1,-131675.7,332.7,-9830.1,-9817.8,-549.0,-9827.4,-9830.1,-9830.1,-6.6,-6.3,-9830.1,-9830.1,-0.9,397.8,-9830.1,-120.0,0,738,36219192918016,174,0, 
0.4133,141.3,5.4,-326.4,-30.9,-440.4,-63.9,402.6,-6163.5,-76174.8,152.4,-3858.0,-3777.3,-47.1,-6223.5,-7471.2,-6043.8,-6.6,-6.0,-5406.9,-5148.0,-0.6,217.5,-2463.6,-53.4,0,744,36219192918016,175,0, 
0.4167,119.4,22.5,-344.7,-68.1,9819.6,162.9,349.8,9046.5,40977.3,66.3,7373.4,8716.5,474.6,8930.1,8284.8,9117.0,-6.6,-6.3,9085.8,9307.8,-0.6,125.1,7988.4,2.7,0,750,36219192918016,176,0, 
0.4200,188.7,30.9,-311.4,6.6,8432.7,50.1,418.2,9830.1,56464.2,188.7,8141.1,9273.3,299.7,9827.1,9830.1,9830.1,-6.9,-5.7,9830.1,9830.1,-0.9,251.4,2894.1,-21.0,0,756,36219192918016,177,0, 
0.4233,251.1,10.5,-277.5,89.1,-5636.4,-269.4,503.7,-2985.9,-50091.6,348.6,-4473.6,-4302.0,-361.2,-3447.0,-4536.6,-3025.2,-7.2,-6.0,-4108.8,-3681.3,-0.3,415.8,-8269.8,-101.1,0,762,36219192918016,178,0, 
0.4267,227.1,5.1,-285.6,71.7,-9819.9,-320.4,498.6,-9830.1,-134269.2,330.9,-9830.1,-9817.8,-566.4,-9827.4,-9830.1,-9830.1,-6.6,-5.7,-9830.1,-9830.1,-0.9,400.8,-9830.1,-99.6,0,768,36219192918016,179,0, 
0.4300,142.8,-1.2,-336.9,-31.8,-513.6,-54.9,399.6,-6248.4,-78916.5,149.1,-4016.7,-3940.2,-54.6,-6365.1,-7813.5,-6150.3,-6.6,-6.0,-5531.4,-5221.8,-0.9,219.3,-2480.7,-49.2,0,774,36219192918016,180,0, 
0.4333,118.8,12.6,-352.5,-70.8,9819.6,173.1,347.1,9010.5,38902.5,55.8,7312.5,8699.7,480.6,8878.2,8055.9,9078.3,-6.9,-6.0,9076.2,9302.7,-1.2,120.9,7994.7,-1.5,0,780,36219192918016,181,0, 
0.4367,192.0,25.5,-310.5,9.9,8430.9,53.4,418.2,9830.1,54834.0,183.6,8149.2,9231.0,309.3,9827.1,9830.1,9830.1,-6.9,-6.0,9830.1,9830.1,-0.9,247.5,2900.7,-26.4,0,786,0,182,0, 
0.4400,256.2,11.1,-269.7,95.1,-5635.5,-261.0,504.9,-3032.1,-52018.2,346.8,-4413.3,-4264.8,-363.0,-3416.4,-4937.7,-3033.0,-6.6,-6.3,-4060.8,-3577.8,-0.6,411.9,-8273.7,-102.9,0,792,344939577344,183,0, 
0.4433,231.0,-1.2,-282.6,78.9,-9819.9,-316.5,493.8,-9830.1,-136047.6,333.9,-9830.1,-9817.8,-569.7,-9827.4,-9830.1,-9830.1,-6.9,-6.3,-9830.1,-9830.1,-0.9,396.3,-9830.1,-112.2,0,798,344939577344,184,0, 
0.4467,153.3,8.1,-315.9,-17.1,-585.9,-44.4,403.2,-6309.9,-81139.5,162.0,-4048.2,-3984.3,-38.7,-6472.8,-8123.4,-6221.4,-6.3,-6.0,-5451.3,-5292.3,-1.2,225.3,-2566.8,-52.2,0,804,36219192918016,185,0, 
0.4500,131.7,25.2,-332.4,-57.6,9819.6,188.1,352.2,8977.5,36901.8,66.6,7380.0,8731.8,483.9,8809.2,7847.7,9034.5,-6.9,-6.0,9111.6,9268.2,-0.9,128.7,7917.0,0.3,0,810,36219192918016,186,0, 
0.4533,202.2,31.8,-298.8,17.1,8418.3,62.1,420.0,9830.1,52759.2,189.0,8149.5,9275.4,300.3,9827.1,9830.1,9830.1,-7.2,-6.3,9830.1,9830.1,-0.9,253.5,2847.6,-22.5,0,816,36219192918016,187,0, 
0.4567,267.6,9.6,-271.2,99.3,-5644.5,-252.0,504.3,-3078.0,-54018.9,354.3,-4423.2,-4152.9,-353.7,-3635.1,-5349.3,-3101.4,-7.2,-5.7,-4164.0,-3636.3,-0.9,423.6,-8279.7,-99.6,0,822,36219192918016,188,0, 
0.4600,245.4,6.3,-274.2,78.0,-9819.9,-313.8,496.5,-9830.1,-138567.0,336.0,-9830.1,-9817.8,-568.5,-9827.4,-9830.1,-9830.1,-6.9,-5.7,-9830.1,-9830.1,-0.3,400.2,-9830.1,-114.9,0,828,36219192918016,189,0, 
0.4633,159.9,9.0,-321.6,-18.9,-668.4,-45.6,401.4,-6356.4,-83584.8,157.2,-4033.8,-3920.4,-60.0,-6612.3,-8492.4,-6300.0,-6.6,-6.0,-5635.2,-5361.9,-0.9,221.7,-2590.2,-55.2,0,834,36219192918016,190,0, 
0.4667,132.6,24.3,-343.8,-62.4,9819.6,185.1,346.8,8952.6,34160.1,61.8,7311.9,8738.1,463.5,8736.0,7546.8,8993.4,-6.6,-6.3,9024.6,9245.4,-0.6,120.6,7855.8,-8.4,0,840,36219192918016,191,0, 
0.4700,202.5,31.5,-305.1,9.9,8425.2,60.9,409.5,9830.1,50462.1,178.2,8099.1,9287.4,291.0,9827.1,9830.1,9830.1,-6.9,-5.4,9830.1,9830.1,-0.6,240.0,2851.8,-32.1,0,846,36219192918016,192,0, 
0.4733,266.4,16.8,-267.0,90.9,-5649.9,-261.3,498.0,-3149.7,-56538.3,348.9,-4488.3,-4231.5,-372.9,-3858.6,-5875.2,-3153.9,-7.2,-5.7,-4269.6,-3714.9,-0.9,406.8,-8286.3,-111.0,0,852,36219192918016,193,0, 
0.4767,250.8,12.6,-268.2,79.5,-9819.9,-320.1,497.1,-9830.1,-141531.0,338.1,-9830.1,-9817.8,-566.1,-9827.4,-9830.1,-9830.1,-6.9,-6.0,-9830.1,-9830.1,-0.6,397.2,-9830.1,-123.3,0,858,36219192918016,194,0, 
0.4800,166.8,17.4,-313.8,-18.6,-780.9,-40.2,406.5,-6481.8,-86697.0,153.3,-4314.6,-4133.7,-48.3,-6775.5,-8898.3,-6391.5,-6.9,-6.0,-5782.5,-5558.4,-0.6,215.4,-2667.0,-60.9,0,864,36219192918016,195,0, 
0.4833,135.9,33.9,-327.3,-59.4,9819.6,181.5,351.6,8889.3,31196.1,61.5,7133.1,8668.5,477.9,8661.3,7171.8,8944.2,-6.6,-6.0,8974.2,9178.2,-0.3,117.3,7835.1,-7.5,0,870,36219192918016,196,0, 
0.4867,209.1,45.0,-285.3,14.4,8389.5,51.6,417.3,9830.1,47424.0,179.7,7762.5,9164.4,284.1,9827.1,9830.1,9830.1,-6.6,-6.0,9830.1,9830.1,-0.9,238.8,2761.2,-29.1,0,876,36219192918016,197,0, 
0.4900,263.4,9.9,-256.2,90.9,-5662.5,-261.3,501.6,-3240.0,-59354.1,350.4,-4610.1,-4329.9,-356.4,-4025.4,-6530.4,-3223.8,-7.5,-5.4,-4368.6,-3810.3,-0.6,408.9,-8281.2,-111.9,0,882,36219192918016,198,0, 
0.4933,239.7,-1.5,-268.2,68.4,-9819.9,-322.5,492.0,-9830.1,-144643.2,328.8,-9830.1,-9817.8,-583.2,-9827.4,-9830.1,-9830.1,-6.9,-6.0,-9830.1,-9830.1,-0.6,392.1,-9830.1,-126.9,0,888,36219192918016,199,0, 
0.4967,156.0,5.4,-306.3,-27.3,-852.0,-53.7,397.8,-6590.4,-89957.4,151.5,-4321.8,-4215.3,-71.7,-6993.6,-9304.5,-6524.7,-6.9,-6.0,-5841.3,-5577.0,-0.6,209.1,-2762.7,-73.5,0,894,36219192918016,200,0, 
0.5000,133.5,19.5,-325.2,-69.6,9819.6,177.9,348.0,8832.3,28380.3,57.6,7191.6,8641.2,458.1,8526.3,6760.2,8867.1,-6.6,-5.7,8936.7,9165.9,-0.9,115.2,7786.8,-12.9,0,900,36219192918016,201,0, 
0.5033,202.5,24.3,-285.3,9.6,8400.0,47.1,416.1,9830.1,45052.8,182.4,7944.0,9192.9,287.7,9827.1,9830.1,9830.1,-7.5,-6.0,9830.1,9830.1,-0.6,240.6,2768.7,-43.5,0,906,36219192918016,202,0, 
0.5067,264.9,9.9,-251.1,92.1,-5649.6,-270.0,506.4,-3220.5,-61947.6,347.1,-4489.5,-4284.6,-371.7,-4090.5,-7040.1,-3286.8,-7.2,-6.0,-4359.9,-3765.9,-0.9,407.4,-8265.6,-116.7,0,912,36219192918016,203,0, 
0.5100,242.4,11.1,-255.9,77.4,-9819.9,-336.3,506.4,-9830.1,-147088.5,339.0,-9830.1,-9817.8,-576.3,-9827.4,-9830.1,-9830.1,-6.9,-6.0,-9830.1,-9830.1,-0.6,395.4,-9830.1,-122.4,0,918,36219192918016,204,0, 
0.5133,165.6,19.5,-294.9,-15.9,-843.6,-54.9,412.5,-6556.5,-92254.5,156.9,-4189.2,-4010.7,-57.9,-7030.2,-9645.0,-6515.7,-6.9,-6.3,-5877.6,-5589.3,-0.6,219.0,-2728.2,-50.7,0,924,36219192918016,205,0, 
0.5167,133.5,22.5,-314.1,-61.5,9819.6,166.8,357.3,8844.0,26157.3,58.8,7240.2,8790.0,471.6,8492.1,6384.3,8876.4,-6.9,-6.0,8925.9,9153.3,-0.9,118.5,7800.3,-6.3,0,930,36219192918016,206,0, 
0.5200,204.9,28.8,-275.1,12.0,8423.4,46.8,418.8,9830.1,43052.1,187.2,7986.0,9267.9,299.4,9827.1,9830.1,9830.1,-7.2,-6.3,9830.1,9830.1,-0.6,244.2,2774.7,-24.3,0,936,36219192918016,207,0, 
0.5233,272.7,13.2,-234.0,94.8,-5646.6,-271.8,508.2,-3227.4,-63948.3,355.5,-4437.9,-4138.8,-359.1,-4217.7,-7439.1,-3252.0,-6.6,-6.0,-4344.0,-3718.2,-0.6,414.3,-8274.6,-106.2,0,942,36219192918016,208,0, 
0.5267,247.2,6.3,-244.8,79.8,-9819.9,-333.3,500.7,-9830.1,-149682.0,341.1,-9830.1,-9817.8,-574.2,-9827.4,-9830.1,-9830.1,-6.9,-5.7,-9830.1,-9830.1,-0.9,401.1,-9830.1,-121.5,0,948,36219192918016,209,0, 
0.5300,165.0,15.0,-287.1,-14.1,-870.0,-53.7,411.3,-6601.8,-95070.3,163.8,-4157.1,-4067.4,-47.4,-7167.3,-9830.1,-6554.1,-6.3,-6.3,-5886.0,-5610.3,-0.6,226.2,-2764.2,-52.8,0,954,36219192918016,210,0, 
0.5333,134.1,22.2,-313.8,-63.3,9819.6,176.1,350.7,8818.8,23489.7,62.4,7216.2,8773.8,476.1,8421.0,5950.8,8848.2,-6.9,-6.0,8944.2,9158.7,-0.9,118.8,7740.3,-5.1,0,960,36219192918016,211,0, 
0.5367,202.2,32.7,-269.4,14.4,8372.1,55.5,418.5,9830.1,40236.3,190.5,7894.2,9208.2,300.6,9827.1,9830.1,9830.1,-7.2,-5.7,9830.1,9830.1,-0.6,243.0,2721.0,-27.9,0,966,36219192918016,212,0, 
0.5400,270.9,20.1,-237.0,107.1,-5667.6,-254.4,515.1,-3252.3,-66912.3,356.1,-4540.5,-4340.1,-352.8,-4390.5,-8042.4,-3358.2,-6.3,-6.0,-4426.8,-3794.1,-0.6,421.5,-8297.1,-99.0,0,972,36219192918016,213,0, 
0.5433,240.3,4.2,-251.4,80.7,-9819.9,-322.5,498.6,-9830.1,-153016.5,335.7,-9830.1,-9817.8,-582.6,-9827.4,-9657.6,-9830.1,-6.9,-6.3,-9830.1,-9830.1,-0.3,397.2,-9830.1,-118.2,0,978,36219192918016,214,0, 
0.5467,158.4,15.6,-291.6,-17.4,-945.0,-44.1,406.8,-6635.7,-98404.8,161.4,-4244.4,-4270.8,-59.7,-7308.9,-9830.1,-6629.7,-6.9,-5.7,-5929.2,-5701.5,-0.6,219.6,-2842.8,-55.5,0,984,36219192918016,215,0, 
0.5500,120.3,14.1,-315.9,-67.8,9819.6,174.3,347.7,8808.3,20822.1,62.7,7385.7,8722.8,466.8,8327.7,5497.2,8828.4,-7.2,-6.3,8963.7,9118.5,-0.9,115.5,7780.8,-8.1,0,990,36219192918016,216,0, 
0.5533,197.4,28.8,-278.1,10.8,8410.5,59.4,421.8,9830.1,38161.5,189.9,8009.1,9185.4,302.1,9827.1,9830.1,9830.1,-6.9,-6.3,9830.1,9830.1,-0.3,245.4,2755.2,-32.1,0,996,36219192918016,217,0, 
0.5567,263.7,12.3,-243.9,91.5,-5612.4,-257.1,507.3,-3130.8,-68913.0,358.8,-4367.7,-4278.6,-354.3,-4437.3,-8515.2,-3216.0,-6.9,-6.3,-4232.4,-3810.3,-0.9,414.0,-8258.4,-107.4,0,1002,36219192918016,218,0, 
0.5600,233.7,-0.6,-262.2,68.7,-9819.9,-324.3,495.6,-9830.1,-154424.4,335.4,-9830.1,-9817.8,-582.9,-9827.4,-9501.6,-9830.1,-6.9,-6.3,-9830.1,-9830.1,-0.6,392.4,-9830.1,-124.8,0,1008,36219192918016,219,0, 
0.5633,144.9,4.2,-306.9,-31.8,-777.3,-60.3,398.7,-6447.9,-98775.3,155.1,-4092.0,-4234.5,-56.1,-7198.5,-9830.1,-6424.2,-6.9,-6.3,-5651.4,-5552.4,-0.6,203.4,-2715.0,-63.0,0,1014,36219192918016,220,0, 
0.5667,116.7,13.8,-329.4,-77.7,9819.6,165.0,346.8,8911.2,20748.0,65.1,7459.5,8773.2,477.6,8425.5,5229.9,8937.9,-6.9,-6.0,9084.3,9225.3,-0.6,114.6,7910.1,-17.7,0,1020,36219192918016,221,0, 
0.5700,192.0,23.1,-295.8,-3.3,8416.8,43.8,414.3,9830.1,37865.1,188.4,8134.8,9250.8,307.2,9827.1,9764.4,9830.1,-7.2,-6.0,9830.1,9830.1,-0.6,244.5,2850.9,-38.7,0,1026,36219192918016,222,0, 
0.5733,258.0,15.0,-262.8,82.2,-5585.1,-283.5,499.5,-2998.5,-69802.2,356.7,-4386.0,-4145.1,-365.4,-4296.9,-8784.3,-3061.2,-6.9,-5.7,-4184.1,-3747.3,-0.6,409.2,-8275.2,-118.8,0,1032,36219192918016,223,0, 
0.5767,234.9,-2.7,-275.7,62.4,-9819.9,-344.1,496.5,-9830.1,-155535.9,344.1,-9830.1,-9817.8,-569.7,-9827.4,-9419.4,-9830.1,-6.9,-5.4,-9830.1,-9830.1,-0.9,398.7,-9830.1,-121.8,0,1038,36219192918016,224,0, 
0.5800,147.6,0.3,-315.6,-35.7,-474.3,-67.5,396.9,-6055.2,-97663.8,160.8,-3677.1,-3662.1,-33.0,-6841.2,-9830.1,-5999.1,-6.9,-6.0,-5138.1,-5223.6,-0.9,209.1,-2471.4,-59.1,0,1044,36219192918016,225,0, 
0.5833,124.2,17.4,-330.3,-80.1,9819.6,165.6,348.0,9108.3,25194.0,65.4,8045.1,9042.6,523.8,8715.0,5827.8,9150.0,-6.9,-6.0,9392.7,9381.6,-0.9,110.1,8418.9,-5.1,0,1050,36219192918016,226,0, 
0.5867,192.9,13.8,-286.8,-2.4,8228.1,28.8,416.1,9830.1,39495.3,196.8,8271.6,9180.6,314.7,9827.1,9406.8,9830.1,-7.5,-6.0,9830.1,9830.1,-0.9,238.2,2733.0,-40.2,0,1056,36219192918016,227,0, 
0.5900,259.2,-4.2,-252.6,85.2,-6031.2,-303.9,505.5,-3266.7,-74841.0,370.8,-4836.9,-4644.9,-377.7,-4672.2,-8997.9,-3372.6,-6.9,-6.0,-4682.1,-4113.3,-0.6,417.3,-8524.2,-122.7,0,1062,36219192918016,228,0, 
0.5933,231.6,-11.1,-263.7,60.0,-9819.9,-367.2,495.9,-9830.1,-163686.9,345.3,-9830.1,-9817.8,-600.6,-9827.4,-9327.6,-9830.1,-6.9,-6.0,-9830.1,-9830.1,-0.9,395.4,-9830.1,-140.7,0,1068,36219192918016,229,0, 
0.5967,147.3,-3.9,-311.7,-45.0,-632.4,-63.0,393.9,-6156.6,-101887.5,151.5,-4014.6,-4162.8,-32.7,-7018.5,-9830.1,-6141.9,-6.9,-6.0,-5562.6,-5469.3,-0.6,198.0,-2540.1,-71.1,0,1074,36219192918016,230,0, 
0.6000,125.1,16.8,-328.8,-81.3,9819.6,186.3,347.1,9110.7,23934.3,61.5,8055.6,8995.2,523.5,8682.6,5713.5,9147.0,-6.6,-6.0,9357.3,9352.8,-0.6,103.8,8559.0,-18.6,0,1080,36219192918016,231,0, 
0.6033,202.5,27.6,-283.2,3.0,8144.7,49.5,420.9,9830.1,36901.8,205.5,8079.3,9040.8,317.4,9827.1,9020.1,9830.1,-6.9,-5.7,9775.5,9830.1,-0.6,246.6,2623.5,-39.9,0,1086,36219192918016,232,0, 
0.6067,272.1,5.7,-243.3,95.7,-6184.2,-283.8,517.8,-3609.0,-79287.0,384.6,-5290.2,-5018.4,-388.8,-5026.5,-9382.2,-3670.2,-6.9,-5.7,-5229.3,-4371.6,-0.6,432.0,-8623.5,-115.2,0,1092,36219192918016,233,0, 
0.6100,241.5,-6.0,-262.5,66.9,-9819.9,-346.2,504.6,-9830.1,-168058.8,353.7,-9830.1,-9817.8,-609.6,-9827.4,-9163.2,-9830.1,-6.6,-6.3,-9830.1,-9830.1,-0.9,401.1,-9830.1,-130.2,0,1098,36219192918016,234,0, 
0.6133,152.4,-4.2,-306.9,-36.0,-778.8,-41.7,406.8,-6415.2,-106111.2,162.9,-4581.6,-4473.0,-36.3,-7361.4,-9830.1,-6403.2,-6.6,-6.6,-6173.4,-5626.2,-0.3,212.4,-2601.3,-64.5,0,1104,36219192918016,235,0, 
0.6167,120.9,15.0,-325.5,-80.7,9819.6,192.6,348.6,9009.9,19414.2,63.0,7769.1,9011.7,525.0,8488.8,5175.0,9029.7,-7.2,-6.3,9111.3,9319.8,-0.9,106.5,8512.2,-12.9,0,1110,36219192918016,236,0, 
0.6200,193.8,16.2,-285.3,2.7,8133.9,50.7,421.2,9830.1,33419.1,198.6,7903.5,8943.3,310.8,9827.1,8561.7,9830.1,-6.9,-5.7,9692.7,9830.1,-0.9,248.1,2609.7,-41.7,0,1116,36219192918016,237,0, 
0.6233,259.8,4.5,-245.4,95.1,-6156.3,-284.7,513.9,-3688.5,-83066.1,370.8,-5396.7,-5099.7,-402.0,-5303.7,-9830.1,-3847.5,-6.9,-5.7,-5534.7,-4324.2,-1.2,423.0,-8597.7,-123.0,0,1122,36219192918016,238,0, 
0.6267,231.0,0.6,-257.1,75.0,-9819.9,-345.9,507.0,-9830.1,-171986.1,347.4,-9830.1,-9817.8,-615.3,-9827.4,-8974.2,-9830.1,-7.2,-6.0,-9830.1,-9830.1,-0.3,399.3,-9830.1,-133.5,0,1128,36219192918016,239,0, 
0.6300,140.4,4.2,-305.7,-32.7,-738.0,-50.4,398.7,-6448.2,-109742.1,143.4,-4774.5,-4522.2,-44.1,-7506.9,-9830.1,-6452.7,-6.6,-6.0,-6224.4,-5568.3,-0.9,200.4,-2638.5,-70.8,0,1134,36219192918016,240,0, 
0.6333,113.7,22.5,-313.5,-70.8,9819.6,186.0,344.1,8988.0,16746.6,53.4,7697.4,8971.5,518.4,8385.6,4599.6,9018.9,-6.6,-6.3,9069.3,9322.8,-0.6,99.3,8535.3,-16.2,0,1140,36219192918016,241,0, 
0.6367,186.9,24.6,-269.1,15.0,8224.5,42.0,409.5,9830.1,31418.4,187.8,7822.5,9010.8,314.7,9827.1,8252.4,9830.1,-6.6,-5.4,9756.0,9830.1,-1.2,237.3,2623.5,-47.4,0,1146,36219192918016,242,0, 
0.6400,260.4,12.0,-233.1,113.4,-6024.3,-289.8,510.0,-3552.3,-84103.5,365.1,-5449.2,-4987.2,-385.5,-5350.2,-9830.1,-3673.2,-7.5,-6.3,-5448.0,-4192.8,-0.6,422.4,-8568.3,-120.6,0,1152,36219192918016,243,0, 
0.6433,233.7,3.9,-248.4,93.6,-9819.9,-330.9,503.7,-9830.1,-172653.0,343.5,-9830.1,-9817.8,-602.1,-9827.4,-8859.3,-9830.1,-6.9,-6.0,-9830.1,-9830.1,-0.9,402.0,-9830.1,-123.9,0,1158,36219192918016,244,0, 
0.6467,146.7,11.1,-292.8,-13.5,-538.2,-42.3,400.5,-6270.6,-110186.7,144.6,-4600.2,-4285.2,-30.9,-7421.1,-9830.1,-6282.3,-7.2,-6.3,-6005.1,-5439.0,-0.6,201.0,-2524.2,-57.3,0,1164,36219192918016,245,0, 
0.6500,119.7,26.1,-308.4,-54.3,9819.6,200.7,347.1,9086.1,16968.9,43.2,7843.5,9014.4,533.4,8438.4,4355.1,9101.1,-6.6,-6.0,9186.0,9397.8,-0.9,107.1,8678.7,3.0,0,1170,36219192918016,246,0, 
0.6533,196.2,37.8,-264.6,29.4,8382.9,69.3,423.0,9830.1,32752.2,185.1,8130.0,9220.2,332.7,9827.1,8271.9,9830.1,-7.5,-5.7,9830.1,9830.1,-0.6,248.7,2892.0,-25.8,0,1176,36219192918016,247,0, 
0.6567,260.4,11.7,-233.4,126.6,-5820.0,-263.1,513.9,-3040.2,-82325.1,362.4,-5011.5,-4549.5,-367.2,-5014.5,-9830.1,-3189.9,-6.6,-5.7,-4855.5,-3844.8,-1.2,429.3,-8498.4,-105.0,0,1182,36219192918016,248,0, 
0.6600,230.7,7.8,-247.5,104.7,-9819.9,-321.3,506.7,-9830.1,-170430.0,340.5,-9830.1,-9817.8,-590.7,-9827.4,-8846.7,-9830.1,-6.9,-5.7,-9830.1,-9830.1,-0.6,402.9,-9830.1,-109.5,0,1188,36219192918016,249,0, 
0.6633,149.1,21.6,-289.5,0.6,-293.7,-16.2,407.4,-5886.9,-107963.7,147.0,-4104.9,-3798.0,-21.0,-7178.1,-9830.1,-5930.7,-6.6,-6.3,-5529.6,-5151.0,-0.6,204.6,-2429.7,-44.7,0,1194,36219192918016,250,0, 
0.6667,122.1,35.1,-306.0,-41.4,9819.6,222.3,349.5,9248.7,19562.4,45.6,8173.2,9176.4,545.4,8589.0,4452.3,9249.3,-6.9,-6.0,9346.8,9468.6,-0.9,110.1,8812.5,16.5,0,1200,36219192918016,251,0, 
0.6700,198.9,50.1,-266.4,39.3,8519.4,75.6,424.8,9830.1,35642.1,174.0,8449.5,9462.6,327.3,9827.1,8617.5,9830.1,-7.2,-6.0,9830.1,9830.1,-0.9,244.8,3056.1,-14.4,0,1206,36219192918016,252,0, 
0.6733,264.0,21.3,-232.5,122.7,-5642.4,-267.3,513.6,-2485.2,-78990.6,344.7,-4584.3,-3861.0,-371.1,-4579.5,-9830.1,-2655.9,-6.9,-5.4,-4292.4,-3395.1,-0.3,409.8,-8450.4,-94.2,0,1212,36219192918016,253,0, 
0.6767,236.1,11.1,-242.1,103.2,-9819.9,-325.5,505.2,-9830.1,-167614.2,330.3,-9830.1,-9817.8,-583.2,-9827.4,-8937.9,-9830.1,-6.6,-6.0,-9830.1,-9830.1,-0.9,394.2,-9830.1,-104.1,0,1218,36219192918016,254,0, 
0.6800,145.2,18.6,-296.7,-7.8,-188.1,-30.3,398.4,-5566.5,-105073.8,135.3,-3704.4,-3034.2,-23.7,-6952.2,-9830.1,-5595.6,-6.9,-6.0,-5087.4,-4888.2,-0.6,203.1,-2327.7,-40.5,0,1224,36219192918016,255,0, 
0.6833,115.5,27.0,-320.1,-57.9,9819.6,211.2,343.5,9364.5,22674.6,34.5,8370.6,9410.7,544.2,8677.2,4806.6,9370.8,-6.9,-6.0,9454.8,9507.6,-0.9,100.5,8961.0,15.0,0,1230,36219192918016,0,0, 
0.6867,188.1,27.6,-290.1,19.5,8593.2,64.2,410.4,9830.1,39198.9,166.8,8721.6,9713.7,329.7,9827.1,9099.6,9830.1,-6.9,-6.0,9830.1,9830.1,-0.9,232.2,3220.5,-19.2,0,1236,36219192918016,1,0, 
0.6900,253.8,7.8,-261.9,105.3,-5533.5,-278.1,504.0,-2085.3,-75285.6,338.1,-4155.0,-2883.6,-376.5,-4275.9,-9674.1,-2240.4,-6.6,-6.0,-3965.7,-3222.6,-0.6,407.4,-8384.1,-108.9,0,1242,36219192918016,2,0, 
0.6933,231.0,1.8,-272.7,84.6,-9819.9,-336.3,499.8,-9830.1,-163761.0,318.9,-9830.1,-9817.8,-602.1,-9827.4,-9102.9,-9830.1,-6.6,-6.0,-9830.1,-9830.1,-0.6,390.3,-9830.1,-117.6,0,1248,36219192918016,3,0, 
0.6967,146.4,8.7,-317.4,-16.2,-78.0,-28.8,390.9,-5304.9,-101517.0,127.2,-3346.8,-1785.0,-39.6,-6764.7,-9830.1,-5320.8,-6.6,-5.7,-4770.9,-4894.5,-0.9,204.9,-2225.4,-55.5,0,1254,36219192918016,4,0, 
0.7000,117.3,19.2,-329.7,-60.0,9819.6,203.1,342.6,9434.4,26157.3,35.4,8488.5,9743.4,529.8,8777.4,5122.8,9451.8,-6.9,-6.0,9566.1,9501.3,-0.9,99.6,9073.8,-1.2,0,1260,36219192918016,5,0, 
0.7033,196.8,28.5,-297.0,15.0,8637.6,63.9,420.0,9830.1,42755.7,169.2,8877.3,9817.5,333.6,9827.1,9533.1,9830.1,-6.9,-5.4,9830.1,9830.1,-0.6,231.0,3339.9,-30.9,0,1266,36219192918016,6,0, 
0.7067,264.9,12.0,-260.1,104.4,-5508.9,-286.2,513.9,-1956.3,-72173.4,348.6,-3929.1,-1234.2,-375.9,-4132.5,-9181.5,-2028.0,-6.9,-6.0,-3621.0,-3346.8,-0.6,418.2,-8357.4,-111.6,0,1272,36219192918016,7,0, 
0.7100,231.3,-6.3,-273.0,77.1,-9819.9,-344.1,495.0,-9830.1,-161315.7,323.4,-9830.1,-9817.8,-603.6,-9827.4,-9276.3,-9830.1,-6.9,-6.0,-9830.1,-9830.1,-0.6,390.0,-9830.1,-131.7,0,1278,36219192918016,8,0, 
0.7133,142.5,8.1,-319.5,-26.4,-262.8,-49.8,395.1,-5331.0,-100109.1,130.8,-3377.1,-93.9,-45.0,-6857.1,-9830.1,-5333.1,-6.9,-6.0,-4674.3,-5063.4,-0.6,199.5,-2301.3,-63.0,0,1284,36219192918016,9,0, 
0.7167,115.5,24.9,-330.6,-68.7,9819.6,198.3,348.0,9416.4,27268.8,38.1,8454.3,9817.5,522.6,8697.0,5447.7,9423.0,-6.6,-6.0,9543.6,9442.8,-0.9,104.7,8966.1,-1.8,0,1290,36219192918016,10,0, 
0.7200,196.8,35.7,-286.8,18.6,8565.6,74.1,425.1,9830.1,43793.1,176.4,8881.8,9817.5,324.0,9827.1,9687.3,9830.1,-7.2,-6.3,9830.1,9830.1,-0.6,243.6,3288.0,-27.0,0,1296,36219192918016,11,0, 
0.7233,266.1,16.2,-250.2,105.3,-5614.8,-267.3,513.9,-1989.0,-71580.6,354.6,-3888.6,-463.5,-378.6,-4251.9,-8852.7,-2146.8,-6.9,-5.4,-3615.3,-3570.9,-0.3,425.1,-8370.0,-103.8,0,1302,36219192918016,12,0, 
0.7267,232.8,10.8,-265.5,79.5,-9819.9,-335.1,500.7,-9830.1,-161463.9,327.0,-9830.1,-9817.8,-602.7,-9827.4,-9396.6,-9830.1,-6.9,-6.0,-9830.1,-9830.1,-0.6,395.1,-9830.1,-125.7,0,1308,36219192918016,13,0, 
0.7300,142.2,19.8,-306.3,-20.7,-411.3,-32.7,397.8,-5442.6,-100183.2,141.0,-3237.9,316.5,-37.2,-6965.1,-9830.1,-5498.4,-7.2,-5.7,-4740.0,-5316.6,-0.3,213.6,-2394.0,-58.5,0,1314,36219192918016,14,0, 
0.7333,111.3,34.2,-321.3,-62.4,9819.6,200.4,345.0,9365.1,27120.6,36.9,8460.3,9817.5,535.8,8642.4,5619.3,9354.3,-6.6,-6.6,9525.9,9355.2,-1.2,107.1,8887.5,3.9,0,1320,36219192918016,15,0, 
0.7367,184.5,30.3,-284.4,13.5,8544.3,56.4,414.9,9830.1,43348.5,169.5,8880.6,9817.5,334.8,9827.1,9728.7,9830.1,-6.6,-5.7,9830.1,9830.1,-0.3,241.2,3225.9,-23.7,0,1326,36219192918016,16,0, 
0.7400,253.5,16.2,-247.8,100.5,-5640.0,-282.9,510.3,-2108.7,-71728.8,353.7,-3909.9,-535.5,-378.3,-4434.9,-8725.5,-2301.9,-6.6,-6.3,-3752.1,-3764.1,-0.9,427.2,-8377.8,-105.6,0,1332,36219192918016,17,0, 
0.7433,222.6,2.4,-261.0,81.3,-9819.9,-346.8,497.7,-9830.1,-161908.5,328.2,-9830.1,-9817.8,-605.7,-9827.4,-9436.2,-9830.1,-7.2,-6.0,-9830.1,-9830.1,-0.6,400.8,-9830.1,-126.6,0,1338,36219192918016,18,0, 
0.7467,144.6,13.8,-300.3,-11.4,-593.4,-36.3,401.1,-5636.1,-101220.6,141.9,-3289.2,-124.8,-44.1,-7173.6,-9830.1,-5649.6,-6.6,-6.0,-4881.3,-5500.8,-1.2,212.4,-2474.4,-51.0,0,1344,36219192918016,19,0, 
0.7500,115.5,32.1,-313.5,-53.7,9819.6,215.4,345.3,9277.5,26231.4,42.3,8461.2,9808.2,537.0,8498.4,5570.4,9291.6,-6.6,-6.3,9483.9,9260.1,-0.9,111.0,8871.0,-3.3,0,1350,36219192918016,20,0, 
0.7533,187.5,37.8,-271.2,31.5,8502.9,67.5,417.9,9830.1,42903.9,180.6,8854.2,9817.5,334.5,9827.1,9738.0,9830.1,-6.9,-6.0,9830.1,9830.1,-1.2,246.6,3207.3,-36.6,0,1356,36219192918016,21,0, 
0.7567,256.5,24.3,-238.2,120.3,-5711.1,-273.6,511.2,-2289.0,-72321.6,355.2,-3999.3,-1148.7,-389.4,-4602.3,-8707.2,-2397.3,-6.9,-6.3,-3838.5,-3896.1,-0.6,429.6,-8407.8,-114.9,0,1362,36219192918016,22,0, 
0.7600,231.3,18.3,-255.6,85.5,-9819.9,-335.4,504.0,-9830.1,-163020.0,340.2,-9830.1,-9817.8,-610.5,-9827.4,-9432.6,-9830.1,-6.9,-6.0,-9830.1,-9830.1,-0.6,411.3,-9830.1,-130.5,0,1368,36219192918016,23,0, 
0.7633,132.6,7.5,-303.9,-24.6,-671.4,-43.2,394.5,-5832.6,-102628.5,142.5,-3455.7,-910.5,-45.0,-7340.1,-9830.1,-5809.8,-6.9,-6.0,-5100.0,-5702.7,-0.3,213.6,-2535.0,-66.3,0,1374,36219192918016,24,0, 
0.7667,112.5,36.3,-319.8,-64.2,9819.6,216.0,341.7,9191.7,24601.2,48.3,8348.1,9699.3,525.0,8382.0,5430.0,9219.3,-7.2,-6.3,9391.5,9187.5,-1.2,117.0,8799.0,-5.1,0,1380,36219192918016,25,0, 
0.7700,181.5,28.8,-278.1,13.2,8493.3,69.6,410.4,9830.1,41496.0,180.0,8824.8,9817.5,329.1,9827.1,9637.5,9830.1,-7.2,-5.7,9830.1,9830.1,-0.6,245.1,3217.2,-33.6,0,1386,36219192918016,26,0, 
0.7733,254.4,11.4,-244.8,102.6,-5701.5,-269.7,507.6,-2443.5,-73803.6,359.7,-4016.1,-1577.4,-386.1,-4765.8,-8866.5,-2528.4,-6.9,-5.7,-3965.1,-3930.3,-0.6,426.9,-8400.6,-117.3,0,1392,36219192918016,27,0, 
0.7767,230.4,1.2,-258.3,79.8,-9819.9,-326.4,501.9,-9830.1,-164576.1,336.0,-9830.1,-9817.8,-611.7,-9827.4,-9390.0,-9830.1,-7.2,-6.0,-9830.1,-9830.1,-0.6,411.9,-9830.1,-128.7,0,1398,36219192918016,28,0, 
0.7800,141.6,10.5,-303.3,-30.6,-720.6,-26.7,393.9,-5930.7,-103814.1,142.2,-3535.5,-1426.2,-52.8,-7431.3,-9830.1,-5876.4,-6.6,-6.0,-5140.5,-5671.8,-0.6,210.0,-2547.3,-62.7,0,1404,36219192918016,29,0, 
0.7833,108.0,22.8,-321.3,-72.9,9819.6,198.3,339.9,9168.6,24156.6,37.8,8381.7,9623.4,525.0,8314.5,5218.5,9211.2,-6.6,-6.0,9402.0,9193.2,-0.6,108.6,8829.0,-4.8,0,1410,36219192918016,30,0, 
0.7867,181.8,23.1,-282.6,7.2,8575.8,60.6,407.4,9830.1,42162.9,176.1,8940.3,9817.5,336.9,9827.1,9790.8,9830.1,-7.5,-6.3,9830.1,9830.1,-0.9,240.0,3282.9,-38.1,0,1416,36219192918016,31,0, 
0.7900,256.2,11.4,-235.2,112.2,-5538.3,-271.2,507.0,-2185.2,-72099.3,358.8,-3823.5,-2007.0,-370.8,-4590.3,-8802.0,-2318.7,-7.5,-6.0,-3713.4,-3721.8,-0.9,428.1,-8362.8,-118.8,0,1422,36219192918016,32,0, 
0.7933,226.2,-4.5,-253.5,82.2,-9819.9,-339.3,493.8,-9830.1,-162945.9,338.4,-9830.1,-9817.8,-599.7,-9827.4,-9425.7,-9830.1,-6.9,-5.4,-9830.1,-9830.1,-0.9,406.8,-9830.1,-135.9,0,1428,36219192918016,33,0, 
0.7967,132.3,0.0,-303.0,-25.5,-535.5,-42.9,389.4,-5682.0,-102109.8,135.9,-3376.2,-1885.2,-48.9,-7269.0,-9830.1,-5711.1,-6.6,-5.4,-4841.1,-5433.9,-0.6,207.0,-2475.6,-68.1,0,1434,36219192918016,34,0, 
0.8000,106.8,21.9,-315.6,-63.9,9819.6,208.5,335.4,9274.5,26750.1,39.0,8482.5,9515.7,536.1,8424.9,5372.7,9282.9,-6.9,-6.3,9498.9,9295.2,-0.9,108.3,8972.1,-4.5,0,1440,36219192918016,35,0, 
0.8033,179.7,30.9,-270.6,22.8,8673.3,78.6,409.8,9830.1,45275.1,171.9,8963.1,9817.5,343.5,9827.1,9830.1,9830.1,-7.5,-6.0,9830.1,9830.1,-0.9,239.7,3475.2,-30.3,0,1446,36219192918016,36,0, 
0.8067,255.9,19.2,-226.8,121.5,-5412.3,-258.3,511.2,-1852.8,-68838.9,357.3,-3520.8,-2512.8,-357.6,-4201.5,-8537.4,-1962.3,-7.2,-6.3,-3241.5,-3377.4,-0.3,426.6,-8286.0,-112.2,0,1452,36219192918016,37,0, 
0.8100,228.3,2.7,-237.0,101.7,-9819.9,-333.6,506.4,-9830.1,-159240.9,339.3,-9830.1,-9817.8,-589.8,-9827.4,-9546.3,-9830.1,-6.6,-6.0,-9830.1,-9830.1,-0.3,410.1,-9830.1,-125.7,0,1458,36219192918016,38,0, 
0.8133,137.4,4.2,-289.2,-6.0,-400.5,-33.9,398.7,-5465.1,-98330.7,152.7,-2968.8,-2458.8,-41.4,-6928.8,-9830.1,-5425.5,-6.6,-6.0,-4455.3,-5190.6,-0.6,219.6,-2349.6,-57.3,0,1464,36219192918016,39,0, 
0.8167,108.6,33.9,-304.2,-47.1,9819.6,212.1,339.0,9368.1,30677.4,50.1,8594.1,9356.1,549.0,8619.9,5784.6,9400.5,-6.9,-6.0,9585.0,9372.3,-0.9,113.4,9120.0,-1.8,0,1470,36219192918016,40,0, 
0.8200,185.1,30.3,-261.3,31.2,8778.0,70.5,413.7,9830.1,49943.4,184.8,9184.5,9817.5,355.8,9827.1,9830.1,9830.1,-6.9,-5.7,9830.1,9830.1,-0.6,250.2,3648.0,-33.9,0,1476,36219192918016,41,0, 
0.8233,254.7,5.7,-232.2,123.6,-5229.0,-272.7,509.1,-1407.0,-64170.6,358.5,-3208.5,-2925.0,-360.9,-3681.0,-7857.9,-1524.0,-6.9,-6.0,-2879.7,-3081.9,-0.6,426.0,-8243.1,-111.9,0,1482,36219192918016,42,0, 
0.8267,231.9,0.0,-242.7,103.2,-9819.9,-336.0,504.0,-9830.1,-155165.4,338.1,-9830.1,-9817.8,-591.3,-9827.4,-9789.0,-9830.1,-6.9,-6.0,-9830.1,-9830.1,-0.6,411.9,-9830.1,-128.4,0,1488,36219192918016,43,0, 
0.8300,141.9,8.7,-291.9,0.0,-270.0,-37.5,399.3,-5191.8,-94551.6,144.0,-2829.6,-2902.5,-33.0,-6717.3,-9779.4,-5215.5,-6.6,-5.7,-4311.0,-5106.9,-0.3,209.1,-2262.6,-57.6,0,1494,36219192918016,44,0, 
0.8333,108.0,18.9,-312.6,-49.5,9819.6,216.3,343.5,9453.0,34456.5,39.3,8673.9,9234.6,553.2,8709.3,6269.1,9455.7,-6.9,-6.6,9605.1,9388.5,-0.9,103.5,9204.9,2.4,0,1500,36219192918016,45,0, 
0.8367,179.4,22.5,-276.3,26.4,8802.9,79.8,409.5,9830.1,53500.2,165.6,9181.8,9762.3,355.5,9827.1,9830.1,9830.1,-6.9,-6.3,9830.1,9830.1,-0.9,230.7,3770.1,-32.4,0,1506,36219192918016,46,0, 
0.8400,253.2,13.2,-243.6,117.9,-5203.8,-266.1,507.9,-1207.8,-60391.5,343.5,-3076.8,-3203.4,-377.7,-3456.9,-7190.7,-1342.2,-7.5,-6.0,-2726.4,-2882.4,-0.6,417.3,-8192.4,-117.0,0,1512,36219192918016,47,0, 
0.8433,231.0,6.9,-247.5,100.8,-9819.9,-320.4,503.4,-9830.1,-151682.7,330.9,-9830.1,-9817.8,-585.6,-9827.4,-9830.1,-9830.1,-6.3,-6.3,-9830.1,-9830.1,-0.9,402.0,-9830.1,-126.6,0,1518,36219192918016,48,0, 
0.8467,142.5,9.6,-291.3,-3.0,-301.8,-19.2,405.0,-5149.2,-91735.8,141.6,-2907.6,-3360.3,-17.1,-6592.5,-9443.7,-5150.1,-6.9,-6.0,-4290.0,-5010.0,-0.6,212.7,-2258.4,-55.2,0,1524,36219192918016,49,0, 
0.8500,117.9,33.0,-307.2,-51.0,9819.6,226.2,350.1,9460.8,37272.3,42.6,8553.6,9051.0,564.0,8752.5,6613.2,9462.6,-6.6,-6.0,9585.9,9390.3,-0.3,107.4,9244.2,-0.3,0,1530,36219192918016,50,0, 
0.8533,192.0,38.1,-267.6,33.6,8799.6,100.5,415.8,9830.1,56464.2,171.6,9185.4,9704.7,379.5,9827.1,9830.1,9830.1,-6.9,-5.7,9830.1,9830.1,-0.9,243.0,3810.0,-24.6,0,1536,36219192918016,51,0, 
0.8567,258.9,22.5,-228.9,126.0,-5243.7,-256.5,510.0,-1148.1,-58168.5,354.3,-3041.7,-3600.0,-339.3,-3347.1,-6663.9,-1304.7,-6.9,-6.0,-2717.4,-2897.4,-0.3,425.7,-8203.5,-118.5,0,1542,36219192918016,52,0, 
0.8600,236.4,16.5,-238.2,109.2,-9819.9,-309.6,501.0,-9830.1,-150274.8,347.1,-9830.1,-9817.8,-562.5,-9827.4,-9830.1,-9830.1,-6.6,-5.7,-9830.1,-9830.1,-0.6,409.8,-9830.1,-134.1,0,1548,36219192918016,53,0, 
0.8633,144.6,19.5,-289.2,1.2,-315.6,-21.9,396.6,-5100.6,-90179.7,146.7,-2420.1,-3449.7,-15.9,-6571.2,-9102.0,-5092.5,-6.9,-6.0,-3997.5,-4848.9,-0.6,212.1,-2227.5,-60.6,0,1554,36219192918016,54,0, 
0.8667,118.5,41.4,-301.5,-45.0,9819.6,227.7,338.7,9480.6,38828.4,48.9,8668.8,9024.6,571.5,8754.0,6958.2,9496.5,-6.9,-5.7,9650.7,9436.2,-0.9,106.5,9274.2,0.3,0,1560,36219192918016,55,0, 
0.8700,193.2,47.7,-266.7,36.6,8868.0,100.8,415.2,9830.1,58909.5,176.7,9415.2,9701.1,383.7,9827.1,9830.1,9830.1,-7.2,-6.0,9830.1,9830.1,-0.9,246.0,3911.4,-26.1,0,1566,36219192918016,56,0, 
0.8733,256.5,20.4,-234.9,119.7,-5112.6,-249.0,503.7,-983.1,-54834.0,354.6,-2851.2,-3744.0,-341.7,-3152.4,-5902.8,-1119.9,-6.9,-5.7,-2381.4,-2692.8,-0.9,419.7,-8162.4,-116.4,0,1572,36219192918016,57,0, 
0.8767,228.0,2.4,-251.4,99.0,-9819.9,-312.9,498.3,-9830.1,-146347.5,336.6,-9830.1,-9817.8,-575.1,-9827.4,-9830.1,-9830.1,-6.6,-6.0,-9830.1,-9830.1,-0.9,401.7,-9830.1,-128.1,0,1578,36219192918016,58,0, 
0.8800,134.4,12.3,-297.0,-9.6,-235.5,-24.3,388.2,-5015.4,-86252.4,144.6,-2586.9,-4064.1,-25.8,-6448.5,-8675.7,-5036.1,-6.9,-6.0,-4028.7,-4918.2,-0.9,203.1,-2201.1,-64.2,0,1584,36219192918016,59,0, 
0.8833,105.0,21.9,-317.7,-58.8,9819.6,228.3,332.1,9515.1,42903.9,37.8,8632.5,8829.9,561.6,8820.0,7339.5,9514.5,-7.2,-6.3,9653.7,9400.8,-0.9,104.4,9366.3,-2.4,0,1590,36219192918016,60,0, 
0.8867,177.3,27.9,-277.8,17.4,8898.6,97.8,400.5,9830.1,63133.2,166.2,9404.1,9663.3,373.2,9827.1,9830.1,9830.1,-6.9,-5.7,9830.1,9830.1,-1.2,233.7,4068.9,-30.3,0,1596,36219192918016,61,0, 
0.8900,255.9,16.5,-237.3,118.2,-5031.3,-242.1,505.2,-776.4,-50388.0,356.1,-2683.8,-4003.8,-337.8,-2826.9,-5190.3,-908.4,-7.2,-5.7,-2194.8,-2556.3,-0.6,426.0,-8085.3,-101.7,0,1602,36219192918016,62,0, 
0.8933,225.0,7.8,-248.7,95.1,-9819.9,-313.2,494.7,-9830.1,-141975.6,334.8,-9830.1,-9817.8,-581.4,-9827.4,-9830.1,-9830.1,-6.9,-6.0,-9830.1,-9830.1,-0.6,404.1,-9830.1,-122.1,0,1608,36219192918016,63,0, 
0.8967,140.7,9.0,-293.4,-12.0,-199.8,-20.7,396.0,-4932.6,-82399.2,139.2,-2497.5,-4357.8,-22.8,-6230.7,-8185.2,-4885.8,-6.6,-6.3,-3872.7,-4899.3,-0.3,213.0,-2169.3,-55.2,0,1614,36219192918016,64,0, 
0.9000,108.6,30.9,-308.7,-58.8,9819.6,234.3,340.5,9526.5,47275.8,44.1,8602.8,8700.0,576.9,8909.4,7777.8,9549.3,-7.2,-6.0,9644.1,9380.4,-1.2,102.9,9417.3,-4.2,0,1620,36219192918016,65,0, 
0.9033,180.0,32.1,-279.0,16.5,8918.4,108.3,408.0,9830.1,67505.1,168.9,9466.5,9682.8,384.0,9827.1,9830.1,9830.1,-6.9,-6.0,9830.1,9830.1,-0.9,243.3,4121.1,-31.5,0,1626,36219192918016,66,0, 
0.9067,249.6,8.7,-238.2,105.3,-5051.1,-235.8,505.5,-689.4,-46386.6,351.6,-2676.0,-4055.4,-331.5,-2659.2,-4418.1,-782.7,-7.2,-5.7,-2165.4,-2581.8,-0.6,420.0,-8081.7,-114.6,0,1632,36219192918016,67,0, 
0.9100,220.8,3.9,-251.7,86.1,-9819.9,-310.8,502.2,-9830.1,-138567.0,332.7,-9830.1,-9817.8,-570.9,-9827.4,-9830.1,-9830.1,-6.9,-5.7,-9830.1,-9830.1,-0.9,402.6,-9830.1,-131.1,0,1638,36219192918016,68,0, 
0.9133,128.1,2.4,-299.7,-17.4,-327.3,-15.9,395.1,-5017.8,-79879.8,146.7,-2834.1,-4444.5,-32.7,-6235.5,-7866.9,-4983.6,-6.6,-5.7,-4029.6,-5047.2,-0.3,213.0,-2244.6,-61.2,0,1644,36219192918016,69,0, 
0.9167,107.7,37.5,-308.1,-60.9,9819.6,239.7,345.0,9471.9,48831.9,35.4,8441.4,8638.2,542.4,8895.6,7959.3,9484.2,-6.6,-6.3,9583.2,9326.1,-1.2,110.7,9298.2,5.4,0,1650,36219192918016,70,0, 
0.9200,177.6,35.7,-275.1,12.3,8889.3,114.3,414.9,9830.1,69357.6,176.4,9352.8,9617.4,381.9,9827.1,9830.1,9830.1,-6.9,-6.0,9830.1,9830.1,-0.9,240.9,4052.7,-24.0,0,1656,36219192918016,71,0, 
0.9233,242.7,9.0,-235.8,102.6,-5089.5,-231.0,511.2,-815.7,-44608.2,356.1,-3130.2,-4265.7,-357.0,-2635.2,-3873.0,-955.2,-7.5,-5.7,-2445.0,-2694.9,-0.9,420.0,-8108.7,-113.1,0,1662,36219192918016,72,0, 
0.9267,223.5,5.7,-245.4,84.6,-9819.9,-300.9,504.0,-9830.1,-137307.3,328.2,-9830.1,-9817.8,-596.4,-9827.4,-9830.1,-9830.1,-6.6,-5.4,-9830.1,-9830.1,-0.6,403.5,-9830.1,-126.9,0,1668,36219192918016,73,0, 
0.9300,128.1,5.1,-300.9,-25.5,-436.2,-21.6,397.2,-5219.7,-78916.5,138.0,-3123.6,-4694.4,-60.9,-6397.8,-7524.3,-5225.4,-6.9,-6.0,-4443.6,-5240.4,-0.9,201.3,-2337.9,-65.7,0,1674,36219192918016,74,0, 
0.9333,99.6,22.2,-324.9,-74.1,9819.6,228.3,332.7,9393.9,50165.7,37.5,8359.8,8501.7,542.1,8781.6,8196.6,9399.6,-6.9,-6.0,9489.6,9222.6,-0.9,100.8,9272.1,-5.7,0,1680,36219192918016,75,0, 
0.9367,173.4,31.8,-289.8,3.9,8903.4,99.6,405.9,9830.1,70543.2,171.3,9337.2,9594.6,358.8,9827.1,9830.1,9830.1,-6.9,-6.3,9830.1,9830.1,-0.9,234.6,4073.4,-27.6,0,1686,36219192918016,76,0, 
0.9400,237.0,4.8,-258.3,84.9,-5077.2,-255.9,496.5,-947.4,-42903.9,345.6,-3163.2,-4461.6,-359.1,-2703.3,-3406.2,-1087.2,-6.9,-6.0,-2590.8,-2711.1,-0.6,411.9,-8079.9,-119.7,0,1692,36219192918016,77,0, 
0.9433,215.4,-1.5,-264.9,67.5,-9819.9,-314.4,492.9,-9830.1,-135825.3,328.8,-9830.1,-9817.8,-605.7,-9827.4,-9830.1,-9830.1,-6.9,-6.0,-9830.1,-9830.1,-0.6,398.4,-9830.1,-132.0,0,1698,36219192918016,78,0, 
0.9467,129.6,8.4,-316.5,-32.7,-434.4,-20.7,392.1,-5305.8,-77656.8,141.0,-3110.1,-4924.8,-55.2,-6373.8,-7333.2,-5342.7,-7.2,-6.0,-4523.7,-5182.2,-0.9,205.2,-2327.1,-63.0,0,1704,36219192918016,79,0, 
0.9500,102.9,32.1,-328.2,-73.2,9819.6,237.3,333.6,9361.5,51499.5,33.6,8360.1,8395.8,539.4,8799.0,8302.5,9354.6,-6.3,-6.0,9426.0,9252.3,-0.9,99.6,9299.4,-7.8,0,1710,36219192918016,80,0, 
0.9533,177.6,42.0,-285.3,12.9,8906.1,111.0,409.8,9830.1,72321.6,172.2,9333.3,9564.3,369.6,9827.1,9830.1,9830.1,-6.9,-6.3,9830.1,9830.1,-0.6,236.1,4083.9,-33.6,0,1716,36219192918016,81,0, 
0.9567,243.0,19.8,-251.1,105.6,-5059.2,-240.0,504.3,-999.9,-41347.8,354.3,-3135.9,-4493.4,-363.0,-2630.4,-2999.7,-1132.5,-6.9,-6.0,-2664.9,-2592.9,-0.6,419.1,-8067.6,-117.6,0,1722,36219192918016,82,0, 
0.9600,219.9,8.1,-268.5,81.3,-9819.9,-311.4,499.8,-9830.1,-134046.9,335.1,-9830.1,-9817.8,-600.3,-9827.4,-9830.1,-9830.1,-7.2,-6.3,-9830.1,-9830.1,-0.9,400.2,-9830.1,-128.7,0,1728,36219192918016,83,0, 
0.9633,130.8,9.6,-317.1,-20.7,-377.7,-24.6,394.5,-5393.7,-75952.5,135.0,-3171.9,-4918.8,-53.4,-6352.2,-7118.4,-5352.9,-6.6,-5.7,-4615.8,-5079.6,-0.6,206.7,-2317.2,-57.3,0,1734,36219192918016,84,0, 
0.9667,102.6,31.8,-330.0,-68.7,9819.6,229.2,337.2,9333.9,53574.3,33.9,8304.9,8423.4,545.1,8823.0,8427.9,9363.9,-7.2,-6.0,9427.5,9278.7,-0.9,94.5,9314.7,-6.6,0,1740,36219192918016,85,0, 
0.9700,173.7,36.6,-287.7,12.3,8967.0,97.8,402.3,9830.1,75137.4,163.5,9382.8,9606.3,363.6,9827.1,9830.1,9830.1,-6.9,-6.0,9830.1,9830.1,-0.9,222.6,4198.8,-33.9,0,1746,36219192918016,86,0, 
0.9733,246.3,18.9,-250.8,106.5,-4943.7,-243.3,501.6,-897.6,-38087.4,348.6,-3054.0,-4464.9,-354.6,-2280.6,-2457.9,-967.8,-7.5,-5.4,-2484.9,-2396.7,-0.9,417.3,-8010.6,-117.3,0,1752,36219192918016,87,0, 
0.9767,223.5,14.1,-247.2,95.4,-9819.9,-308.4,502.5,-9830.1,-130786.5,344.4,-9830.1,-9817.8,-594.9,-9827.4,-9830.1,-9830.1,-6.6,-6.3,-9830.1,-9830.1,-1.2,417.3,-9830.1,-116.7,0,1758,36219192918016,88,0, 
0.9800,132.6,14.7,-298.2,-12.9,-323.4,-31.8,398.4,-5346.6,-72914.4,150.3,-3158.7,-4931.7,-48.0,-6105.6,-6736.8,-5297.7,-6.9,-5.7,-4476.9,-5055.9,-0.6,218.1,-2254.5,-57.3,0,1764,36219192918016,89,0, 
0.9833,94.2,23.7,-322.2,-63.3,9819.6,223.5,336.9,9360.9,56464.2,36.0,8303.1,8381.7,535.2,8935.5,8674.8,9382.5,-7.5,-6.3,9448.5,9283.8,-0.6,100.5,9400.8,4.5,0,1770,36219192918016,90,0, 
0.9867,171.6,33.3,-280.2,20.7,9032.7,89.7,409.2,9830.1,78768.3,167.7,9457.2,9704.4,363.0,9827.1,9830.1,9830.1,-6.6,-6.3,9830.1,9830.1,-0.3,231.3,4368.3,-26.4,0,1776,36219192918016,91,0, 
0.9900,241.5,19.2,-242.7,110.4,-4871.4,-258.3,500.1,-671.1,-34086.0,346.5,-2980.8,-4281.0,-362.1,-1966.8,-1749.9,-787.8,-7.2,-5.7,-2328.0,-2177.7,-0.6,418.5,-7964.7,-110.7,0,1782,36219192918016,92,0, 
0.9933,220.5,4.5,-255.9,89.7,-9819.9,-328.2,497.4,-9830.1,-127007.4,333.3,-9830.1,-9817.8,-602.7,-9827.4,-9830.1,-9830.1,-6.9,-6.0,-9830.1,-9830.1,-0.6,403.2,-9830.1,-130.8,0,1788,36219192918016,93,0, 
0.9967,133.5,17.4,-303.0,-13.5,-373.5,-35.1,397.5,-5294.4,-69654.0,142.5,-3179.1,-4815.9,-58.2,-5866.5,-6289.5,-5269.2,-6.9,-6.0,-4329.6,-4932.6,-0.9,209.7,-2265.9,-53.1,0,1794,36219192918016,94,0, 
1.0000,107.1,34.2,-319.5,-57.9,9819.6,223.5,344.4,9358.2,60095.1,43.8,8295.0,8455.2,540.3,9045.0,8906.1,9380.7,-6.9,-6.0,9498.9,9321.6,-0.6,108.0,9436.5,8.4,0,1800,36219192918016,95,0, 
1.0033,179.1,39.0,-288.9,17.7,9031.2,90.0,404.4,9830.1,82028.7,156.0,9422.4,9763.2,361.5,9827.1,9830.1,9830.1,-7.2,-6.0,9830.1,9830.1,-1.2,228.9,4392.3,-28.8,0,1806,36219192918016,96,0, 
1.0067,248.4,12.3,-252.6,109.2,-4831.8,-249.3,499.2,-645.3,-30825.6,350.1,-2990.7,-4030.5,-365.1,-1631.4,-1196.1,-695.4,-6.9,-5.4,-2190.9,-1967.7,-0.6,414.6,-7935.0,-108.3,0,1812,36219192918016,97,0, 
1.0100,226.2,16.2,-261.3,92.4,-9819.9,-323.4,494.4,-9830.1,-124339.8,333.0,-9830.1,-9817.8,-602.7,-9827.4,-9830.1,-9830.1,-6.9,-6.0,-9830.1,-9830.1,-0.6,402.0,-9830.1,-131.4,0,1818,36219192918016,98,0, 
1.0133,137.4,14.4,-307.5,-12.0,-468.9,-33.9,388.5,-5359.5,-67282.8,146.4,-3333.3,-4758.3,-74.1,-5816.4,-5976.9,-5306.1,-7.2,-6.3,-4401.3,-4937.7,-0.6,211.5,-2301.3,-64.2,0,1824,36219192918016,99,0, 
1.0167,117.6,42.6,-324.3,-55.2,9819.6,230.1,336.9,9329.1,62021.7,35.4,8264.1,8415.6,517.5,9052.5,9081.9,9346.8,-6.6,-6.3,9433.8,9284.4,-0.9,105.0,9404.7,0.6,0,1830,36219192918016,100,0, 
1.0200,184.8,45.0,-283.5,23.4,9054.0,105.0,411.3,9830.1,84770.4,173.1,9435.6,9758.7,355.8,9827.1,9830.1,9830.1,-7.5,-6.0,9830.1,9830.1,-0.9,235.8,4479.6,-26.1,0,1836,36219192918016,101,0, 
1.0233,255.3,18.3,-234.0,122.1,-4845.6,-246.9,507.3,-657.6,-28454.4,363.3,-2957.7,-4064.4,-359.7,-1514.1,-609.0,-753.3,-6.9,-6.0,-2234.1,-2106.6,-0.9,430.8,-7934.4,-108.3,0,1842,36219192918016,102,0, 
1.0267,232.5,19.2,-245.1,108.6,-9819.9,-311.4,510.0,-9830.1,-122116.8,348.3,-9830.1,-9817.8,-606.9,-9827.4,-9830.1,-9830.1,-6.6,-6.3,-9830.1,-9830.1,-1.2,419.4,-9830.1,-123.6,0,1848,36219192918016,103,0, 
1.0300,136.8,18.3,-295.8,-5.1,-505.5,-27.3,404.4,-5450.4,-65800.8,156.9,-3301.2,-4840.2,-75.9,-5804.7,-5606.1,-5421.3,-6.3,-5.7,-4605.9,-5060.1,-0.6,221.7,-2322.6,-56.7,0,1854,36219192918016,104,0, 
1.0333,103.5,29.7,-323.4,-57.0,9819.6,233.7,339.3,9280.5,63355.5,46.2,8208.9,8364.6,523.5,9042.9,9239.7,9299.1,-6.6,-6.0,9353.1,9245.4,-0.6,109.8,9359.7,-0.9,0,1860,36219192918016,105,0, 
1.0367,172.8,37.8,-288.6,22.2,9032.7,111.6,409.8,9830.1,86030.1,171.6,9485.1,9809.4,357.9,9827.1,9830.1,9830.1,-7.2,-6.0,9830.1,9830.1,-1.2,239.4,4412.4,-25.2,0,1866,36219192918016,106,0, 
1.0400,243.6,17.4,-255.6,113.4,-4871.4,-232.2,504.6,-714.0,-26824.2,354.0,-2996.1,-4143.9,-363.0,-1435.2,-203.7,-827.7,-6.9,-5.7,-2456.1,-2131.2,-0.3,420.3,-7932.3,-110.1,0,1872,36219192918016,107,0, 
1.0433,219.9,3.3,-260.7,96.0,-9819.9,-309.9,497.7,-9830.1,-120857.1,336.0,-9830.1,-9817.8,-611.7,-9827.4,-9830.1,-9830.1,-7.2,-6.0,-9830.1,-9830.1,-0.6,403.8,-9830.1,-128.4,0,1878,36219192918016,108,0, 
1.0467,129.3,5.7,-313.5,-9.6,-583.5,-21.0,393.6,-5576.1,-64763.4,146.1,-3396.6,-4985.7,-82.8,-5748.9,-5358.9,-5549.1,-6.6,-6.0,-4797.3,-5159.1,-0.6,209.4,-2403.3,-71.7,0,1884,36219192918016,109,0, 
1.0500,95.7,21.0,-333.0,-63.3,9819.6,234.6,334.5,9217.8,64615.2,32.1,8173.2,8302.2,516.6,9056.1,9351.0,9238.5,-7.2,-6.0,9291.6,9184.5,-0.6,96.9,9356.7,-14.4,0,1890,36219192918016,110,0, 
1.0533,168.6,22.5,-295.2,8.7,9007.2,102.0,403.5,9830.1,87289.8,161.4,9406.5,9764.4,354.9,9827.1,9830.1,9830.1,-6.9,-6.3,9830.1,9830.1,-0.9,223.5,4393.8,-43.2,0,1896,36219192918016,111,0, 
1.0567,240.9,-4.2,-261.0,98.4,-4852.8,-243.9,501.0,-834.6,-25712.7,348.0,-3234.9,-4210.2,-371.1,-1406.7,158.1,-945.6,-7.2,-6.0,-2523.6,-2181.6,-0.6,411.6,-7965.3,-121.8,0,1902,36219192918016,112,0, 
1.0600,224.7,-1.8,-262.5,88.8,-9819.9,-321.9,501.6,-9830.1,-119819.7,338.7,-9830.1,-9817.8,-605.7,-9827.4,-9830.1,-9830.1,-6.9,-6.0,-9830.1,-9830.1,-0.9,406.8,-9830.1,-131.7,0,1908,36219192918016,113,0, 
1.0633,137.1,1.8,-311.7,-15.6,-663.9,-33.3,403.8,-5736.3,-64170.6,148.8,-3671.1,-5025.0,-74.1,-5826.3,-5182.5,-5694.0,-6.6,-6.0,-4935.9,-5258.7,-0.9,208.8,-2438.1,-64.8,0,1914,36219192918016,114,0, 
1.0667,107.1,24.6,-330.3,-63.0,9819.6,224.4,347.4,9142.2,65059.8,41.7,8034.3,8254.5,519.9,9018.3,9411.9,9171.6,-7.2,-6.0,9223.5,9142.2,-0.9,101.1,9295.8,-6.3,0,1920,36219192918016,115,0, 
1.0700,173.4,23.7,-298.2,10.5,9000.9,94.5,400.2,9830.1,88030.8,164.7,9347.4,9817.5,364.2,9827.1,9830.1,9830.1,-6.9,-5.7,9830.1,9830.1,-0.6,224.1,4382.1,-39.9,0,1926,36219192918016,116,0, 
1.0733,247.8,14.7,-257.4,111.0,-4950.3,-249.6,499.8,-975.0,-24749.4,352.8,-3474.6,-4149.9,-357.3,-1437.9,322.8,-1085.7,-7.2,-5.7,-2646.3,-2241.0,-0.6,416.7,-7945.5,-118.5,0,1932,36219192918016,117,0, 
1.0767,224.7,-2.1,-264.6,95.1,-9819.9,-315.0,496.5,-9830.1,-119523.3,339.3,-9830.1,-9817.8,-600.0,-9827.4,-9830.1,-9830.1,-6.9,-6.0,-9830.1,-9830.1,-0.9,404.7,-9830.1,-134.1,0,1938,36219192918016,118,0, 
1.0800,139.8,7.2,-309.3,-1.5,-819.3,-23.7,399.6,-5907.6,-64244.7,153.3,-3852.0,-5009.4,-65.1,-5928.9,-5094.3,-5866.2,-6.3,-6.3,-5170.8,-5430.3,-0.6,215.1,-2542.8,-66.6,0,1944,36219192918016,119,0, 
1.0833,112.5,28.5,-326.4,-49.5,9819.6,226.2,336.3,9053.7,64763.4,42.0,7946.1,8278.5,524.4,8958.0,9437.1,9083.4,-6.9,-5.7,9152.4,9069.9,-0.6,106.8,9215.7,-7.5,0,1950,36219192918016,120,0, 
1.0867,184.8,36.9,-280.8,26.4,8984.4,107.7,403.5,9830.1,87808.5,180.3,9303.6,9791.7,364.8,9827.1,9830.1,9830.1,-7.2,-6.3,9830.1,9830.1,-1.2,236.7,4332.3,-22.8,0,1956,36219192918016,121,0, 
1.0900,259.5,16.5,-242.4,119.4,-4958.7,-237.9,504.3,-1158.3,-24823.5,361.2,-3530.4,-4074.3,-353.7,-1552.8,393.3,-1227.3,-6.9,-6.0,-2905.5,-2399.4,-0.3,428.1,-7951.5,-102.3,0,1962,36219192918016,122,0, 
1.0933,237.6,4.5,-255.9,104.7,-9819.9,-316.5,501.0,-9830.1,-119819.7,351.9,-9830.1,-9817.8,-601.8,-9827.4,-9830.1,-9830.1,-6.6,-6.0,-9830.1,-9830.1,-0.9,415.2,-9830.1,-117.3,0,1968,36219192918016,123,0, 
1.0967,153.0,14.4,-306.9,-0.9,-924.9,-24.6,405.3,-6093.6,-64911.6,161.7,-4191.9,-5088.6,-59.4,-6021.3,-5151.6,-6026.7,-6.9,-5.7,-5428.8,-5530.8,-0.6,228.6,-2605.5,-48.6,0,1974,36219192918016,124,0, 
1.1000,122.4,30.9,-322.5,-51.3,9819.6,230.1,343.2,8955.0,64244.7,57.9,7798.2,8259.6,543.6,8931.3,9398.1,9006.9,-6.9,-5.7,9068.1,9025.2,-0.9,120.0,9197.4,7.8,0,1980,36219192918016,125,0, 
1.1033,194.4,45.3,-281.7,26.4,8985.0,105.6,411.9,9830.1,87808.5,173.7,9220.2,9787.5,381.6,9827.1,9830.1,9830.1,-6.9,-6.3,9830.1,9830.1,-0.9,243.0,4378.2,-19.5,0,1986,36219192918016,126,0, 
1.1067,262.2,10.2,-259.5,111.3,-4918.2,-249.0,503.7,-1298.4,-24823.5,353.1,-3741.3,-4143.9,-344.1,-1433.4,312.0,-1281.0,-6.9,-5.7,-2972.7,-2435.7,-0.6,425.4,-7925.1,-105.3,0,1992,36219192918016,127,0, 
1.1100,236.1,-1.5,-266.7,91.5,-9819.9,-326.7,501.3,-9830.1,-120264.3,343.5,-9830.1,-9817.8,-605.1,-9827.4,-9830.1,-9830.1,-6.9,-6.0,-9830.1,-9830.1,-0.6,417.9,-9830.1,-122.7,0,1998,36219192918016,128,0, 
1.1133,147.3,0.6,-320.7,-19.5,-991.8,-52.2,392.1,-6246.9,-65726.7,151.5,-4349.1,-5058.6,-70.2,-6004.8,-5288.1,-6139.5,-6.3,-6.0,-5610.9,-5631.3,-0.6,221.4,-2624.1,-64.5,0,2004,36219192918016,129,0, 
1.1167,118.2,32.1,-330.9,-65.7,9819.6,217.8,336.0,8871.3,63355.5,45.3,7743.3,8264.7,523.5,8917.5,9348.0,8931.0,-7.2,-6.0,8957.7,8991.3,-0.6,115.5,9163.2,3.0,0,2010,36219192918016,130,0, 
1.1200,184.8,27.0,-285.6,13.8,8985.6,100.8,405.3,9830.1,87215.7,172.8,9210.0,9810.3,390.3,9827.1,9830.1,9830.1,-6.9,-6.0,9830.1,9830.1,-0.6,242.1,4366.2,-21.3,0,2016,36219192918016,131,0, 
1.1233,257.1,13.2,-248.7,109.5,-4920.3,-238.8,503.7,-1436.4,-25564.5,347.7,-3801.3,-3993.9,-343.5,-1402.2,277.2,-1422.0,-6.9,-6.0,-3132.6,-2482.2,-0.9,428.1,-7953.3,-105.0,0,2022,36219192918016,132,0, 
1.1267,227.7,-3.3,-266.1,90.3,-9819.9,-314.7,499.8,-9830.1,-121301.7,342.3,-9830.1,-9817.8,-596.7,-9827.4,-9830.1,-9830.1,-7.2,-5.7,-9830.1,-9830.1,-0.9,414.9,-9830.1,-126.0,0,2028,36219192918016,133,0, 
1.1300,137.1,3.3,-312.9,-19.8,-1057.8,-44.7,392.4,-6382.2,-66912.3,142.2,-4441.5,-4881.3,-68.1,-6043.5,-5437.5,-6283.8,-6.6,-6.0,-5732.4,-5774.4,-1.2,218.4,-2720.7,-64.5,0,2034,36219192918016,134,0, 
1.1333,100.8,13.2,-330.9,-71.1,9819.6,216.9,333.3,8791.5,62021.7,35.1,7619.1,8268.9,534.9,8886.3,9262.8,8862.3,-6.9,-6.0,8891.1,8880.6,-0.6,103.5,9047.4,-8.4,0,2040,36219192918016,135,0, 
1.1367,177.3,29.4,-286.2,12.9,8967.6,96.9,400.8,9830.1,85956.0,163.8,9179.1,9817.5,378.3,9827.1,9830.1,9830.1,-7.2,-5.7,9830.1,9830.1,-1.2,236.1,4237.8,-32.7,0,2046,36219192918016,136,0, 
1.1400,252.0,11.4,-244.8,112.5,-4986.9,-241.8,500.7,-1553.4,-26527.8,351.3,-4003.2,-3931.8,-334.8,-1474.2,69.3,-1533.3,-6.9,-6.0,-3277.5,-2638.8,-0.9,422.1,-7977.9,-110.4,0,2052,36219192918016,137,0, 
1.1433,231.0,5.7,-253.2,102.0,-9819.9,-320.4,501.0,-9830.1,-122339.1,333.9,-9830.1,-9817.8,-599.1,-9827.4,-9830.1,-9830.1,-6.6,-6.3,-9830.1,-9830.1,-0.3,415.8,-9830.1,-125.4,0,2058,36219192918016,138,0, 
1.1467,138.9,7.2,-306.3,-6.0,-1155.3,-31.5,396.6,-6480.6,-68172.0,145.5,-4633.8,-5043.0,-68.1,-6138.6,-5633.1,-6373.2,-6.6,-6.0,-5770.2,-5860.5,0.0,221.4,-2773.5,-64.8,0,2064,36219192918016,139,0, 
1.1500,110.4,27.9,-325.5,-57.0,9819.6,236.1,335.1,8746.5,60984.3,33.9,7517.4,8216.1,528.6,8840.7,9174.9,8807.1,-6.9,-5.7,8900.4,8870.1,-0.9,112.2,8996.1,-10.2,0,2070,36219192918016,140,0, 
1.1533,178.8,30.6,-291.6,20.4,8953.2,111.6,401.4,9830.1,85289.1,158.4,9164.1,9817.5,372.9,9827.1,9830.1,9830.1,-6.3,-6.0,9830.1,9830.1,-0.6,238.2,4210.2,-34.5,0,2076,36219192918016,141,0, 
1.1567,249.6,9.3,-254.1,107.1,-4953.0,-240.9,495.9,-1540.8,-27046.5,339.9,-3967.8,-3961.5,-343.8,-1476.0,-67.2,-1585.2,-6.9,-5.7,-3228.0,-2480.7,-0.6,422.4,-7978.5,-118.8,0,2082,36219192918016,142,0, 
1.1600,231.9,-1.5,-261.6,97.5,-9819.9,-318.9,497.1,-9830.1,-122709.6,334.2,-9830.1,-9817.8,-609.9,-9827.4,-9830.1,-9830.1,-6.6,-5.7,-9830.1,-9830.1,-0.6,412.2,-9830.1,-134.4,0,2088,36219192918016,143,0, 
1.1633,137.1,-2.7,-315.6,-12.6,-1145.1,-32.7,394.8,-6523.8,-68987.1,139.8,-4549.2,-4883.1,-87.3,-6099.3,-5749.8,-6428.7,-6.3,-6.0,-5895.6,-5807.4,-0.6,218.4,-2822.4,-72.0,0,2094,36219192918016,144,0, 
1.1667,105.9,16.5,-329.1,-63.3,9819.6,231.0,333.0,8720.1,60687.9,33.3,7641.3,8279.1,515.7,8870.7,9127.5,8791.8,-6.9,-5.7,8826.9,8916.9,-0.6,106.8,9048.9,-9.9,0,2100,36219192918016,145,0, 
1.1700,177.9,20.4,-288.6,14.1,8995.8,109.2,401.1,9830.1,85585.5,160.5,9173.4,9817.5,369.3,9827.1,9830.1,9830.1,-6.9,-6.0,9830.1,9830.1,-0.6,239.7,4329.9,-32.1,0,2106,36219192918016,146,0, 
1.1733,255.3,5.7,-245.7,111.3,-4947.0,-236.7,501.6,-1461.9,-26601.9,346.5,-3863.7,-3847.8,-345.6,-1270.8,-95.4,-1483.8,-7.5,-5.7,-3247.8,-2399.1,-0.3,430.5,-7938.0,-111.6,0,2112,36219192918016,147,0, 
1.1767,228.3,-6.3,-253.2,90.3,-9819.9,-320.1,489.9,-9830.1,-122339.1,335.7,-9830.1,-9817.8,-608.1,-9827.4,-9830.1,-9830.1,-6.6,-6.0,-9830.1,-9830.1,-0.9,408.6,-9830.1,-143.7,0,2118,36219192918016,148,0, 
1.1800,145.8,8.7,-293.7,-4.8,-1162.5,-28.5,396.0,-6479.7,-68320.2,153.3,-4453.8,-4965.9,-68.7,-6015.6,-5803.2,-6394.2,-6.9,-6.0,-5868.0,-5791.5,-0.6,224.7,-2773.5,-77.4,0,2124,36219192918016,149,0, 
1.1833,113.4,24.0,-314.7,-58.2,9819.6,224.4,328.2,8748.3,61206.6,42.9,7629.0,8266.8,537.6,8910.0,9117.0,8807.1,-6.9,-6.3,8838.0,8898.3,-1.2,109.2,9070.5,-11.4,0,2130,36219192918016,150,0, 
1.1867,185.7,30.9,-279.0,18.0,9058.2,115.5,400.8,9830.1,86548.8,172.8,9289.5,9817.5,394.8,9827.1,9830.1,9830.1,-6.9,-5.7,9830.1,9830.1,-0.9,237.6,4424.7,-38.7,0,2136,36219192918016,151,0, 
1.1900,252.3,2.1,-245.7,102.6,-4793.1,-239.4,489.3,-1272.6,-24749.4,354.6,-3666.3,-3603.0,-333.6,-1060.5,124.2,-1296.9,-6.9,-6.0,-3080.7,-2222.4,-0.9,417.0,-7907.7,-129.9,0,2142,36219192918016,152,0, 
1.1933,230.4,-6.0,-254.7,91.2,-9819.9,-319.8,489.9,-9830.1,-121079.4,347.7,-9830.1,-9817.8,-593.1,-9827.4,-9830.1,-9830.1,-6.9,-5.7,-9830.1,-9830.1,-1.2,410.1,-9830.1,-142.8,0,2148,36219192918016,153,0, 
1.1967,145.2,7.2,-295.5,-9.9,-1108.8,-36.9,386.4,-6367.8,-67208.7,156.6,-4428.6,-4778.7,-58.2,-5870.4,-5637.6,-6284.1,-6.9,-6.0,-5751.6,-5670.0,-0.9,213.3,-2781.0,-83.4,0,2154,36219192918016,154,0, 
1.2000,109.2,18.9,-316.5,-59.1,9819.6,226.8,328.8,8803.8,62540.4,46.2,7648.2,8264.7,543.3,8974.2,9189.0,8864.7,-7.2,-5.7,8874.6,8939.7,-1.2,97.8,9069.6,-18.9,0,2160,36219192918016,155,0, 
1.2033,180.6,38.7,-276.6,18.0,9082.2,96.6,394.5,9830.1,88030.8,168.6,9288.9,9817.5,377.1,9827.1,9830.1,9830.1,-6.9,-6.6,9830.1,9830.1,-0.9,213.6,4443.0,-39.0,0,2166,36219192918016,156,0, 
1.2067,245.1,6.9,-242.1,104.7,-4750.5,-261.0,491.1,-1159.2,-23489.7,351.0,-3585.6,-3594.0,-331.8,-953.1,286.2,-1137.6,-7.2,-5.7,-2868.9,-2212.5,-1.2,403.8,-7881.3,-130.5,0,2172,36219192918016,157,0, 
1.2100,223.5,-17.7,-256.8,88.2,-9819.9,-340.5,491.7,-9830.1,-120042.0,335.1,-9830.1,-9817.8,-595.5,-9827.4,-9830.1,-9830.1,-6.6,-6.0,-9830.1,-9830.1,-0.9,401.7,-9830.1,-145.2,0,2178,36219192918016,158,0, 
1.2133,141.0,-1.5,-295.8,-11.4,-1175.7,-52.5,392.7,-6422.4,-66838.2,138.9,-4323.9,-4826.7,-66.0,-5949.6,-5607.9,-6291.0,-6.9,-5.7,-5775.9,-5717.4,-0.9,218.4,-2763.6,-79.5,0,2184,36219192918016,159,0, 
1.2167,107.7,12.9,-318.9,-60.6,9819.6,214.2,332.4,8769.0,62836.8,21.6,7698.9,8316.6,538.8,8943.0,9209.4,8852.7,-6.9,-6.0,8863.8,8940.6,-0.6,115.8,9125.7,-11.7,0,2190,36219192918016,160,0, 
1.2200,179.4,22.5,-284.1,17.4,9097.2,97.5,401.4,9830.1,88771.8,144.9,9366.6,9817.5,387.3,9827.1,9830.1,9830.1,-6.9,-6.0,9830.1,9830.1,-0.6,246.0,4517.1,-38.4,0,2196,36219192918016,161,0, 
1.2233,257.4,9.9,-239.7,118.2,-4735.2,-251.1,500.7,-1077.0,-22748.7,334.2,-3495.3,-3482.1,-329.1,-778.2,413.4,-1098.3,-7.2,-5.4,-2813.1,-2052.6,-0.6,438.9,-7835.7,-115.8,0,2202,36219192918016,162,0, 
1.2267,242.4,6.3,-247.2,108.9,-9819.9,-333.9,504.3,-9830.1,-119301.0,336.3,-9830.1,-9817.8,-585.6,-9827.4,-9830.1,-9830.1,-6.9,-5.7,-9830.1,-9830.1,-0.9,433.2,-9830.1,-124.2,0,2208,36219192918016,163,0, 
1.2300,153.9,13.8,-288.9,0.6,-1149.9,-44.7,403.2,-6381.3,-66097.2,146.4,-4343.4,-4786.5,-60.3,-5779.8,-5526.0,-6279.9,-6.6,-6.3,-5783.7,-5652.3,-0.6,240.6,-2776.5,-58.5,0,2214,36219192918016,164,0, 
1.2333,116.7,25.8,-309.9,-47.4,9819.6,220.5,339.0,8775.3,63355.5,38.1,7660.8,8298.3,537.9,9007.5,9247.2,8841.0,-6.9,-5.7,8829.0,8949.0,-0.9,124.2,9076.5,2.7,0,2220,36219192918016,165,0, 
1.2367,189.6,30.3,-271.5,25.5,9087.6,102.6,405.3,9830.1,89142.3,165.0,9322.2,9817.5,394.5,9827.1,9830.1,9830.1,-6.9,-6.6,9830.1,9830.1,-0.9,244.8,4534.5,-24.9,0,2226,36219192918016,166,0, 
1.2400,262.5,12.3,-229.8,114.9,-4733.1,-248.1,502.2,-1088.7,-22230.0,352.5,-3541.2,-3462.9,-323.4,-687.6,575.7,-1132.2,-6.6,-6.0,-2855.7,-1977.0,-0.3,434.7,-7842.9,-112.8,0,2232,36219192918016,167,0, 
1.2433,239.1,6.6,-241.5,95.7,-9819.9,-337.8,501.6,-9830.1,-118856.4,348.9,-9830.1,-9817.8,-599.7,-9827.4,-9830.1,-9830.1,-6.9,-5.7,-9830.1,-9830.1,-0.6,421.8,-9830.1,-130.2,0,2238,36219192918016,168,0, 
1.2467,154.5,16.5,-287.4,-5.7,-1259.1,-57.9,401.1,-6458.1,-66171.3,160.2,-4455.3,-4858.8,-63.6,-5839.2,-5493.3,-6361.5,-6.6,-6.0,-5849.4,-5629.5,-0.6,225.9,-2833.5,-69.3,0,2244,36219192918016,169,0, 
1.2500,122.7,28.8,-311.7,-57.6,9819.6,211.2,337.8,8733.6,63429.6,51.0,7589.1,8224.8,540.0,8973.3,9264.0,8802.0,-6.9,-6.0,8802.0,8947.2,-1.2,110.1,9087.0,-13.5,0,2250,36219192918016,170,0, 
1.2533,196.2,39.9,-276.0,13.5,9084.0,87.0,407.4,9830.1,89438.7,165.3,9356.1,9817.5,390.0,9827.1,9830.1,9830.1,-6.9,-6.0,9830.1,9830.1,-0.6,235.8,4518.6,-37.5,0,2256,36219192918016,171,0, 
1.2567,264.0,17.4,-230.4,106.8,-4750.2,-267.3,506.7,-1117.8,-21637.2,349.2,-3657.9,-3485.1,-332.1,-742.2,717.3,-1122.6,-6.9,-5.7,-2942.7,-1992.3,-0.6,421.5,-7812.3,-120.6,0,2262,36219192918016,172,0, 
1.2600,246.3,15.0,-232.2,101.4,-9819.9,-345.9,509.1,-9830.1,-118708.2,350.1,-9830.1,-9817.8,-591.3,-9827.4,-9830.1,-9830.1,-7.2,-6.0,-9830.1,-9830.1,-0.3,423.3,-9830.1,-132.3,0,2268,36219192918016,173,0, 
1.2633,158.4,14.7,-283.8,-7.5,-1313.1,-66.9,406.2,-6517.5,-66319.5,160.2,-4589.7,-4827.3,-67.2,-5958.6,-5483.4,-6443.4,-6.9,-6.0,-5911.5,-5707.8,-0.6,230.4,-2847.9,-67.2,0,2274,36219192918016,174,0, 
1.2667,131.7,43.2,-291.0,-50.4,9819.6,213.0,350.4,8699.4,63281.4,55.5,7569.9,8261.4,543.9,8907.6,9255.3,8746.2,-6.9,-6.0,8769.6,8911.2,-0.9,118.5,9110.4,3.0,0,2280,36219192918016,175,0, 
1.2700,197.1,43.5,-264.3,23.1,9100.2,93.3,412.8,9830.1,89883.3,169.8,9315.6,9817.5,392.4,9827.1,9830.1,9830.1,-6.9,-6.0,9830.1,9830.1,-0.9,240.3,4572.0,-24.9,0,2286,36219192918016,176,0, 
1.2733,266.7,21.3,-234.9,111.6,-4740.3,-256.5,505.5,-1122.0,-21859.5,354.9,-3625.2,-3388.8,-338.1,-782.7,713.7,-1171.2,-7.2,-6.3,-2998.2,-1977.0,-0.6,421.8,-7826.4,-110.7,0,2292,36219192918016,177,0, 
1.2767,241.5,4.5,-256.2,86.7,-9819.9,-343.5,499.8,-9830.1,-119004.6,339.0,-9830.1,-9817.8,-618.0,-9827.4,-9830.1,-9830.1,-6.6,-6.3,-9830.1,-9830.1,-0.3,411.9,-9830.1,-136.2,0,2298,36219192918016,178,0, 
1.2800,156.9,9.9,-298.2,-13.5,-1349.1,-58.5,399.3,-6558.3,-66912.3,148.8,-4622.7,-4878.3,-96.6,-5933.4,-5482.5,-6506.4,-6.9,-6.0,-6084.3,-5765.1,-0.6,223.2,-2893.2,-71.7,0,2304,36219192918016,179,0, 
1.2833,125.7,33.0,-320.1,-60.3,9819.6,210.9,339.3,8642.4,62318.1,32.4,7473.6,8254.5,512.1,8899.5,9217.8,8686.5,-6.6,-6.0,8675.7,8855.7,-0.9,98.1,8964.3,-9.9,0,2310,36219192918016,180,0, 
1.2867,191.7,30.3,-286.8,13.8,9027.0,82.8,401.7,9830.1,88327.2,147.9,9256.2,9817.5,361.8,9827.1,9830.1,9830.1,-6.9,-6.3,9830.1,9830.1,-0.6,211.8,4446.0,-39.9,0,2316,36219192918016,181,0, 
1.2900,262.2,9.0,-254.7,98.7,-4872.3,-272.4,494.4,-1377.0,-23341.5,327.3,-3865.5,-3509.4,-357.3,-914.1,443.7,-1401.9,-6.9,-5.4,-3276.9,-2154.6,-0.6,396.6,-7884.3,-131.1,0,2322,36219192918016,182,0, 
1.2933,239.7,-2.4,-266.7,86.4,-9819.9,-357.9,498.3,-9830.1,-121746.3,332.1,-9830.1,-9817.8,-640.2,-9827.4,-9830.1,-9830.1,-6.9,-5.7,-9830.1,-9830.1,-0.3,400.2,-9830.1,-146.4,0,2328,36219192918016,183,0, 
1.2967,155.7,21.0,-308.1,-18.3,-1547.7,-71.4,394.8,-6861.6,-70246.8,147.3,-4985.7,-5093.4,-120.6,-6266.4,-5881.5,-6778.2,-6.9,-6.3,-6403.2,-6085.2,-0.6,210.9,-3098.7,-78.6,0,2334,36219192918016,184,0, 
1.3000,119.1,26.1,-323.7,-70.2,9819.6,191.4,336.3,8445.9,58613.1,35.7,7245.6,8136.3,505.2,8693.4,8997.3,8506.2,-6.9,-6.0,8494.5,8670.9,-0.6,97.5,8767.8,-21.6,0,2340,36219192918016,185,0, 
1.3033,184.5,27.9,-281.4,4.2,8977.2,78.6,399.6,9830.1,84622.2,153.0,9123.3,9817.5,362.1,9827.1,9830.1,9830.1,-6.9,-6.0,9830.1,9830.1,-0.6,217.5,4209.9,-48.9,0,2346,36219192918016,186,0, 
1.3067,261.0,15.6,-242.4,97.5,-5019.6,-267.0,496.5,-1796.4,-27268.8,342.0,-4158.6,-3688.5,-357.9,-1437.6,-166.2,-1823.1,-6.3,-5.7,-3624.0,-2565.6,-0.6,408.3,-7951.8,-123.9,0,2352,36219192918016,187,0, 
1.3100,246.0,11.1,-244.8,89.1,-9819.9,-339.3,505.8,-9830.1,-125673.6,338.1,-9830.1,-9817.8,-626.1,-9827.4,-9830.1,-9830.1,-7.2,-5.7,-9830.1,-9830.1,-0.6,405.0,-9830.1,-136.2,0,2358,36219192918016,188,0, 
1.3133,159.6,16.2,-292.2,-12.9,-1817.1,-63.9,403.5,-7176.0,-74766.9,153.3,-5155.8,-5242.2,-96.3,-6627.6,-6466.8,-7104.6,-6.3,-5.7,-6627.0,-6283.5,-0.6,212.4,-3254.1,-75.3,0,2364,36219192918016,189,0, 
1.3167,128.7,42.0,-311.1,-56.7,9819.6,205.5,346.8,8233.5,54315.3,42.9,7139.1,8041.2,520.5,8510.1,8658.9,8305.5,-6.9,-6.3,8388.6,8605.8,-0.9,100.5,8632.2,-8.7,0,2370,36219192918016,190,0, 
1.3200,195.0,44.1,-276.9,16.5,8946.3,87.0,403.8,9830.1,80843.1,162.0,9037.8,9817.5,377.7,9827.1,9830.1,9830.1,-7.2,-5.7,9830.1,9830.1,-0.6,223.2,4176.3,-33.6,0,2376,36219192918016,191,0, 
1.3233,263.7,18.0,-241.2,105.6,-5036.1,-268.8,494.4,-2084.7,-31196.1,342.6,-4207.5,-3915.9,-351.3,-1696.2,-890.1,-2065.8,-7.2,-6.0,-3846.9,-2649.6,-0.6,405.0,-7963.5,-128.4,0,2382,36219192918016,192,0, 
1.3267,242.1,10.8,-249.3,87.6,-9819.9,-356.4,493.5,-9830.1,-129897.3,330.9,-9830.1,-9817.8,-630.0,-9827.4,-9830.1,-9830.1,-6.9,-6.0,-9830.1,-9830.1,-0.6,395.4,-9830.1,-151.2,0,2388,36219192918016,193,0, 
1.3300,151.2,8.1,-294.0,-16.2,-1939.2,-78.3,396.6,-7371.9,-79361.1,145.8,-5256.6,-5456.7,-108.3,-6850.5,-7004.4,-7278.3,-6.6,-5.4,-6841.8,-6404.1,-0.3,208.2,-3402.6,-84.9,0,2394,36219192918016,194,0, 
1.3333,115.5,23.7,-314.7,-71.7,9819.6,184.2,334.8,8092.2,49424.7,32.7,7028.1,7967.1,499.8,8354.7,8291.4,8167.5,-7.2,-6.0,8264.1,8521.2,-0.9,88.8,8512.5,-21.6,0,2400,36219192918016,195,0, 
1.3367,185.7,36.3,-282.6,0.0,8894.4,71.1,397.5,9830.1,75804.3,156.9,8910.6,9817.5,355.2,9827.1,9830.1,9830.1,-7.2,-6.0,9830.1,9830.1,-0.6,214.2,3998.1,-44.1,0,2406,36219192918016,196,0, 
1.3400,262.5,14.7,-242.4,94.2,-5161.8,-278.7,495.9,-2391.3,-35938.5,338.1,-4490.4,-4030.5,-356.7,-2090.4,-1782.3,-2332.8,-6.9,-5.7,-4107.3,-2900.4,-0.9,400.8,-8029.2,-131.1,0,2412,36219192918016,197,0, 
1.3433,244.2,5.7,-247.2,81.9,-9819.9,-360.6,498.6,-9830.1,-135825.3,340.2,-9830.1,-9817.8,-640.8,-9827.4,-9830.1,-9830.1,-6.9,-6.0,-9830.1,-9830.1,-0.3,404.1,-9830.1,-150.0,0,2418,36219192918016,198,0, 
1.3467,158.4,11.4,-293.7,-25.8,-2109.3,-76.8,397.2,-7598.7,-85066.8,153.0,-5534.7,-5517.9,-108.3,-7194.0,-7663.5,-7499.4,-7.2,-6.3,-7003.8,-6635.1,-0.6,213.3,-3500.4,-81.9,0,2424,36219192918016,199,0, 
1.3500,115.5,24.6,-317.4,-71.7,9819.6,185.4,331.2,7909.2,44311.8,36.9,6941.7,7967.1,500.1,8128.8,7785.0,8004.0,-6.6,-6.0,8185.5,8401.2,-0.3,93.9,8424.6,-24.9,0,2430,36219192918016,200,0, 
1.3533,187.2,36.6,-284.1,0.9,8865.9,74.7,398.1,9830.1,71061.9,156.0,8807.4,9817.5,357.0,9827.1,9830.1,9830.1,-6.9,-5.7,9830.1,9830.1,-0.9,217.2,3953.4,-49.5,0,2436,36219192918016,201,0, 
1.3567,262.8,17.4,-241.8,99.6,-5155.5,-270.9,498.3,-2551.8,-40458.6,350.4,-4530.9,-3993.6,-342.6,-2286.3,-2785.8,-2529.9,-7.2,-6.0,-4153.2,-2965.2,-0.9,412.5,-8046.3,-126.6,0,2442,36219192918016,202,0, 
1.3600,240.9,7.5,-247.2,88.2,-9819.9,-369.3,498.0,-9830.1,-139752.6,350.4,-9830.1,-9817.8,-633.0,-9827.4,-9830.1,-9830.1,-6.9,-6.3,-9830.1,-9830.1,-0.6,406.5,-9830.1,-142.5,0,2448,36219192918016,203,0, 
1.3633,154.2,18.3,-288.0,-15.0,-2093.1,-78.3,404.1,-7643.1,-89142.3,162.9,-5497.2,-5554.8,-100.2,-7263.0,-8214.9,-7555.8,-6.6,-6.0,-7036.5,-6670.2,-0.6,222.0,-3501.3,-71.4,0,2454,36219192918016,204,0, 
1.3667,119.4,39.9,-308.7,-66.3,9819.6,181.5,342.0,7897.2,40977.3,50.4,6948.9,8012.1,511.8,8096.4,7327.2,7979.1,-6.9,-6.0,8191.2,8409.6,-1.2,99.6,8444.4,-8.4,0,2460,36219192918016,205,0, 
1.3700,185.7,42.6,-284.4,-3.6,8926.2,66.9,400.2,9830.1,68616.6,156.9,8919.6,9817.5,362.4,9827.1,9830.1,9830.1,-6.6,-6.0,9830.1,9830.1,-0.9,218.4,4045.5,-39.3,0,2466,36219192918016,206,0, 
1.3733,262.2,21.0,-239.1,95.1,-5038.2,-279.3,505.2,-2390.7,-42903.9,355.5,-4216.2,-3852.0,-342.6,-2311.5,-3400.8,-2412.0,-7.2,-5.7,-4040.1,-2845.8,-0.9,414.3,-7992.9,-111.9,0,2472,36219192918016,207,0, 
1.3767,233.4,-5.4,-250.5,81.3,-9819.9,-372.0,503.4,-9830.1,-142049.7,353.1,-9830.1,-9817.8,-627.9,-9827.4,-9830.1,-9830.1,-6.6,-6.0,-9830.1,-9830.1,-0.6,408.6,-9830.1,-137.1,0,2478,36219192918016,208,0, 
1.3800,148.5,12.0,-300.0,-19.5,-1989.0,-84.0,404.4,-7557.3,-91513.5,164.1,-5373.6,-5506.5,-103.8,-7272.6,-8575.2,-7497.9,-6.6,-5.7,-7022.1,-6585.9,-1.2,216.3,-3523.5,-71.7,0,2484,36219192918016,209,0, 
1.3833,109.5,26.4,-324.9,-74.7,9819.6,182.1,337.5,7956.6,38457.9,45.0,7015.2,7966.8,506.4,8081.4,6949.2,8019.3,-6.9,-6.0,8155.8,8444.4,-0.9,101.7,8415.6,-12.0,0,2490,36219192918016,210,0, 
1.3867,177.3,37.8,-283.8,3.0,8962.2,70.5,400.2,9830.1,66541.8,163.2,9032.1,9817.5,365.4,9827.1,9830.1,9830.1,-6.9,-5.7,9830.1,9830.1,-0.9,219.9,4019.1,-36.3,0,2496,36219192918016,211,0, 
1.3900,249.0,12.0,-246.6,93.6,-4965.9,-277.5,497.1,-2288.1,-44534.1,357.3,-4193.4,-3826.5,-354.0,-2253.9,-4026.3,-2308.2,-6.9,-5.7,-4015.5,-2806.8,-0.6,410.4,-7991.1,-117.9,0,2502,36219192918016,212,0, 
1.3933,230.1,7.8,-256.8,81.3,-9819.9,-360.6,497.7,-9830.1,-143976.3,357.0,-9830.1,-9817.8,-636.6,-9827.4,-9830.1,-9830.1,-7.2,-6.0,-9830.1,-9830.1,-0.6,411.9,-9830.1,-132.6,0,2508,36219192918016,213,0, 
1.3967,136.8,10.5,-312.0,-30.0,-1968.6,-82.8,391.8,-7509.3,-93366.0,164.7,-5285.7,-5464.5,-110.1,-7248.0,-8854.2,-7434.9,-6.9,-6.0,-6996.3,-6566.7,-0.6,210.0,-3489.6,-79.2,0,2514,36219192918016,214,0, 
1.4000,102.0,23.4,-333.0,-89.1,9819.6,181.2,328.8,8005.2,36827.7,47.7,7170.6,8073.0,501.6,8103.6,6696.0,8074.8,-6.6,-6.0,8196.6,8468.7,-0.6,94.8,8465.1,-22.8,0,2520,36219192918016,215,0, 
1.4033,172.2,31.8,-294.9,-8.7,9003.3,69.3,393.0,9830.1,64837.5,169.5,9055.2,9817.5,363.9,9827.1,9830.1,9830.1,-7.2,-5.7,9830.1,9830.1,-0.9,218.7,4118.7,-35.4,0,2526,36219192918016,216,0, 
1.4067,250.5,14.7,-254.4,83.7,-4875.6,-272.1,492.9,-2099.7,-45719.7,356.7,-3945.3,-3738.9,-354.9,-2175.0,-4392.9,-2142.3,-7.2,-5.7,-3875.4,-2633.4,-0.6,407.1,-7935.3,-113.4,0,2532,36219192918016,217,0, 
1.4100,225.3,-0.9,-267.9,67.8,-9819.9,-372.0,489.9,-9830.1,-145310.1,345.9,-9830.1,-9817.8,-650.7,-9827.4,-9830.1,-9830.1,-7.2,-6.3,-9830.1,-9830.1,-0.6,399.0,-9830.1,-141.9,0,2538,36219192918016,218,0, 
1.4133,141.0,6.3,-312.0,-28.8,-1994.1,-84.9,394.8,-7432.8,-94996.2,161.1,-5240.7,-5414.1,-119.4,-7255.2,-9100.5,-7380.9,-6.6,-5.4,-6840.6,-6487.8,-0.6,210.6,-3512.1,-73.8,0,2544,36219192918016,219,0, 
1.4167,106.8,22.5,-333.3,-82.2,9819.6,173.4,329.1,8052.0,35123.4,44.4,7107.3,8065.5,490.2,8089.5,6381.0,8096.7,-6.6,-5.7,8293.2,8509.2,-0.6,91.8,8450.1,-5.7,0,2550,36219192918016,220,0, 
1.4200,180.6,26.4,-290.4,-6.0,9017.7,64.8,390.9,9830.1,63429.6,170.7,9127.8,9817.5,364.2,9827.1,9830.1,9830.1,-6.6,-5.7,9830.1,9830.1,-0.6,220.5,4087.2,-33.9,0,2556,36219192918016,221,0, 
1.4233,255.6,16.5,-248.7,85.5,-4847.1,-276.9,492.9,-2021.1,-47349.9,357.6,-3996.6,-3745.8,-350.7,-2270.1,-4861.8,-2106.6,-6.9,-5.7,-3748.2,-2580.0,-0.6,407.1,-7958.7,-110.7,0,2562,36219192918016,222,0, 
1.4267,238.5,1.8,-256.8,75.0,-9819.9,-366.3,497.1,-9830.1,-147162.6,356.7,-9830.1,-9817.8,-634.5,-9827.4,-9830.1,-9830.1,-7.2,-5.7,-9830.1,-9830.1,-0.9,401.1,-9830.1,-132.9,0,2568,36219192918016,223,0, 
1.4300,147.3,9.3,-297.0,-30.6,-2001.3,-86.1,396.3,-7471.8,-97367.4,166.2,-5223.0,-5454.3,-107.7,-7421.4,-9337.8,-7396.8,-7.2,-6.0,-6849.6,-6562.8,-0.9,208.5,-3584.7,-71.4,0,2574,36219192918016,224,0, 
1.4333,113.7,27.0,-316.8,-82.5,9819.6,175.5,330.9,7999.5,32307.6,45.3,7169.7,8083.8,503.4,7952.1,6104.4,8089.8,-6.9,-6.0,8286.6,8475.9,-0.6,91.2,8355.3,-11.1,0,2580,36219192918016,225,0, 
1.4367,190.8,35.1,-274.5,-7.8,9007.8,62.1,399.9,9830.1,60984.3,171.3,9056.4,9817.5,369.6,9827.1,9830.1,9830.1,-7.2,-6.0,9830.1,9830.1,-0.9,219.6,4064.1,-24.0,0,2586,36219192918016,226,0, 
1.4400,255.3,13.2,-244.5,81.6,-4880.4,-289.8,495.6,-2073.0,-49943.4,351.9,-3959.1,-3621.3,-344.7,-2424.6,-5271.6,-2031.3,-6.9,-6.0,-3770.7,-2659.8,-0.6,402.3,-7965.3,-113.7,0,2592,36219192918016,227,0, 
1.4433,243.3,10.8,-246.6,78.9,-9819.9,-384.3,504.6,-9830.1,-150126.6,352.8,-9830.1,-9817.8,-624.0,-9827.4,-9830.1,-9830.1,-6.9,-6.0,-9830.1,-9830.1,-0.6,408.0,-9830.1,-128.4,0,2598,36219192918016,228,0, 
1.4467,147.3,13.8,-302.4,-34.5,-2109.6,-101.1,396.0,-7517.7,-100405.5,162.3,-5336.4,-5374.5,-119.4,-7553.1,-9603.3,-7438.5,-7.2,-6.0,-6972.6,-6630.9,-0.3,209.4,-3649.2,-69.0,0,2604,36219192918016,229,0, 
1.4500,118.2,37.5,-315.9,-86.4,9819.6,171.6,336.6,7971.9,29640.0,48.0,7123.8,8096.1,495.9,7845.6,5704.8,8040.0,-6.9,-6.6,8201.7,8423.1,-1.2,96.9,8315.7,-6.6,0,2610,36219192918016,230,0, 
1.4533,183.6,32.4,-281.1,-10.2,9017.7,67.8,403.5,9830.1,58390.8,168.3,9004.5,9817.5,386.4,9827.1,9830.1,9830.1,-6.9,-5.4,9830.1,9830.1,-0.6,216.6,4000.8,-26.1,0,2616,36219192918016,231,0, 
1.4567,258.0,27.9,-237.6,89.7,-4885.2,-284.4,501.3,-1994.7,-52240.5,361.5,-4059.0,-3590.7,-332.7,-2576.7,-5737.2,-2059.5,-6.6,-5.7,-3779.4,-2709.9,-0.9,412.5,-7965.0,-111.9,0,2622,36219192918016,232,0, 
1.4600,240.3,12.0,-246.3,79.8,-9819.9,-382.5,500.4,-9830.1,-152868.3,360.0,-9830.1,-9817.8,-627.3,-9827.4,-9830.1,-9830.1,-6.9,-6.0,-9830.1,-9830.1,-0.6,414.0,-9830.1,-134.1,0,2628,36219192918016,233,0, 
1.4633,150.6,27.0,-291.9,-19.8,-2172.0,-91.2,400.5,-7495.8,-103443.6,162.9,-5367.0,-5463.3,-103.2,-7639.5,-9830.1,-7486.2,-6.9,-6.0,-6948.0,-6695.7,-0.6,217.8,-3727.2,-69.9,0,2634,36219192918016,234,0, 
1.4667,107.7,35.4,-314.1,-72.3,9819.6,173.1,332.1,7975.5,27046.5,45.3,7120.8,8105.7,507.0,7785.9,5291.1,7991.1,-6.9,-5.7,8200.5,8373.3,-0.6,98.1,8308.5,-6.6,0,2640,36219192918016,235,0, 
1.4700,180.6,45.6,-268.2,-1.5,8983.5,75.3,399.0,9830.1,55723.2,165.9,8976.3,9817.5,374.1,9827.1,9830.1,9830.1,-6.9,-6.0,9830.1,9830.1,-0.6,225.6,3975.6,-23.4,0,2646,36219192918016,236,0, 
1.4733,256.8,28.8,-229.2,96.9,-4923.0,-278.4,494.7,-2045.4,-55130.4,355.5,-4089.0,-3639.9,-333.9,-2754.9,-6315.0,-2197.5,-7.2,-6.0,-3845.1,-2777.1,-0.3,415.5,-7987.2,-113.1,0,2652,36219192918016,237,0, 
1.4767,243.0,17.7,-233.7,94.2,-9819.9,-370.2,503.7,-9830.1,-155832.3,357.0,-9830.1,-9817.8,-638.7,-9827.4,-9830.1,-9830.1,-6.9,-6.3,-9830.1,-9830.1,-0.6,417.3,-9830.1,-127.2,0,2658,36219192918016,238,0, 
1.4800,153.3,27.6,-276.9,-13.2,-2239.5,-90.3,404.1,-7578.9,-106407.6,165.6,-5418.9,-5526.9,-106.5,-7843.8,-9830.1,-7591.8,-6.3,-6.0,-7055.7,-6783.6,-0.3,225.0,-3759.6,-60.6,0,2664,36219192918016,239,0, 
1.4833,117.6,44.7,-300.3,-58.5,9819.6,182.1,339.9,7916.1,23786.1,47.1,7125.9,8069.1,513.9,7612.8,4841.1,7927.5,-6.9,-6.3,8163.9,8319.9,-0.9,105.0,8278.2,5.7,0,2670,36219192918016,240,0, 
1.4867,186.9,57.3,-267.0,10.5,9004.8,70.5,400.5,9830.1,53352.0,165.3,8987.1,9817.5,377.4,9827.1,9830.1,9830.1,-6.9,-5.7,9830.1,9830.1,-0.9,229.5,4013.7,-16.8,0,2676,36219192918016,241,0, 
1.4900,256.8,30.0,-228.0,107.4,-4899.0,-285.6,495.9,-2012.4,-57353.4,356.1,-4003.2,-3615.3,-338.7,-2871.6,-6840.0,-2122.5,-6.9,-6.0,-3718.5,-2806.5,-1.2,415.2,-7955.4,-102.0,0,2682,36219192918016,242,0, 
1.4933,234.9,18.6,-237.9,90.6,-9819.9,-374.4,502.8,-9830.1,-158796.3,357.3,-9830.1,-9817.8,-639.6,-9827.4,-9830.1,-9830.1,-6.9,-6.0,-9830.1,-9830.1,-0.6,416.7,-9830.1,-128.4,0,2688,36219192918016,243,0, 
1.4967,147.6,27.3,-287.4,-11.4,-2331.0,-93.6,399.0,-7635.6,-109742.1,158.7,-5473.5,-5630.1,-109.2,-7969.8,-9830.1,-7630.2,-6.6,-6.3,-7090.8,-6861.6,-0.3,222.9,-3800.7,-70.8,0,2694,36219192918016,244,0, 
1.5000,118.2,43.5,-301.8,-63.0,9819.6,170.7,340.5,7862.4,20673.9,43.2,7087.5,8086.8,510.9,7511.1,4388.7,7880.1,-6.9,-6.0,8124.3,8284.8,-1.2,108.9,8212.5,-4.2,0,2700,36219192918016,245,0, 
1.5033,189.6,62.1,-256.8,18.9,8999.7,64.5,404.4,9830.1,49869.3,165.6,8966.1,9817.5,380.1,9827.1,9830.1,9830.1,-6.9,-5.7,9830.1,9830.1,-0.9,228.6,3939.9,-25.2,0,2706,36219192918016,246,0, 
1.5067,263.4,44.1,-222.6,117.9,-4941.3,-276.6,509.1,-2124.9,-60762.0,356.7,-4095.3,-3622.8,-333.6,-3142.5,-7386.9,-2278.2,-7.2,-5.7,-3878.4,-2818.5,-0.9,424.5,-8005.2,-103.8,0,2712,36219192918016,247,0, 
1.5100,241.8,34.5,-225.6,103.2,-9819.9,-374.4,513.0,-9830.1,-162945.9,351.0,-9830.1,-9817.8,-638.4,-9827.4,-9666.9,-9830.1,-6.6,-6.0,-9830.1,-9830.1,-1.2,421.8,-9830.1,-128.4,0,2718,36219192918016,248,0, 
1.5133,160.5,33.0,-272.4,0.6,-2548.5,-83.7,414.0,-7806.3,-114780.9,164.4,-5683.8,-5659.5,-111.3,-8276.7,-9830.1,-7821.9,-6.9,-6.0,-7299.9,-7017.6,-0.9,232.5,-3963.6,-63.9,0,2724,36219192918016,249,0, 
1.5167,115.8,44.1,-298.8,-61.5,9819.6,165.3,342.6,7616.1,12967.5,48.6,6761.1,8018.1,480.6,7120.8,3572.4,7633.2,-7.2,-6.3,7981.5,8144.1,-0.9,112.8,7797.3,-2.7,0,2730,36219192918016,250,0, 
1.5200,191.1,52.2,-262.5,9.9,8688.9,52.8,404.4,9830.1,39643.5,178.5,8334.6,9547.8,349.8,9827.1,9828.3,9830.1,-6.6,-5.7,9830.1,9830.1,-0.9,236.1,3329.7,-30.9,0,2736,36219192918016,251,0, 
1.5233,261.0,49.5,-224.7,100.2,-5441.4,-290.1,501.6,-3208.8,-71951.1,359.1,-4919.7,-4462.8,-375.9,-4390.5,-8981.1,-3291.6,-6.9,-6.3,-4848.0,-3801.3,-0.6,421.5,-8191.2,-115.5,0,2742,36219192918016,252,0, 
1.5267,243.3,31.2,-231.6,91.8,-9819.9,-382.2,503.7,-9830.1,-173097.6,358.8,-9830.1,-9817.8,-659.7,-9827.4,-9193.2,-9830.1,-6.6,-6.0,-9830.1,-9830.1,-0.6,422.4,-9830.1,-135.0,0,2748,36219192918016,253,0, 
1.5300,153.9,26.7,-272.7,-9.9,-2576.1,-81.9,408.9,-8069.4,-123080.1,170.7,-5973.3,-5941.2,-112.5,-8622.3,-9830.1,-8083.8,-6.9,-6.0,-7558.2,-7299.9,-0.6,231.6,-4002.0,-63.6,0,2754,36219192918016,254,0, 
1.5333,116.1,43.2,-301.2,-72.0,9819.6,170.1,337.8,7570.2,7854.6,55.2,6793.2,8068.8,491.4,6962.4,2669.1,7564.2,-6.9,-6.0,7923.6,8096.4,-1.2,105.9,8036.7,-13.5,0,2760,36219192918016,255,0, 
1.5367,187.8,56.7,-260.1,6.3,8800.8,73.5,407.7,9830.1,35864.4,182.4,8538.0,9648.6,360.9,9827.1,9198.6,9830.1,-6.9,-5.7,9830.1,9830.1,-1.2,236.1,3529.2,-34.5,0,2766,36219192918016,0,0, 
1.5400,260.1,31.8,-223.8,97.2,-5306.7,-280.2,499.2,-3024.6,-75804.3,368.1,-4713.0,-4183.2,-365.4,-4414.8,-9726.6,-3172.2,-6.9,-5.7,-4657.2,-3594.3,0.0,422.4,-8193.0,-120.3,0,2772,36219192918016,1,0, 
1.5433,234.9,15.3,-237.6,81.3,-9819.9,-377.4,503.4,-9830.1,-177469.5,363.0,-9830.1,-9817.8,-666.3,-9827.4,-8952.6,-9830.1,-6.6,-6.0,-9830.1,-9830.1,-0.9,419.7,-9830.1,-145.8,0,2778,36219192918016,2,0, 
1.5467,149.4,22.8,-279.6,-25.5,-2760.9,-95.4,406.8,-8244.9,-128711.7,177.9,-6069.6,-6099.0,-129.3,-8885.4,-9830.1,-8249.1,-6.6,-6.3,-7708.2,-7385.1,-0.6,231.3,-4169.4,-68.7,0,2784,36219192918016,3,0, 
1.5500,114.0,42.0,-306.0,-78.0,9819.6,183.0,343.8,7329.0,518.7,62.4,6595.8,7852.5,476.1,6557.4,1240.2,7355.1,-6.9,-6.3,7708.5,7950.3,-0.9,115.5,7744.5,-10.5,0,2790,36219192918016,4,0, 
1.5533,184.2,42.3,-273.0,-6.6,8899.8,85.8,406.8,9830.1,30899.7,179.4,8413.2,9750.9,354.3,9827.1,8361.0,9830.1,-6.9,-6.0,9830.1,9830.1,-0.6,233.4,3540.6,-30.3,0,2796,36219192918016,5,0, 
1.5567,262.2,27.9,-243.6,92.7,-5128.2,-257.4,504.0,-2888.7,-79805.7,365.1,-4639.8,-4064.1,-354.3,-4606.8,-9830.1,-3036.0,-6.6,-5.4,-4559.4,-3372.3,-0.3,423.6,-8078.7,-110.7,0,2802,36219192918016,6,0, 
1.5600,238.8,13.5,-256.5,78.9,-9819.9,-367.2,501.3,-9830.1,-182286.0,366.3,-9830.1,-9817.8,-672.6,-9827.4,-8705.7,-9830.1,-7.2,-6.0,-9830.1,-9830.1,-0.6,423.9,-9830.1,-138.6,0,2808,36219192918016,7,0, 
1.5633,152.7,22.8,-303.9,-24.6,-2766.3,-73.5,400.5,-8145.0,-133824.6,163.5,-6117.6,-6061.5,-140.4,-8971.2,-9830.1,-8170.2,-6.6,-6.0,-7739.7,-7349.4,-0.6,225.0,-4204.2,-73.8,0,2814,36219192918016,8,0, 
1.5667,117.0,41.1,-319.5,-80.1,9819.6,195.6,345.3,7416.9,-2593.5,56.1,6831.9,8013.3,481.8,6471.3,293.4,7417.5,-6.6,-6.3,7734.6,8010.6,-0.9,108.3,7923.9,-13.8,0,2820,36219192918016,9,0, 
1.5700,184.5,45.9,-284.4,-12.6,8918.7,84.3,403.2,9830.1,27639.3,178.2,8646.6,9751.2,354.9,9827.1,7443.9,9830.1,-6.9,-6.0,9830.1,9830.1,-0.9,228.3,3584.4,-34.2,0,2826,0,10,0, 
1.5733,257.1,22.8,-245.7,80.7,-5100.9,-260.1,505.8,-2814.3,-83733.0,360.9,-4456.8,-4017.3,-361.5,-4756.8,-9830.1,-2942.4,-6.9,-5.7,-4525.8,-3221.7,-0.6,418.8,-8109.6,-118.8,0,2832,344671141888,11,0, 
1.5767,239.1,6.9,-259.8,67.5,-9819.9,-371.4,505.8,-9830.1,-185991.0,363.9,-9830.1,-9817.8,-674.1,-9827.4,-8547.0,-9830.1,-6.6,-5.7,-9830.1,-9830.1,-0.6,417.0,-9830.1,-142.8,0,2838,345208012800,12,0, 
1.5800,152.1,27.0,-308.1,-34.8,-2730.6,-86.1,406.2,-8148.0,-137751.9,172.2,-6154.8,-6132.6,-154.2,-9088.8,-9830.1,-8161.2,-6.6,-6.3,-7730.7,-7277.4,-0.6,222.9,-4215.3,-69.6,0,2844,36218924482560,13,0, 
1.5833,111.0,33.0,-330.6,-88.8,9819.6,185.1,339.0,7421.7,-6669.0,53.4,6676.5,7975.2,475.8,6354.3,-571.5,7434.9,-7.2,-6.0,7731.6,8033.7,-0.9,102.0,7888.5,-12.6,0,2850,36218924482560,14,0, 
1.5867,171.9,36.6,-293.7,-16.8,8971.8,72.9,401.1,9830.1,24304.8,175.2,8558.1,9800.4,351.9,9827.1,6476.4,9830.1,-7.5,-5.7,9830.1,9830.1,-0.6,222.9,3586.5,-43.5,0,2856,36218924482560,15,0, 
1.5900,252.0,32.7,-252.3,85.8,-4979.7,-274.5,500.7,-2634.0,-86622.9,366.0,-4558.5,-3825.0,-362.4,-4821.9,-9830.1,-2781.9,-7.8,-5.7,-4446.6,-3052.8,-0.9,420.0,-8097.6,-122.1,0,2862,36218924482560,16,0, 
1.5933,233.4,12.9,-265.2,74.1,-9819.9,-385.2,501.9,-9830.1,-189696.0,370.2,-9830.1,-9817.8,-681.0,-9827.4,-8511.6,-9830.1,-6.9,-5.7,-9830.1,-9830.1,-0.6,420.6,-9830.1,-145.8,0,2868,36218924482560,17,0, 
1.5967,154.5,29.4,-304.2,-21.9,-2780.4,-90.3,406.8,-8180.7,-142123.8,179.1,-6351.0,-6060.3,-146.4,-9249.9,-9830.1,-8207.1,-6.9,-5.7,-7856.7,-7272.0,-0.3,234.3,-4359.0,-63.0,0,2874,36218924482560,18,0, 
1.6000,115.5,40.8,-326.4,-78.0,9819.6,174.0,341.1,7353.9,-12078.3,61.2,6512.4,7950.0,471.6,6163.5,-2052.3,7356.3,-6.9,-6.0,7608.9,8014.5,-0.6,107.4,7691.4,-3.3,0,2880,36218924482560,19,0, 
1.6033,183.6,41.1,-286.5,-4.2,8910.6,67.5,399.6,9830.1,18006.3,173.7,8340.0,9816.6,318.0,9827.1,4560.0,9830.1,-6.6,-6.0,9830.1,9830.1,-0.9,225.0,3400.8,-31.2,0,2886,36218924482560,20,0, 
1.6067,261.9,27.6,-247.8,89.7,-5230.8,-276.3,502.5,-2982.6,-93810.6,360.3,-4964.4,-3974.7,-382.5,-5423.1,-9830.1,-3170.1,-6.6,-6.0,-4931.7,-3244.8,-0.6,416.7,-8211.3,-112.8,0,2892,36218924482560,21,0, 
1.6100,242.4,14.4,-256.8,80.4,-9819.9,-389.4,504.9,-9830.1,-197995.2,364.5,-9830.1,-9817.8,-712.2,-9827.4,-8570.4,-9830.1,-6.9,-5.7,-9830.1,-9830.1,-0.3,421.5,-9830.1,-143.4,0,2898,36218924482560,22,0, 
1.6133,157.5,22.2,-300.3,-21.6,-3226.8,-101.7,408.3,-8559.6,-152127.3,171.0,-6839.7,-6465.3,-192.6,-9697.5,-9830.1,-8573.7,-6.3,-6.6,-8457.9,-7576.5,-0.3,228.6,-4653.6,-69.0,0,2904,36218924482560,23,0, 
1.6167,114.3,34.5,-325.5,-80.7,9819.6,168.0,336.6,6869.1,-22971.0,46.5,5897.4,7746.3,428.1,5377.5,-5384.7,6904.8,-7.2,-5.7,7017.9,7722.3,-0.6,96.9,7395.6,-12.0,0,2910,36218924482560,24,0, 
1.6200,185.4,43.5,-287.7,-11.1,8754.3,58.5,405.0,9830.1,7039.5,167.4,7715.1,9669.3,306.0,9827.1,-897.9,9830.1,-6.9,-5.7,9830.1,9830.1,-0.9,217.8,3127.2,-36.6,0,2916,36218924482560,25,0, 
1.6233,264.0,27.6,-248.4,89.1,-5516.7,-290.1,501.9,-3887.4,-104777.4,354.0,-5396.7,-4392.6,-402.3,-6500.7,-9830.1,-4007.1,-6.9,-6.0,-5919.0,-3650.7,-0.9,406.8,-8353.5,-119.7,0,2922,36218924482560,26,0, 
1.6267,240.3,3.6,-264.3,75.3,-9819.9,-401.4,504.3,-9830.1,-208665.6,352.5,-9830.1,-9817.8,-732.6,-9827.4,-8913.6,-9830.1,-6.3,-5.7,-9830.1,-9830.1,-0.9,409.5,-9830.1,-145.8,0,2928,36218924482560,27,0, 
1.6300,158.4,22.5,-303.6,-20.4,-3358.5,-108.3,411.0,-8846.1,-162204.9,167.7,-7160.1,-6690.3,-208.5,-9827.4,-9830.1,-8871.3,-6.6,-5.7,-8841.6,-7671.3,-0.6,220.5,-4806.3,-69.9,0,2934,36218924482560,28,0, 
1.6333,123.0,38.7,-322.5,-72.9,9819.6,161.4,344.4,6610.2,-32307.6,55.2,5709.9,7641.9,426.9,4733.1,-7739.7,6613.8,-6.6,-5.7,6595.8,7717.2,-0.9,104.1,7317.0,-4.5,0,2940,36218924482560,29,0, 
1.6367,193.5,46.8,-282.6,3.3,8847.3,64.5,408.0,9830.1,-370.5,167.1,7621.8,9782.4,312.3,9827.1,-5042.1,9830.1,-7.2,-5.7,9830.1,9830.1,-0.9,222.0,3210.0,-21.6,0,2946,36218924482560,30,0, 
1.6400,265.5,31.8,-247.2,95.4,-5216.7,-280.8,500.4,-3736.8,-110483.1,358.5,-5260.8,-4066.8,-399.0,-6799.2,-9830.1,-3853.5,-7.5,-6.0,-6024.6,-3265.8,-0.6,405.9,-8252.4,-103.2,0,2952,36218924482560,31,0, 
1.6433,248.1,18.6,-256.2,84.3,-9819.9,-394.2,500.4,-9830.1,-213111.6,357.3,-9830.1,-9817.8,-729.3,-9827.4,-9243.6,-9830.1,-6.9,-6.0,-9830.1,-9830.1,-0.6,408.6,-9830.1,-135.6,0,2958,36218924482560,32,0, 
1.6467,163.8,36.0,-291.9,-13.5,-3054.0,-102.3,404.1,-8699.4,-166206.3,170.7,-6995.4,-6262.5,-193.2,-9827.4,-9830.1,-8702.1,-6.3,-5.7,-8749.2,-7347.9,-0.6,220.2,-4693.8,-65.7,0,2964,36218924482560,33,0, 
1.6500,123.0,45.9,-318.9,-67.5,9819.6,175.2,338.1,6862.8,-35123.4,50.7,6091.2,7908.6,432.9,4676.1,-8578.8,6865.2,-6.9,-5.7,6627.0,7997.7,-0.3,97.5,7509.9,-8.4,0,2970,36218924482560,34,0, 
1.6533,193.8,66.9,-285.3,4.8,9074.4,69.9,399.9,9830.1,-1407.9,160.2,8310.0,9817.5,315.0,9827.1,-7011.6,9830.1,-7.2,-6.0,9830.1,9830.1,-0.9,212.4,3534.9,-36.6,0,2976,36218924482560,35,0, 
1.6567,259.8,32.4,-250.8,91.8,-4520.4,-270.3,497.1,-2477.7,-106926.3,339.9,-4440.6,-2937.6,-367.5,-6098.7,-9830.1,-2706.6,-6.9,-5.7,-5022.9,-1986.9,-0.6,397.8,-7973.4,-115.5,0,2982,36218924482560,36,0, 
1.6600,240.0,22.5,-261.0,81.9,-9819.9,-377.1,497.4,-9830.1,-205553.4,342.3,-9830.1,-9817.8,-673.8,-9827.4,-9458.4,-9830.1,-6.9,-6.0,-9830.1,-9830.1,-0.3,399.3,-9830.1,-147.0,0,2988,36218924482560,37,0, 
1.6633,151.2,24.0,-313.8,-23.1,-1998.9,-98.4,393.6,-7810.8,-157166.1,147.0,-5985.6,-5110.2,-162.6,-9544.5,-9830.1,-7828.8,-6.9,-6.3,-7793.1,-6255.3,-0.6,204.0,-4129.8,-84.9,0,2994,36218924482560,38,0, 
1.6667,114.3,38.1,-339.0,-86.1,9819.6,174.9,329.1,7776.9,-26305.5,30.0,6897.3,8430.0,456.9,5876.4,-7836.3,7788.0,-6.9,-6.3,7645.2,8638.8,-0.9,83.4,7958.1,-17.4,0,3000,36218924482560,39,0, 
1.6700,182.1,44.1,-303.0,-17.4,9264.0,75.0,393.0,9830.1,6224.4,153.3,9125.1,9817.5,333.6,9827.1,-5009.7,9830.1,-7.2,-6.0,9830.1,9830.1,-0.9,203.4,3867.0,-36.6,0,3006,36218924482560,40,0, 
1.6733,261.9,29.7,-262.5,81.0,-4470.0,-268.8,494.7,-1517.7,-102183.9,342.6,-3959.4,-2503.8,-380.4,-5178.6,-9830.1,-1712.4,-7.2,-6.0,-4068.3,-1323.3,-0.9,399.9,-7971.9,-113.7,0,3012,36218924482560,41,0, 
1.6767,244.5,12.6,-269.1,76.8,-9819.9,-376.8,499.8,-9830.1,-203775.0,350.7,-9830.1,-9817.8,-683.4,-9827.4,-9279.6,-9830.1,-6.9,-6.0,-9830.1,-9830.1,-0.6,404.7,-9830.1,-134.4,0,3018,36218924482560,42,0, 
1.6800,159.6,29.4,-308.4,-23.7,-2246.7,-86.7,401.7,-7679.7,-156276.9,162.3,-5914.8,-5154.6,-162.6,-9436.5,-9830.1,-7716.3,-6.9,-6.0,-7631.1,-6327.3,-0.9,219.9,-4203.0,-69.0,0,3024,36218924482560,43,0, 
1.6833,118.2,39.3,-332.4,-75.0,9819.6,179.4,327.3,7861.2,-25119.9,41.1,7014.3,8397.3,462.9,5794.8,-7443.0,7844.4,-6.9,-5.7,7657.2,8577.9,-0.9,95.1,7972.8,-8.7,0,3030,36218924482560,44,0, 
1.6867,185.4,52.8,-287.1,-1.8,9378.9,78.6,390.0,9830.1,9040.2,159.3,9360.6,9817.5,364.8,9827.1,-4112.7,9830.1,-6.9,-5.7,9830.1,9830.1,-1.2,210.9,4190.1,-32.7,0,3036,36218924482560,45,0, 
1.6900,263.4,34.8,-248.7,91.2,-4041.6,-255.9,493.5,-659.4,-96478.2,348.0,-3204.0,-1735.8,-336.6,-4665.0,-9830.1,-882.0,-7.2,-5.7,-3272.1,-808.5,-0.9,400.5,-7732.2,-108.9,0,3042,36218924482560,46,0, 
1.6933,245.7,24.6,-250.5,77.7,-9819.9,-370.5,498.6,-9830.1,-196809.6,348.0,-9830.1,-9817.8,-657.6,-9827.4,-9182.1,-9830.1,-6.9,-6.3,-9830.1,-9830.1,-0.6,403.5,-9830.1,-144.3,0,3048,36218924482560,47,0, 
1.6967,156.3,29.7,-298.2,-20.7,-1936.5,-93.6,402.9,-7182.0,-150571.2,158.7,-5325.3,-4713.0,-141.0,-9233.1,-9830.1,-7240.8,-6.6,-6.0,-7119.6,-5997.0,-0.9,218.7,-4013.4,-75.3,0,3054,36218924482560,48,0, 
1.7000,118.2,39.9,-327.9,-78.9,9819.6,184.2,333.9,8241.0,-20229.3,41.7,7329.0,8464.8,477.6,6021.6,-6347.7,8199.3,-6.9,-6.0,8040.0,8738.4,-0.6,97.5,8092.5,-12.0,0,3060,36218924482560,49,0, 
1.7033,183.6,46.5,-300.0,-11.7,9488.1,96.9,394.8,9830.1,14820.0,155.7,9529.8,9817.5,375.3,9827.1,-1320.3,9830.1,-6.9,-6.0,9830.1,9830.1,-1.2,208.5,4445.4,-27.9,0,3066,36218924482560,50,0, 
1.7067,261.3,29.7,-256.5,92.4,-3802.8,-236.7,499.8,25.2,-90253.8,348.3,-2562.9,-1426.8,-318.6,-4235.7,-9830.1,-201.9,-6.9,-6.0,-2441.1,-377.4,-0.9,402.0,-7630.2,-101.4,0,3072,36218924482560,51,0, 
1.7100,243.3,10.8,-273.0,81.9,-9819.9,-348.3,504.6,-9830.1,-191622.6,351.3,-9830.1,-9817.8,-654.0,-9827.4,-8931.3,-9830.1,-6.6,-6.0,-9830.1,-9830.1,-0.6,404.7,-9830.1,-131.7,0,3078,36218924482560,52,0, 
1.7133,152.7,17.1,-317.1,-21.3,-2031.9,-80.1,402.6,-7014.6,-146866.2,159.6,-4941.3,-4598.4,-170.7,-9193.2,-9830.1,-7084.8,-6.9,-5.7,-6866.4,-5983.2,-0.6,216.0,-4067.1,-70.5,0,3084,36218924482560,53,0, 
1.7167,114.6,32.4,-345.6,-81.0,9819.6,192.6,332.1,8296.5,-17339.4,33.9,7523.1,8492.1,450.6,6015.3,-5199.0,8243.7,-6.6,-6.0,8118.0,8682.9,-0.9,89.1,8021.7,-7.2,0,3090,36218924482560,54,0, 
1.7200,180.6,26.7,-305.4,-5.4,9464.4,99.9,392.4,9830.1,17265.3,151.2,9607.8,9817.5,364.8,9827.1,942.9,9830.1,-6.9,-5.7,9830.1,9830.1,-0.6,211.5,4339.2,-29.7,0,3096,36218924482560,55,0, 
1.7233,256.8,22.5,-261.6,92.4,-3951.3,-245.1,492.6,21.6,-88327.2,338.4,-2544.9,-1722.6,-339.3,-4358.7,-9830.1,-226.5,-6.9,-5.7,-2495.4,-633.9,-0.9,398.1,-7674.0,-105.9,0,3102,36218924482560,56,0, 
1.7267,241.5,14.1,-271.8,81.3,-9819.9,-360.3,498.9,-9830.1,-190437.0,346.8,-9830.1,-9817.8,-671.4,-9827.4,-8753.1,-9830.1,-7.2,-6.3,-9830.1,-9830.1,-0.6,411.0,-9830.1,-130.2,0,3108,36218924482560,57,0, 
1.7300,151.8,14.1,-312.6,-21.6,-2343.3,-84.6,401.7,-7206.0,-146866.2,164.4,-5125.2,-5006.4,-178.8,-9359.7,-9830.1,-7285.8,-7.2,-6.0,-7056.3,-6291.6,-0.6,222.6,-4193.4,-65.4,0,3114,36218924482560,58,0, 
1.7333,109.8,24.3,-338.4,-81.6,9819.6,195.9,335.4,8130.9,-18154.5,42.6,7408.5,8264.1,437.1,5666.4,-4815.3,8064.6,-6.6,-6.0,7960.2,8499.9,-1.2,98.1,7853.7,-0.9,0,3120,36218924482560,59,0, 
1.7367,174.3,33.3,-309.6,-10.5,9426.0,86.7,391.2,9830.1,16746.6,148.5,9542.4,9817.5,341.1,9827.1,1601.4,9830.1,-6.6,-6.3,9830.1,9830.1,-0.9,207.0,4252.2,-20.4,0,3126,36218924482560,60,0, 
1.7400,250.2,16.5,-271.2,84.6,-4043.1,-245.1,490.2,-168.6,-88549.5,336.9,-2653.2,-2019.0,-357.3,-4648.2,-9830.1,-438.9,-6.9,-5.7,-2553.9,-879.6,-0.9,401.7,-7696.2,-106.8,0,3132,36218924482560,61,0, 
1.7433,232.2,5.7,-271.5,77.7,-9819.9,-355.8,497.1,-9830.1,-190955.7,345.0,-9830.1,-9817.8,-691.2,-9827.4,-8711.4,-9830.1,-6.9,-6.0,-9830.1,-9830.1,-0.3,408.0,-9830.1,-134.7,0,3138,36218924482560,62,0, 
1.7467,145.2,9.6,-315.9,-25.2,-2465.4,-87.3,396.9,-7359.9,-147829.5,164.4,-5238.3,-5310.3,-191.4,-9507.3,-9830.1,-7463.1,-6.6,-6.3,-7140.9,-6567.3,-0.6,224.1,-4248.9,-73.8,0,3144,36218924482560,63,0, 
1.7500,100.2,22.2,-342.3,-84.9,9819.6,186.0,325.5,7995.9,-19340.1,35.4,7338.6,8139.9,426.9,5427.9,-4711.8,7905.9,-6.9,-6.0,7908.0,8308.2,-0.9,98.1,7782.6,-17.4,0,3150,36218924482560,64,0, 
1.7533,171.6,31.2,-295.5,-12.9,9414.0,96.6,390.0,9830.1,15635.1,152.1,9529.5,9817.5,335.1,9827.1,1736.7,9830.1,-7.2,-5.4,9830.1,9830.1,-0.6,210.9,4242.6,-28.2,0,3156,36218924482560,65,0, 
1.7567,251.1,22.2,-245.7,93.6,-4094.4,-239.4,494.1,-355.5,-89216.4,339.6,-2558.7,-2080.2,-359.7,-5053.5,-9830.1,-622.5,-6.9,-6.0,-2593.2,-1120.5,-0.6,406.5,-7669.2,-104.4,0,3162,36218924482560,66,0, 
1.7600,240.0,8.4,-248.4,91.5,-9819.9,-358.2,502.8,-9830.1,-192215.4,361.2,-9830.1,-9817.8,-687.0,-9827.4,-8719.8,-9830.1,-6.9,-5.7,-9830.1,-9830.1,-0.9,421.8,-9830.1,-124.8,0,3168,36218924482560,67,0, 
1.7633,151.8,19.5,-294.9,-17.7,-2574.0,-86.4,401.1,-7502.7,-149311.5,171.3,-5296.8,-5395.2,-191.4,-9681.3,-9830.1,-7567.8,-6.3,-5.7,-7118.1,-6719.4,-0.9,234.3,-4308.9,-62.4,0,3174,36218924482560,68,0, 
1.7667,112.5,37.2,-314.4,-77.4,9819.6,185.1,335.4,7873.5,-20599.8,51.3,7261.5,8099.1,436.2,5163.6,-5057.7,7814.1,-6.9,-6.0,7929.6,8224.8,-1.2,108.3,7720.8,3.0,0,3180,36218924482560,69,0, 
1.7700,171.9,30.3,-277.5,-11.4,9376.5,88.8,389.1,9830.1,14301.3,157.5,9556.2,9817.5,331.5,9827.1,1102.5,9830.1,-6.6,-6.0,9830.1,9830.1,-0.9,216.0,4182.3,-19.5,0,3186,36218924482560,70,0, 
1.7733,246.0,12.9,-239.4,83.7,-4150.2,-256.2,489.0,-519.3,-90772.5,348.3,-2696.4,-2187.3,-350.4,-5304.0,-9830.1,-869.4,-7.2,-6.3,-2561.1,-1315.8,-0.3,408.6,-7682.1,-98.4,0,3192,36218924482560,71,0, 
1.7767,234.9,5.4,-249.6,75.6,-9819.9,-370.5,496.5,-9830.1,-193697.4,360.9,-9830.1,-9817.8,-684.6,-9827.4,-8778.6,-9830.1,-7.2,-6.0,-9830.1,-9830.1,-0.6,418.5,-9830.1,-135.6,0,3198,36218924482560,72,0, 
1.7800,151.2,12.0,-291.6,-21.9,-2711.1,-106.5,398.7,-7667.7,-151386.3,174.9,-5490.3,-5581.8,-197.7,-9827.1,-9830.1,-7777.5,-6.6,-6.0,-7248.6,-6949.8,-0.9,230.4,-4385.1,-74.4,0,3204,36218924482560,73,0, 
1.7833,116.7,31.5,-309.9,-71.4,9819.6,175.2,333.9,7701.3,-22971.0,48.6,7164.9,8047.5,428.4,4903.2,-5626.2,7614.9,-7.2,-6.0,7786.2,8032.2,-0.6,105.3,7645.5,-8.4,0,3210,36218924482560,74,0, 
1.7867,183.0,35.4,-282.9,-9.6,9368.7,74.7,388.8,9830.1,12226.5,165.0,9498.9,9817.5,334.8,9827.1,65.4,9830.1,-7.2,-6.3,9830.1,9830.1,-0.3,216.0,4118.1,-31.8,0,3216,36218924482560,75,0, 
1.7900,256.2,16.8,-239.7,91.2,-4271.1,-260.4,490.5,-878.1,-93366.0,354.6,-2901.9,-2383.2,-361.2,-5589.3,-9830.1,-1184.4,-7.2,-5.7,-2794.8,-1722.9,-0.6,411.3,-7741.5,-116.1,0,3222,36218924482560,76,0, 
1.7933,240.0,0.6,-247.2,79.8,-9819.9,-379.5,494.4,-9830.1,-197254.2,361.2,-9830.1,-9817.8,-695.1,-9827.4,-8866.8,-9830.1,-6.9,-6.3,-9830.1,-9830.1,-0.6,414.0,-9830.1,-141.6,0,3228,36218924482560,77,0, 
1.7967,156.6,7.8,-296.1,-17.7,-2963.1,-113.1,398.4,-7912.5,-155239.5,173.4,-5634.0,-5763.6,-204.0,-9827.4,-9830.1,-7993.2,-6.9,-5.7,-7441.2,-7218.3,-0.3,235.2,-4535.1,-81.6,0,3234,36218924482560,78,0, 
1.8000,111.6,38.1,-323.4,-81.6,9819.6,162.9,326.7,7467.0,-26972.4,49.2,7032.0,7923.6,399.6,4509.9,-6473.7,7399.8,-6.9,-6.0,7652.4,7855.2,-0.6,100.5,7558.8,-22.8,0,3240,36218924482560,79,0, 
1.8033,178.8,32.1,-282.3,-6.3,9362.7,71.4,384.9,9830.1,8743.8,159.9,9425.7,9817.5,326.7,9827.1,-1722.6,9830.1,-7.2,-5.7,9830.1,9830.1,-0.6,213.3,4105.8,-42.3,0,3246,36218924482560,80,0, 
1.8067,249.6,12.9,-242.1,84.0,-4240.5,-270.6,483.3,-1085.4,-96181.8,344.1,-3041.4,-2552.7,-367.8,-5970.3,-9830.1,-1371.0,-6.9,-5.7,-2916.6,-1912.8,-1.2,403.8,-7717.2,-124.8,0,3252,36218924482560,81,0, 
1.8100,236.7,-5.4,-246.3,79.8,-9819.9,-377.4,493.5,-9830.1,-199625.4,355.2,-9830.1,-9817.8,-694.5,-9827.4,-9022.2,-9830.1,-7.2,-5.7,-9830.1,-9830.1,-0.6,414.9,-9830.1,-152.1,0,3258,36218924482560,82,0, 
1.8133,153.3,6.6,-291.9,-15.9,-2905.5,-108.0,399.3,-7966.2,-157536.6,177.3,-5725.8,-5827.2,-201.9,-9827.4,-9830.1,-8058.0,-6.6,-6.0,-7460.4,-7284.3,-0.9,233.1,-4518.6,-80.1,0,3264,36218924482560,83,0, 
1.8167,111.3,15.3,-315.9,-78.3,9819.6,162.3,321.3,7442.7,-28824.9,48.9,7068.6,7885.8,417.3,4439.1,-7071.3,7362.9,-6.9,-5.7,7663.8,7842.0,-0.9,99.3,7612.2,-19.5,0,3270,36218924482560,84,0, 
1.8200,173.4,27.0,-279.0,-10.5,9393.3,74.7,378.9,9830.1,7187.7,156.0,9454.5,9817.5,323.4,9827.1,-2790.6,9830.1,-6.6,-6.3,9830.1,9830.1,-1.2,209.1,4118.1,-43.5,0,3276,36218924482560,85,0, 
1.8233,251.1,8.7,-234.0,88.8,-4203.9,-268.2,480.0,-1047.9,-97737.9,348.0,-2893.2,-2499.9,-362.7,-5955.0,-9830.1,-1375.5,-7.2,-6.0,-2866.8,-1821.9,-0.9,402.3,-7725.3,-126.0,0,3282,36218924482560,86,0, 
1.8267,236.7,-7.8,-250.8,81.3,-9819.9,-389.4,488.4,-9830.1,-201477.9,357.9,-9830.1,-9817.8,-700.2,-9827.4,-9120.9,-9830.1,-6.9,-5.7,-9830.1,-9830.1,-0.3,413.1,-9830.1,-154.5,0,3288,36218924482560,87,0, 
1.8300,153.9,0.0,-290.4,-17.1,-2974.5,-113.7,394.5,-8009.1,-159833.7,176.4,-5796.0,-5976.6,-200.7,-9827.4,-9830.1,-8102.4,-6.6,-6.3,-7508.7,-7368.0,-0.9,229.5,-4622.7,-87.6,0,3294,36218924482560,88,0, 
1.8333,109.2,15.0,-325.8,-78.6,9819.6,156.9,327.0,7366.5,-31196.1,48.9,6950.4,7781.7,422.1,4263.9,-7712.1,7287.6,-6.6,-5.7,7620.9,7743.3,-0.9,99.6,7524.0,-22.8,0,3300,36218924482560,89,0, 
1.8367,177.3,35.7,-283.8,-9.3,9345.9,66.0,386.4,9830.1,4742.4,157.5,9494.1,9817.5,333.0,9827.1,-4326.9,9830.1,-7.2,-5.7,9830.1,9830.1,-0.9,208.2,4067.4,-34.5,0,3306,36218924482560,90,0, 
1.8400,255.0,22.5,-242.1,91.2,-4309.8,-271.2,485.7,-1231.8,-100998.3,348.3,-2984.4,-2687.1,-367.5,-6276.9,-9830.1,-1537.5,-6.6,-5.7,-2895.0,-1980.6,0.0,399.6,-7799.1,-113.7,0,3312,36218924482560,91,0, 
1.8433,239.1,0.9,-246.0,85.2,-9819.9,-395.4,491.4,-9830.1,-205405.2,358.2,-9830.1,-9817.8,-709.2,-9827.4,-9261.6,-9830.1,-6.9,-6.0,-9830.1,-9830.1,-0.6,415.5,-9830.1,-146.4,0,3318,36218924482560,92,0, 
1.8467,152.1,11.7,-292.2,-18.9,-2991.3,-123.9,394.5,-8073.6,-163168.2,170.7,-5824.5,-6105.3,-214.2,-9827.4,-9830.1,-8184.3,-6.9,-5.4,-7540.2,-7466.4,-0.9,224.7,-4624.2,-80.4,0,3324,36218924482560,93,0, 
1.8500,105.0,19.5,-326.1,-86.1,9819.6,148.2,321.6,7356.6,-33493.2,45.0,6983.7,7793.4,414.9,4104.9,-8190.3,7245.3,-7.2,-6.3,7597.2,7673.4,-1.2,91.2,7612.2,-23.7,0,3330,36218924482560,94,0, 
1.8533,171.9,33.3,-290.1,-21.0,9425.7,63.9,378.9,9830.1,3853.2,148.5,9609.6,9817.5,329.4,9827.1,-5197.5,9830.1,-7.2,-6.6,9830.1,9830.1,-0.6,206.7,4239.9,-41.4,0,3336,36218924482560,95,0, 
1.8567,251.7,16.5,-256.8,72.6,-4040.4,-276.9,479.4,-853.2,-100331.4,335.7,-2646.0,-2327.7,-363.3,-6105.9,-9830.1,-1227.6,-6.9,-6.0,-2547.0,-1736.4,-1.2,395.1,-7657.5,-124.8,0,3342,36218924482560,96,0, 
1.8600,236.4,6.0,-256.2,77.7,-9819.9,-391.2,489.0,-9830.1,-203775.0,348.9,-9830.1,-9817.8,-694.5,-9827.4,-9348.9,-9830.1,-7.2,-6.0,-9830.1,-9830.1,-0.6,413.4,-9830.1,-147.3,0,3348,36218924482560,97,0, 
1.8633,152.1,12.3,-295.2,-22.5,-2680.8,-115.8,387.9,-7822.5,-161315.7,174.3,-5484.6,-5794.5,-190.5,-9827.4,-9830.1,-7921.2,-6.6,-6.0,-7202.4,-7172.7,-0.9,227.1,-4450.2,-84.6,0,3354,36218924482560,98,0, 
1.8667,116.4,39.6,-314.4,-75.0,9819.6,168.6,315.6,7636.2,-30825.6,49.8,7226.7,7930.5,439.2,4407.3,-7963.5,7558.2,-7.2,-6.0,7860.6,7962.6,-0.6,100.5,7794.3,-19.5,0,3360,36218924482560,99,0, 
1.8700,177.0,41.1,-283.2,-7.2,9510.3,72.3,376.8,9830.1,6891.3,158.1,9660.6,9817.5,347.4,9827.1,-4449.3,9830.1,-7.2,-6.3,9830.1,9830.1,-0.9,206.7,4458.0,-41.7,0,3366,36218924482560,100,0, 
1.8733,250.5,21.3,-240.9,85.8,-3844.2,-265.5,476.7,-356.7,-97367.4,345.6,-2418.0,-1897.5,-350.1,-5620.8,-9830.1,-644.1,-7.2,-6.0,-2092.8,-1299.9,-0.6,400.8,-7592.7,-129.3,0,3372,36218924482560,101,0, 
1.8767,238.8,8.4,-249.3,83.4,-9819.9,-391.2,489.3,-9830.1,-201255.6,355.2,-9830.1,-9817.8,-690.9,-9827.4,-9282.0,-9830.1,-7.2,-6.0,-9830.1,-9830.1,-0.6,412.8,-9830.1,-154.8,0,3378,36218924482560,102,0, 
1.8800,151.8,14.4,-290.7,-17.7,-2610.3,-115.2,391.2,-7696.8,-159092.7,171.0,-5360.1,-5546.4,-196.5,-9827.4,-9830.1,-7755.3,-6.6,-5.4,-7060.5,-7034.4,-0.6,229.2,-4385.1,-93.3,0,3384,36218924482560,103,0, 
1.8833,110.7,26.7,-312.3,-74.4,9819.6,171.6,325.5,7741.2,-28824.9,48.6,7353.6,8067.9,439.5,4579.8,-7457.7,7697.1,-6.9,-6.0,7963.8,8047.2,-0.6,96.9,7895.1,-21.3,0,3390,36218924482560,104,0, 
1.8867,176.1,37.5,-282.3,-9.9,9581.7,76.8,381.0,9830.1,9707.1,148.8,9762.9,9817.5,346.8,9827.1,-3290.4,9830.1,-7.5,-6.3,9830.1,9830.1,-0.9,200.4,4587.3,-38.7,0,3396,36218924482560,105,0, 
1.8900,252.6,16.5,-233.7,92.4,-3669.0,-255.6,489.9,32.4,-94032.9,345.6,-2053.5,-1630.5,-335.1,-5301.0,-9830.1,-233.4,-6.9,-5.4,-1642.8,-929.1,-0.9,396.0,-7492.5,-122.7,0,3402,36218924482560,106,0, 
1.8933,238.2,6.9,-246.3,88.2,-9819.9,-375.0,496.5,-9830.1,-197402.4,354.0,-9830.1,-9817.8,-683.7,-9827.4,-9186.3,-9830.1,-6.6,-6.3,-9830.1,-9830.1,-0.6,408.6,-9830.1,-149.4,0,3408,36218924482560,107,0, 
1.8967,153.0,12.3,-288.9,-16.8,-2472.6,-105.6,399.9,-7473.3,-155610.0,169.2,-5125.2,-5384.1,-197.1,-9827.4,-9830.1,-7529.7,-6.9,-6.0,-6777.9,-6838.5,-0.9,224.4,-4350.9,-93.0,0,3414,36218924482560,108,0, 
1.9000,114.0,33.0,-309.3,-75.9,9819.6,169.5,330.0,7929.0,-25416.3,41.4,7436.1,8123.7,431.4,4844.7,-6830.4,7882.5,-6.9,-6.0,8129.4,8161.2,-0.9,93.0,7929.6,-28.5,0,3420,36218924482560,109,0, 
1.9033,178.8,38.4,-273.0,-10.8,9613.5,84.6,383.7,9830.1,12893.4,146.4,9830.1,9817.5,344.1,9827.1,-1583.4,9830.1,-7.2,-6.0,9830.1,9830.1,-0.6,196.2,4723.8,-42.9,0,3426,36218924482560,110,0, 
1.9067,257.1,24.9,-230.7,91.5,-3576.3,-258.3,485.1,311.7,-90624.3,342.9,-1824.3,-1521.6,-346.8,-4963.8,-9830.1,42.9,-6.9,-5.7,-1440.9,-761.4,-1.2,394.5,-7457.4,-126.6,0,3432,36218925531136,111,0, 
1.9100,241.2,5.4,-237.3,83.4,-9819.9,-381.9,493.8,-9830.1,-195253.5,349.5,-9830.1,-9817.8,-694.8,-9827.4,-9035.1,-9830.1,-7.2,-6.0,-9830.1,-9830.1,-0.9,405.0,-9830.1,-146.4,0,3438,36218925531136,112,0, 
1.9133,156.3,7.8,-289.8,-18.6,-2519.7,-118.5,395.7,-7418.7,-153831.6,169.8,-4965.9,-5315.7,-195.0,-9803.1,-9830.1,-7510.5,-7.2,-6.3,-6746.4,-6752.7,-0.3,221.4,-4359.3,-82.5,0,3444,36218925531136,113,0, 
1.9167,115.5,28.5,-309.3,-75.0,9819.6,165.3,328.5,7946.4,-24082.5,46.8,7435.5,8118.3,438.9,4873.8,-6227.1,7866.3,-6.9,-6.3,8123.4,8190.9,-0.9,92.7,7900.8,-20.7,0,3450,36218925531136,114,0, 
1.9200,171.9,28.5,-285.6,-18.6,9587.4,67.5,382.2,9830.1,14227.2,141.0,9820.5,9817.5,350.1,9827.1,-402.0,9830.1,-7.2,-6.0,9830.1,9830.1,-0.9,189.0,4626.0,-48.9,0,3456,36218925531136,115,0, 
1.9233,247.8,11.1,-242.1,75.6,-3702.3,-270.3,483.0,235.8,-89883.3,331.5,-2025.3,-1701.9,-344.7,-5074.2,-9830.1,-55.8,-6.6,-6.0,-1611.9,-699.9,-0.6,386.7,-7501.2,-132.0,0,3462,36218925531136,116,0, 
1.9267,228.9,2.4,-251.1,74.4,-9819.9,-399.0,487.2,-9830.1,-194660.7,345.0,-9830.1,-9817.8,-690.6,-9827.4,-8945.4,-9830.1,-6.9,-5.7,-9830.1,-9830.1,-0.6,399.3,-9830.1,-160.8,0,3468,36218925531136,117,0, 
1.9300,143.7,4.5,-292.5,-23.7,-2699.1,-127.5,393.3,-7542.0,-154128.0,163.5,-5356.2,-5505.9,-208.8,-9827.4,-9830.1,-7665.0,-6.6,-6.3,-6909.3,-6900.0,-0.6,213.3,-4472.7,-98.1,0,3474,36218925531136,118,0, 
1.9333,100.2,23.1,-313.8,-83.7,9819.6,148.2,319.2,7829.4,-24601.2,36.3,7224.0,8032.5,427.2,4620.6,-6069.9,7709.7,-6.9,-6.3,8007.9,8084.4,-0.9,81.9,7765.5,-39.6,0,3480,36218925531136,119,0, 
1.9367,166.2,35.7,-284.4,-14.4,9579.9,69.0,377.4,9830.1,13412.1,139.2,9792.9,9817.5,340.5,9827.1,12.0,9830.1,-6.9,-6.0,9830.1,9830.1,-0.9,191.4,4599.0,-49.5,0,3486,36218925531136,120,0, 
1.9400,243.9,15.0,-242.7,89.1,-3738.3,-262.2,479.1,69.9,-90550.2,335.7,-2112.6,-1732.2,-346.8,-5288.7,-9830.1,-264.0,-6.9,-5.7,-1771.2,-852.9,-0.6,383.1,-7496.7,-128.4,0,3492,36218925531136,121,0, 
1.9433,233.1,8.7,-242.1,89.1,-9819.9,-384.0,492.0,-9830.1,-195920.4,359.1,-9830.1,-9817.8,-699.3,-9827.4,-8929.8,-9830.1,-6.9,-6.3,-9830.1,-9830.1,-0.6,403.5,-9830.1,-150.6,0,3498,36218925531136,122,0, 
1.9467,147.9,16.5,-286.5,-12.0,-2832.6,-121.2,391.8,-7730.7,-155832.3,170.1,-5471.1,-5563.2,-201.9,-9827.4,-9830.1,-7820.1,-7.2,-6.0,-7144.2,-7001.4,-0.3,218.4,-4487.4,-83.7,0,3504,36218925531136,123,0, 
1.9500,111.3,40.2,-309.0,-64.8,9819.6,158.1,330.3,7634.7,-26379.6,47.4,7160.7,7982.4,428.1,4364.7,-6290.4,7551.6,-6.9,-5.7,7825.2,7994.1,-1.2,92.4,7722.9,-16.5,0,3510,36218925531136,124,0, 
1.9533,172.8,43.8,-276.6,3.6,9558.9,67.2,381.6,9830.1,12004.2,152.7,9753.0,9817.5,346.2,9827.1,-493.2,9830.1,-6.9,-6.3,9830.1,9830.1,-1.2,195.6,4529.4,-34.2,0,3516,36218925531136,125,0, 
1.9567,255.6,33.3,-228.9,105.9,-3802.2,-273.3,484.2,-225.3,-92106.3,350.7,-2432.1,-1865.1,-357.0,-5544.3,-9830.1,-514.5,-6.9,-5.7,-2053.5,-1056.3,-0.9,395.7,-7542.3,-110.7,0,3522,36218925531136,126,0, 
1.9600,236.7,12.6,-236.1,95.7,-9819.9,-404.1,492.0,-9830.1,-198291.6,354.6,-9830.1,-9817.8,-711.6,-9827.4,-8973.3,-9830.1,-6.9,-6.0,-9830.1,-9830.1,-0.9,405.9,-9830.1,-146.4,0,3528,36218925531136,127,0, 
1.9633,150.3,16.8,-286.2,-6.0,-2955.6,-143.7,395.1,-7927.8,-158425.8,174.0,-5792.7,-6021.9,-224.4,-9827.4,-9830.1,-8018.1,-6.3,-6.0,-7507.2,-7244.4,-0.9,222.0,-4616.7,-81.0,0,3534,36218925531136,128,0, 
1.9667,106.8,25.8,-308.4,-70.2,9819.6,140.4,323.4,7421.7,-28750.8,42.6,6791.7,7648.5,405.0,4023.0,-6988.2,7341.3,-6.9,-6.3,7502.4,7794.6,-0.6,92.4,7557.3,-19.8,0,3540,36218925531136,129,0, 
1.9700,171.9,36.0,-277.8,-5.1,9520.5,60.3,379.8,9830.1,9336.6,148.5,9576.6,9817.5,324.6,9827.1,-2172.3,9830.1,-7.2,-6.3,9830.1,9830.1,-0.9,193.8,4388.7,-35.4,0,3546,36218925531136,130,0, 
1.9733,249.0,30.0,-232.5,93.6,-3944.1,-279.6,481.5,-606.0,-95144.4,338.4,-2814.6,-2195.7,-380.1,-6009.0,-9830.1,-892.2,-7.2,-5.7,-2645.1,-1359.3,-0.9,386.4,-7614.6,-118.8,0,3552,36218925531136,131,0, 
1.9767,237.0,20.4,-234.9,91.5,-9819.9,-402.0,491.1,-9830.1,-201403.8,358.5,-9830.1,-9817.8,-717.6,-9827.4,-9119.7,-9830.1,-6.9,-6.0,-9830.1,-9830.1,-0.6,409.2,-9830.1,-146.7,0,3558,36218925531136,132,0, 
1.9800,153.0,14.7,-279.6,-6.6,-3245.7,-138.0,399.3,-8208.0,-162871.8,175.8,-6125.4,-6187.5,-234.3,-9827.4,-9830.1,-8284.5,-6.9,-6.0,-7863.9,-7438.8,-1.2,225.6,-4827.6,-79.8,0,3564,36218925531136,133,0, 
1.9833,102.6,29.4,-309.6,-71.1,9819.6,135.6,323.7,7103.4,-34382.4,36.6,6636.3,7634.1,386.4,3546.3,-7871.4,7032.6,-6.9,-5.7,7207.8,7656.6,-0.9,84.6,7393.2,-20.7,0,3570,36218925531136,134,0, 
1.9867,172.5,33.3,-273.3,0.3,9483.0,58.5,383.7,9830.1,4446.0,150.9,9441.9,9817.5,314.1,9827.1,-4092.9,9830.1,-7.2,-6.0,9830.1,9830.1,-0.9,194.7,4191.3,-36.3,0,3576,36218925531136,135,0, 
1.9900,248.1,21.9,-235.2,87.9,-4078.8,-283.8,483.0,-1073.1,-100405.5,331.2,-3160.2,-2374.8,-380.7,-6546.0,-9830.1,-1397.4,-7.2,-6.0,-3079.5,-1472.4,-0.6,381.6,-7695.3,-116.1,0,3582,36218925531136,136,0, 
1.9933,236.7,1.8,-240.9,86.7,-9819.9,-408.3,494.4,-9830.1,-207109.5,345.0,-9830.1,-9817.8,-742.8,-9827.4,-9265.2,-9830.1,-7.2,-6.0,-9830.1,-9830.1,-0.6,392.7,-9830.1,-144.3,0,3588,36218925531136,137,0, 
1.9967,145.2,10.8,-288.9,-13.5,-3462.6,-137.7,397.2,-8450.4,-168799.8,163.2,-6483.9,-6447.0,-252.9,-9827.4,-9830.1,-8534.1,-6.6,-6.0,-8123.4,-7586.7,-0.6,206.7,-4994.7,-83.4,0,3594,36218925531136,138,0, 
2.0000,101.1,21.9,-318.3,-74.7,9792.9,134.1,324.6,6816.0,-40384.5,33.0,6340.2,7481.4,368.7,3056.1,-8905.8,6728.7,-7.2,-6.6,6930.0,7501.5,-1.2,83.4,7218.0,-11.4,0,3600,36218925531136,139,0, 
2.0033,165.9,28.2,-284.4,-12.6,9442.5,55.8,379.2,9830.1,-1556.1,142.2,9260.1,9817.5,291.3,9827.1,-6936.9,9830.1,-6.9,-6.0,9830.1,9830.1,-0.9,195.6,4118.1,-30.9,0,3606,36218925531136,140,0, 
2.0067,246.3,12.6,-245.4,86.1,-4187.4,-284.4,480.3,-1454.4,-105740.7,330.6,-3421.8,-2629.5,-393.3,-6966.9,-9830.1,-1737.3,-7.2,-6.0,-3387.9,-1727.7,-0.9,390.3,-7707.6,-107.7,0,3612,36218925531136,141,0, 
2.0100,232.5,-4.2,-247.8,84.0,-9819.9,-408.9,489.0,-9830.1,-212963.4,345.9,-9830.1,-9817.8,-753.3,-9726.3,-9503.4,-9830.1,-6.6,-6.0,-9830.1,-9830.1,-0.6,407.4,-9830.1,-135.3,0,3618,36218925531136,142,0, 
2.0133,157.5,9.0,-279.6,-5.7,-3555.9,-126.0,402.0,-8636.1,-174505.5,173.1,-6611.7,-6609.6,-261.9,-9827.4,-9830.1,-8693.1,-6.6,-6.3,-8295.3,-7662.6,-0.3,231.3,-5059.8,-65.7,0,3624,36218925531136,143,0, 
2.0167,105.9,20.7,-308.7,-77.1,9781.2,152.4,322.2,6588.6,-45793.8,27.6,6373.2,7479.9,364.5,2790.3,-9543.3,6543.3,-6.9,-6.0,6792.3,7472.7,-0.9,87.9,7209.6,-6.9,0,3630,36218925531136,144,0, 
2.0200,168.9,22.8,-275.7,-14.4,9447.3,67.8,377.1,9830.1,-6446.7,133.2,9242.4,9817.5,293.7,9827.1,-8937.3,9830.1,-7.2,-6.0,9830.1,9830.1,-0.6,193.8,4078.8,-20.7,0,3636,36218925531136,145,0, 
2.0233,247.8,9.3,-239.1,82.5,-4151.7,-262.5,483.9,-1649.1,-110409.0,322.8,-3367.5,-2535.6,-398.4,-7305.3,-9830.1,-1887.9,-7.2,-5.7,-3603.9,-1659.6,-0.9,389.4,-7726.5,-102.6,0,3642,36218925531136,146,0, 
2.0267,240.6,-6.3,-241.8,78.6,-9819.9,-395.4,498.6,-9830.1,-216890.7,341.1,-9830.1,-9817.8,-756.6,-9633.0,-9705.9,-9830.1,-7.2,-5.7,-9830.1,-9830.1,-0.3,407.1,-9830.1,-129.0,0,3648,36218925531136,147,0, 
2.0300,153.9,3.3,-288.6,-21.3,-3571.2,-123.9,399.0,-8659.5,-178581.0,158.4,-6535.5,-6486.9,-273.0,-9827.4,-9830.1,-8721.6,-6.6,-6.3,-8311.5,-7666.8,-0.6,217.5,-5086.2,-63.9,0,3654,36218925531136,148,0, 
2.0333,108.3,23.1,-320.1,-83.7,9767.1,158.4,330.9,6625.2,-48906.0,33.6,6391.2,7479.9,362.1,2653.8,-9788.7,6562.5,-7.2,-6.3,6776.1,7477.8,-0.6,91.2,7245.9,3.9,0,3660,36218925531136,149,0, 
2.0367,171.6,25.2,-277.2,-14.1,9520.5,74.4,389.1,9830.1,-8151.0,134.7,9426.6,9817.5,294.3,9827.1,-9830.1,9830.1,-7.2,-6.0,9830.1,9830.1,-0.9,195.0,4244.4,-16.5,0,3666,36218925531136,150,0, 
2.0400,253.2,14.1,-234.3,82.2,-3975.0,-267.9,486.0,-1281.3,-111372.3,327.3,-3133.2,-2331.6,-397.8,-7171.2,-9830.1,-1542.9,-7.2,-6.3,-3219.0,-1401.9,-0.6,393.3,-7665.3,-95.4,0,3672,36218925531136,151,0, 
