Time,P3,C3,F3,Fz,F4,C4,P4,Cz,CM,A1,Fp1,Fp2,T3,T5,O1,O2,X3,X2,F7,F8,X1,A2,T6,T4,Trigger,Time_Offset,ADC_Status,ADC_Sequence,Event,Comments
0.0033,83.7,-31.5,9.0,82.8,51.9,-83.4,8.4,16.8,8076.9,-3.6,-168.6,-102.0,94.2,-140.4,-18.6,-108.6,-6.9,-5.7,-247.8,-81.6,-0.6,26.1,-44.1,-1.5,0,6,0,63,0, 
0.0067,68.4,-32.4,4.5,81.9,52.2,-83.4,7.5,15.0,4149.6,0.9,-170.4,-99.6,90.9,-139.2,-9.6,-105.0,-6.9,-5.7,-246.9,-78.9,-0.9,30.9,-42.6,-4.5,0,12,0,64,0, 
0.0100,68.1,-28.5,6.6,83.7,53.7,-83.4,10.8,14.7,-2815.8,3.0,-167.1,-97.2,98.7,-134.7,-12.0,-108.9,-6.6,-5.4,-245.7,-78.0,-0.9,34.8,-41.4,-6.6,0,18,0,65,0, 
0.0133,71.7,-37.5,1.2,76.2,48.6,-88.8,8.1,12.6,-2889.9,-5.7,-169.5,-113.1,85.8,-136.8,-4.5,-103.2,-6.6,-6.3,-247.5,-85.2,-1.2,27.3,-45.3,-8.7,0,24,0,66,0, 
0.0167,82.5,-36.9,-1.2,74.1,45.0,-90.0,9.6,7.5,4520.1,-11.4,-180.0,-117.9,92.4,-143.1,-20.7,-102.9,-6.9,-6.0,-260.4,-93.9,-0.3,20.1,-34.5,-9.6,0,30,0,67,0, 
0.0200,75.3,-38.1,-1.5,74.4,44.4,-88.2,8.7,7.2,8743.8,-18.0,-186.3,-116.4,66.3,-141.3,-8.1,-87.6,-6.9,-6.0,-269.4,-93.0,-1.2,18.0,-33.6,-10.8,0,36,0,68,0, 
0.0233,82.8,0.6,26.1,91.5,56.1,-80.1,6.3,23.1,5112.9,-17.1,-171.3,-110.7,100.2,-127.8,-17.4,-118.8,-6.9,-6.0,-253.2,-93.3,-0.6,22.2,-48.3,-11.7,0,42,0,69,0, 
0.0267,54.9,-50.4,12.6,90.0,58.5,-75.0,12.0,17.7,-1407.9,9.9,-161.7,-96.9,96.0,-144.0,-9.0,-93.3,-7.2,-6.0,-243.9,-84.6,-0.9,32.1,-32.4,-4.8,0,48,0,70,0, 
0.0300,76.5,-37.8,13.2,90.0,61.5,-75.3,12.6,20.4,-963.3,11.4,-164.7,-97.5,93.6,-136.8,-17.1,-114.6,-6.9,-6.0,-244.2,-76.8,-0.6,32.1,-39.9,-3.9,0,54,0,71,0, 
0.0333,81.3,-37.2,7.8,81.3,53.1,-86.4,9.3,14.1,6002.1,-3.9,-175.5,-107.4,117.0,-131.4,-9.3,-100.5,-7.2,-6.0,-247.2,-83.1,-0.6,24.6,-36.3,-14.1,0,60,0,72,0, 
0.0367,80.7,-41.1,10.8,79.8,49.2,-87.6,7.5,13.5,10003.5,6.9,-167.7,-108.9,76.5,-132.0,-18.6,-110.4,-6.9,-6.0,-242.7,-88.2,-0.6,25.5,-40.5,-11.7,0,66,0,73,0, 
0.0400,67.2,-37.2,6.6,72.6,42.6,-89.1,10.8,7.5,5853.9,1.8,-174.9,-115.8,95.1,-134.4,-8.7,-89.1,-7.2,-6.0,-250.5,-92.1,-1.2,27.0,-26.1,-15.0,0,72,0,74,0, 
0.0433,68.4,-32.7,6.6,72.3,41.7,-91.2,6.9,8.4,-666.9,6.0,-171.6,-116.1,90.3,-124.8,4.8,-96.0,-6.6,-5.7,-242.1,-95.1,-0.6,32.1,-39.0,-26.1,0,78,0,75,0, 
0.0467,75.6,-33.0,3.6,69.0,39.9,-92.4,6.6,9.9,-444.6,-0.6,-178.8,-114.6,98.4,-130.2,-7.5,-101.7,-6.9,-6.0,-256.5,-84.9,-0.9,29.4,-34.2,-27.6,0,84,0,76,0, 
0.0500,91.8,-32.7,5.7,70.2,38.7,-93.0,5.1,8.7,7261.8,9.0,-173.7,-117.3,102.9,-129.9,-13.8,-110.4,-6.6,-6.0,-251.1,-91.2,-0.3,39.9,-42.9,-17.7,0,90,0,77,0, 
0.0533,85.2,-39.3,-3.3,62.7,31.5,-100.8,3.6,-0.6,11411.4,-6.9,-177.6,-120.3,97.5,-128.4,-8.4,-99.3,-7.2,-5.4,-257.4,-98.1,-1.2,24.9,-33.3,-18.0,0,96,0,78,0, 
0.0567,70.8,-36.0,5.4,69.3,41.4,-96.3,8.7,6.0,6891.3,-0.3,-168.9,-113.1,93.6,-130.8,-0.6,-96.6,-6.9,-6.0,-246.9,-94.8,-0.3,32.1,-36.3,-16.8,0,102,0,79,0, 
0.0600,69.3,-31.8,17.7,73.5,42.0,-99.0,6.9,9.3,296.4,-1.5,-168.6,-112.2,93.0,-136.8,-11.7,-95.7,-6.9,-5.4,-250.5,-99.0,-0.9,21.6,-28.2,-19.2,0,108,0,80,0, 
0.0633,73.2,-45.6,-6.6,60.6,35.1,-100.5,6.9,-3.0,296.4,-11.4,-181.8,-126.0,84.0,-138.9,-3.3,-81.3,-7.2,-5.7,-259.5,-108.6,-0.6,13.2,-27.9,-26.1,0,114,0,81,0, 
0.0667,89.1,-39.0,3.6,69.3,41.1,-97.8,7.8,3.6,7410.0,-13.5,-180.9,-116.7,88.5,-142.8,-25.5,-108.9,-7.2,-5.7,-256.5,-103.5,-0.6,15.0,-33.9,-24.6,0,120,0,82,0, 
0.0700,84.0,-39.9,3.9,68.4,40.8,-99.6,5.4,4.2,11633.7,-11.4,-180.6,-122.4,89.1,-140.7,-17.1,-117.0,-6.6,-6.0,-258.6,-96.3,-0.3,20.4,-44.4,-24.6,0,126,0,83,0, 
0.0733,69.3,-32.4,9.6,69.6,37.2,-102.6,6.3,5.4,7484.1,-2.1,-180.0,-123.6,87.0,-141.6,-11.4,-115.2,-6.9,-6.0,-256.5,-103.8,-0.9,21.6,-50.1,-30.0,0,132,0,84,0, 
0.0767,64.8,-40.8,4.8,64.5,38.4,-98.7,4.2,0.6,666.9,-8.7,-172.5,-118.8,96.3,-143.1,-11.4,-106.8,-6.3,-5.7,-255.0,-102.6,-0.6,21.3,-42.6,-31.5,0,138,0,85,0, 
0.0800,75.6,-33.3,8.7,72.6,45.6,-92.7,4.2,6.0,1185.6,-12.9,-173.1,-114.3,91.5,-139.5,-17.1,-125.1,-7.5,-6.0,-253.2,-95.7,-0.9,22.8,-51.9,-28.5,0,144,0,86,0, 
0.0833,81.6,-52.8,-11.1,56.7,28.5,-102.6,2.1,-9.3,8225.1,-24.3,-195.3,-137.4,74.1,-144.9,-5.4,-98.4,-6.9,-6.3,-274.5,-114.9,-0.9,2.7,-33.6,-37.5,0,150,0,87,0, 
0.0867,87.3,-32.1,7.8,71.4,37.8,-100.2,-0.9,5.4,11781.9,-17.1,-181.2,-121.8,87.0,-137.7,-5.4,-132.9,-6.9,-6.0,-256.5,-102.3,-0.6,12.0,-61.2,-33.9,0,156,0,88,0, 
0.0900,67.5,-38.4,2.4,74.1,41.4,-93.9,4.8,8.7,6817.2,-10.2,-180.6,-113.4,81.9,-147.3,-13.8,-119.1,-6.6,-5.7,-261.3,-96.9,-0.3,15.9,-44.7,-29.7,0,162,0,89,0, 
0.0933,67.2,-27.6,-0.9,69.0,39.0,-95.1,8.1,7.8,370.5,-16.2,-184.5,-119.4,77.7,-143.4,-22.8,-105.9,-7.2,-5.7,-261.3,-105.6,-0.6,6.3,-39.6,-31.8,0,168,0,90,0, 
0.0967,74.1,-37.5,-1.8,67.8,33.6,-97.5,6.0,9.6,592.8,-16.2,-188.1,-127.5,96.0,-152.7,-18.6,-108.9,-6.9,-5.7,-262.5,-111.0,-0.9,-1.5,-42.3,-30.3,0,174,0,91,0, 
0.1000,98.4,-23.7,3.3,70.8,38.4,-93.6,-0.3,13.5,7632.3,-18.3,-184.8,-126.9,87.0,-148.5,-37.2,-149.1,-6.9,-6.0,-256.8,-105.3,-0.6,12.6,-58.5,-24.3,0,180,0,92,0, 
0.1033,90.3,-47.1,-7.2,64.8,36.0,-93.0,6.0,7.2,11559.6,-12.6,-183.9,-132.9,71.1,-150.6,-20.1,-117.0,-6.9,-6.0,-262.2,-114.6,-0.9,4.2,-34.5,-22.2,0,186,0,93,0, 
0.1067,81.0,-25.8,6.9,68.4,39.6,-92.4,1.8,10.5,7187.7,-18.9,-183.9,-133.2,93.3,-144.0,-10.2,-110.4,-7.2,-6.0,-256.5,-115.5,-0.3,9.0,-36.6,-29.7,0,192,0,94,0, 
0.1100,80.4,-16.8,21.3,82.5,51.3,-79.5,6.9,20.7,370.5,-6.9,-180.0,-123.6,88.5,-136.8,-20.7,-129.9,-6.9,-5.7,-251.1,-99.9,-0.6,24.3,-49.2,-20.4,0,198,0,95,0, 
0.1133,87.3,-43.2,-7.5,67.2,47.1,-87.3,9.0,9.0,815.1,-4.8,-190.8,-126.0,75.6,-140.1,-12.9,-117.6,-6.9,-6.0,-259.2,-104.7,-0.6,15.9,-35.7,-25.2,0,204,0,96,0, 
0.1167,100.2,-40.8,0.6,67.5,44.1,-90.9,0.6,7.5,7410.0,-9.3,-186.9,-131.7,87.6,-132.3,-12.9,-138.0,-7.2,-5.7,-258.6,-109.8,-0.9,12.6,-51.3,-27.6,0,210,0,97,0, 
0.1200,93.9,-42.0,-3.0,67.8,42.6,-95.1,1.8,7.5,11781.9,-14.7,-187.8,-130.8,82.2,-146.1,-23.4,-125.1,-6.6,-6.3,-258.3,-111.6,-0.6,11.7,-53.7,-34.2,0,216,0,98,0, 
0.1233,83.1,-32.1,10.8,75.9,51.6,-89.7,4.5,17.1,7113.6,-9.0,-175.2,-113.7,90.3,-138.3,-15.6,-122.4,-7.2,-6.0,-244.5,-98.4,-0.6,18.0,-54.3,-29.7,0,222,0,99,0, 
0.1267,75.0,-31.8,8.7,75.3,48.6,-85.8,8.1,14.7,222.3,-1.5,-176.7,-117.0,93.9,-134.1,-5.1,-115.8,-6.9,-5.7,-245.4,-99.9,-0.6,30.6,-40.5,-24.6,0,228,0,100,0, 
0.1300,76.5,-32.4,9.0,76.5,49.8,-87.0,7.8,12.6,815.1,-5.4,-176.4,-120.0,87.6,-139.2,-17.7,-117.0,-6.9,-5.7,-248.1,-96.3,-0.9,28.8,-41.1,-26.4,0,234,0,101,0, 
0.1333,91.2,-41.7,-3.9,63.6,41.1,-95.1,4.8,3.6,8151.0,-7.2,-185.7,-133.5,87.3,-130.8,-2.4,-108.6,-6.9,-5.7,-251.7,-108.0,-0.9,19.2,-39.0,-34.5,0,240,0,102,0, 
0.1367,88.8,-39.6,-2.1,67.8,42.3,-95.7,9.3,6.6,12004.2,-9.0,-178.8,-122.7,87.0,-137.4,-11.4,-105.6,-6.9,-6.3,-249.9,-103.8,-0.9,22.2,-39.0,-34.2,0,246,0,103,0, 
0.1400,74.4,-35.4,7.2,77.4,54.3,-87.0,9.6,15.3,7187.7,6.9,-165.6,-116.4,92.4,-142.5,-31.5,-123.6,-7.2,-5.7,-226.8,-94.8,-0.6,35.1,-39.9,-28.8,0,252,0,104,0, 
0.1433,68.7,-39.3,-7.8,62.1,41.4,-92.1,9.9,12.6,1556.1,3.3,-185.1,-130.2,92.4,-137.7,-13.8,-104.7,-6.9,-6.0,-254.4,-108.9,-0.6,27.0,-37.2,-36.0,0,258,0,105,0, 
0.1467,82.5,-32.7,-7.5,59.1,35.1,-97.8,6.3,10.2,2297.1,-2.7,-183.0,-129.9,97.2,-131.7,-8.7,-114.0,-7.5,-5.4,-250.5,-111.6,-0.6,24.3,-42.3,-34.2,0,264,0,106,0, 
0.1500,94.8,-43.5,-15.0,54.3,28.5,-100.2,5.7,4.5,9558.9,-4.8,-190.2,-127.8,75.6,-130.5,-14.4,-110.1,-6.9,-5.7,-256.5,-108.9,-1.2,15.3,-40.8,-36.3,0,270,0,107,0, 
0.1533,96.0,-38.1,-16.8,42.9,16.8,-110.1,6.3,2.1,13856.7,-10.5,-203.4,-157.5,75.3,-123.6,-11.1,-104.7,-6.6,-5.7,-268.5,-137.7,-0.9,7.5,-42.6,-44.4,0,276,0,108,0, 
0.1567,71.1,-51.6,-17.1,39.0,15.3,-108.0,7.5,2.1,10299.9,-4.8,-216.0,-170.1,88.8,-134.1,-5.7,-108.6,-6.6,-6.0,-276.0,-152.4,-1.2,8.7,-43.8,-45.9,0,282,0,109,0, 
0.1600,70.8,-43.5,-23.4,36.3,15.9,-105.9,8.1,1.2,4075.5,-7.8,-213.6,-158.7,89.1,-124.8,9.0,-101.1,-7.2,-6.0,-280.8,-137.4,-0.9,13.5,-33.0,-45.0,0,288,0,110,0, 
0.1633,82.5,-46.2,-15.3,45.3,24.0,-102.9,6.6,-0.6,5187.0,-6.6,-189.3,-134.4,82.8,-123.0,4.5,-96.3,-6.9,-5.4,-260.7,-110.7,-0.3,25.2,-30.3,-37.2,0,294,0,111,0, 
0.1667,87.3,-51.9,-14.1,50.4,29.4,-104.1,8.4,-2.1,12819.3,0.9,-183.3,-131.1,80.1,-131.7,-13.8,-106.5,-7.2,-5.4,-256.2,-106.2,-0.9,31.2,-29.7,-27.9,0,300,0,112,0, 
0.1700,88.8,-46.2,-8.4,56.7,31.2,-100.5,6.3,2.1,16894.8,2.1,-177.3,-126.9,92.4,-126.9,-15.0,-114.6,-6.6,-6.0,-253.5,-100.8,-0.9,29.1,-36.0,-24.6,0,306,0,113,0, 
0.1733,69.9,-55.8,-16.5,46.2,25.5,-102.3,5.7,-3.0,12671.1,-3.3,-193.2,-129.9,69.6,-125.1,9.0,-88.5,-6.9,-5.7,-270.6,-98.1,-0.6,33.0,-28.5,-29.4,0,312,0,114,0, 
0.1767,69.9,-49.8,-14.4,44.1,27.3,-102.0,7.2,-2.1,7113.6,-9.9,-192.6,-131.7,77.1,-122.4,8.1,-88.8,-6.9,-6.0,-273.6,-104.1,-0.6,29.7,-25.5,-31.2,0,318,0,115,0, 
0.1800,72.3,-45.3,-16.5,39.9,22.5,-102.6,9.9,-6.3,8076.9,-14.1,-198.0,-135.0,68.7,-134.1,-2.7,-81.9,-7.2,-5.7,-285.3,-101.4,-0.6,24.0,-17.1,-35.1,0,324,0,116,0, 
0.1833,90.3,-50.1,-2.1,54.6,34.5,-99.3,9.9,-2.7,15412.8,-17.7,-181.5,-125.7,71.7,-134.4,-17.7,-116.7,-6.9,-5.7,-266.7,-84.0,-0.9,27.0,-36.0,-32.4,0,330,0,117,0, 
0.1867,81.3,-69.0,-22.8,45.6,32.1,-97.2,11.4,-6.6,19858.8,-6.3,-180.9,-114.3,44.1,-138.0,-8.7,-106.2,-6.9,-6.0,-273.0,-79.2,-0.6,27.0,-31.8,-35.4,0,336,0,118,0, 
0.1900,68.4,-59.7,-15.6,50.4,33.3,-99.3,6.6,-2.7,15486.9,-11.7,-177.9,-107.7,62.7,-133.5,-8.4,-116.7,-6.9,-5.7,-276.6,-73.8,-0.6,37.8,-46.5,-41.7,0,342,0,119,0, 
0.1933,65.4,-57.9,-8.7,55.8,39.0,-95.1,13.5,1.5,9188.4,-5.4,-176.7,-98.7,61.8,-134.1,-6.3,-102.3,-6.9,-6.3,-272.7,-67.5,-0.3,31.8,-27.0,-41.1,0,348,0,120,0, 
0.1967,73.5,-51.6,-9.3,58.8,42.0,-91.2,10.8,3.6,9781.2,1.8,-168.0,-104.4,70.8,-137.4,-21.9,-114.9,-6.6,-5.4,-268.8,-63.3,-0.6,40.8,-29.4,-32.7,0,354,0,121,0, 
0.2000,83.1,-62.4,-15.3,53.4,37.5,-97.2,3.9,-0.9,17413.5,-7.2,-177.0,-107.7,63.0,-132.9,-6.3,-105.6,-7.5,-6.3,-277.2,-67.2,-0.6,27.6,-39.9,-30.9,0,360,0,122,0, 
0.2033,73.5,-61.8,-27.0,41.4,21.6,-105.3,-0.6,-12.9,21266.7,-28.2,-198.0,-131.1,47.4,-136.8,-11.1,-99.9,-7.2,-5.7,-297.9,-87.9,-0.3,19.8,-33.6,-43.8,0,366,0,123,0, 
0.2067,60.3,-66.0,-22.5,46.5,28.5,-97.8,6.3,-4.5,17043.0,-8.1,-190.5,-123.0,61.8,-140.4,-17.1,-104.4,-7.2,-6.3,-294.6,-85.5,-0.6,22.2,-30.9,-38.4,0,372,0,124,0, 
0.2100,55.8,-59.1,-20.7,49.5,29.1,-100.8,1.2,-5.4,10374.0,-18.3,-191.4,-122.4,54.0,-138.3,-11.1,-107.7,-6.9,-5.7,-288.9,-85.8,-0.6,24.0,-42.0,-42.9,0,378,0,125,0, 
0.2133,71.4,-62.4,-24.9,49.2,30.6,-96.0,0.9,-2.1,10818.6,-8.7,-189.6,-117.9,68.4,-129.9,-14.4,-122.7,-6.9,-6.0,-292.2,-80.1,-0.9,23.7,-38.1,-40.8,0,384,0,126,0, 
0.2167,80.7,-69.3,-34.5,34.2,15.3,-105.3,-5.7,-13.2,17709.9,-25.5,-211.8,-136.2,50.1,-130.8,-0.3,-108.0,-7.2,-5.7,-306.6,-95.4,-0.6,16.5,-38.4,-51.6,0,390,0,127,0, 
0.2200,85.8,-46.8,-15.6,47.4,26.7,-96.9,-2.4,-2.4,22081.8,-25.8,-196.2,-119.1,62.4,-123.6,-13.8,-114.6,-6.9,-6.0,-296.7,-82.5,-0.9,20.4,-39.3,-45.9,0,396,0,128,0, 
0.2233,66.0,-54.6,-21.0,44.4,25.8,-101.4,-3.6,-4.5,16672.5,-24.3,-197.4,-129.9,63.0,-131.1,-3.0,-102.0,-6.6,-6.0,-294.0,-85.5,-1.2,24.3,-35.4,-48.0,0,402,0,129,0, 
0.2267,52.8,-77.7,-30.3,42.3,27.3,-94.5,3.0,-2.7,10225.8,-22.2,-198.6,-121.2,67.5,-134.1,-0.6,-95.1,-6.9,-6.0,-301.2,-82.5,-0.9,27.9,-24.0,-43.8,0,408,0,130,0, 
0.2300,64.5,-65.7,-27.9,42.0,22.8,-100.2,2.7,-2.7,10225.8,-21.6,-197.4,-134.4,54.3,-141.3,-6.0,-93.6,-6.9,-5.7,-297.0,-85.2,-0.6,20.1,-26.1,-50.4,0,414,0,131,0, 
0.2333,75.6,-70.2,-26.1,50.7,28.8,-99.6,-8.7,1.5,17561.7,-16.2,-192.0,-121.8,51.9,-141.6,-22.8,-129.3,-6.6,-5.7,-287.7,-74.4,-0.9,28.8,-54.9,-47.7,0,420,0,132,0, 
0.2367,70.2,-69.9,-29.7,44.7,26.1,-100.8,-6.3,-3.3,20748.0,-23.7,-200.1,-124.8,57.3,-148.2,-9.3,-109.8,-6.9,-5.7,-298.2,-84.9,-0.6,25.8,-39.9,-49.5,0,426,0,133,0, 
0.2400,59.1,-62.1,-22.5,50.1,26.7,-100.2,-2.7,2.1,14894.1,-20.1,-192.6,-123.0,60.0,-137.1,-5.4,-108.0,-7.2,-5.7,-290.7,-80.1,-0.6,27.0,-36.9,-49.2,0,432,0,134,0, 
0.2433,47.1,-64.8,-21.0,54.0,35.7,-97.8,6.0,6.0,7854.6,-13.8,-188.1,-113.7,54.9,-149.1,-12.6,-96.3,-6.9,-6.3,-285.3,-73.8,-0.6,31.8,-24.0,-44.7,0,438,0,135,0, 
0.2467,63.0,-53.1,-18.6,50.4,31.5,-103.2,-0.3,1.5,8373.3,-25.5,-194.1,-122.1,53.4,-150.0,-24.0,-109.2,-7.2,-6.0,-292.2,-83.1,-1.2,24.9,-31.8,-50.1,0,444,0,136,0, 
0.2500,68.4,-74.4,-31.5,43.8,26.1,-110.1,-1.5,-2.7,15412.8,-24.3,-200.4,-122.1,65.4,-153.6,-18.3,-105.6,-7.2,-5.7,-297.0,-84.3,-0.6,16.8,-24.3,-50.1,0,450,0,137,0, 
0.2533,79.8,-51.0,-14.1,53.4,32.4,-105.6,-2.4,3.0,17858.1,-9.3,-188.4,-117.3,66.9,-138.3,-14.1,-130.8,-7.2,-6.0,-282.6,-78.9,-0.9,30.3,-50.4,-48.9,0,456,0,138,0, 
0.2567,57.3,-66.3,-31.5,44.7,24.3,-112.5,-1.8,-4.5,12671.1,-15.0,-191.1,-121.2,51.6,-152.7,-6.6,-114.3,-6.9,-6.0,-285.0,-83.7,-0.3,23.4,-39.0,-54.6,0,462,0,139,0, 
0.2600,56.4,-51.6,-20.1,51.0,32.7,-107.7,-2.7,0.3,5335.2,-12.6,-187.8,-118.5,68.4,-147.3,-17.1,-125.4,-7.2,-5.7,-281.4,-77.1,-0.6,33.9,-44.4,-53.4,0,468,0,140,0, 
0.2633,61.5,-70.5,-34.8,39.9,23.1,-112.5,-2.7,-5.1,5187.0,-14.7,-199.2,-127.5,57.0,-153.0,-27.9,-118.5,-6.6,-6.0,-289.2,-87.3,-0.6,27.3,-35.7,-56.1,0,474,0,141,0, 
0.2667,78.6,-65.4,-31.5,37.8,16.8,-111.6,-1.2,-4.8,11411.4,-19.8,-198.9,-128.4,57.0,-148.5,-25.2,-120.3,-7.2,-6.0,-295.8,-87.6,-0.9,24.3,-39.3,-54.3,0,480,0,142,0, 
0.2700,74.1,-68.4,-35.7,32.4,11.1,-118.8,-2.4,-8.7,14375.4,-26.7,-216.9,-144.3,53.4,-152.1,-16.2,-112.8,-6.6,-5.4,-302.7,-98.4,-0.6,16.8,-39.0,-67.5,0,486,0,143,0, 
0.2733,58.2,-59.1,-23.4,38.4,13.2,-113.4,-0.3,-4.5,8966.1,-25.2,-210.3,-147.0,48.9,-145.2,-18.9,-114.3,-6.9,-5.7,-301.8,-96.9,-0.9,19.2,-35.7,-63.9,0,492,0,144,0, 
0.2767,57.0,-75.3,-42.6,33.0,16.2,-118.8,-3.6,-4.2,1482.0,-13.2,-208.2,-140.4,60.6,-146.1,-7.2,-113.4,-7.2,-6.0,-297.0,-99.0,-0.6,21.6,-45.6,-63.6,0,498,0,145,0, 
0.2800,62.7,-69.6,-37.5,32.4,9.3,-118.5,-1.5,-7.2,1407.9,-31.2,-222.3,-144.0,41.4,-150.3,-8.7,-99.9,-7.2,-6.0,-310.5,-100.8,-0.6,14.7,-34.2,-60.0,0,504,0,146,0, 
0.2833,77.1,-73.8,-42.6,31.5,11.7,-121.8,-6.3,-6.6,7261.8,-24.9,-220.5,-148.8,47.1,-149.7,-10.8,-120.9,-6.9,-5.7,-306.0,-104.7,-0.6,10.2,-51.3,-64.5,0,510,0,147,0, 
0.2867,73.5,-62.7,-34.8,32.7,8.1,-123.0,-6.6,-4.5,10966.8,-36.6,-224.4,-153.0,44.1,-151.2,-16.8,-115.5,-6.9,-5.7,-312.0,-102.9,-0.6,9.9,-41.4,-65.7,0,516,0,148,0, 
0.2900,60.9,-73.2,-34.5,35.4,14.1,-117.9,0.9,-3.9,5705.7,-23.4,-213.6,-139.8,51.6,-148.5,-9.0,-113.1,-7.2,-6.3,-301.8,-94.8,-0.6,17.1,-42.0,-64.5,0,522,0,149,0, 
0.2933,63.3,-72.6,-37.8,30.3,6.6,-120.0,4.5,-7.8,-1037.4,-37.2,-219.3,-142.8,45.9,-146.4,5.1,-84.9,-6.9,-5.7,-306.6,-97.2,-0.3,13.2,-19.8,-65.7,0,528,0,150,0, 
0.2967,81.3,-54.0,-25.5,43.5,19.8,-113.1,-0.6,2.1,-296.4,-19.8,-203.4,-133.5,61.8,-135.9,-14.7,-132.3,-7.2,-5.4,-293.4,-90.6,-0.3,16.5,-51.6,-63.3,0,534,0,151,0, 
0.3000,94.5,-60.6,-35.7,30.0,11.1,-120.0,-5.4,-3.3,6520.8,-31.2,-218.1,-144.9,73.5,-138.3,1.8,-123.3,-6.9,-6.0,-310.8,-97.8,-0.9,5.4,-42.9,-67.2,0,540,0,152,0, 
0.3033,92.7,-65.7,-36.0,33.9,13.8,-114.0,0.9,-2.7,10522.2,-27.6,-212.1,-139.5,43.5,-133.8,-6.9,-124.2,-7.2,-6.3,-302.7,-90.9,-0.9,13.2,-40.5,-61.8,0,546,0,153,0, 
0.3067,71.4,-69.6,-30.6,32.4,12.9,-111.9,2.4,-1.5,5483.4,-18.3,-211.8,-138.9,48.0,-144.6,3.0,-101.1,-7.2,-6.0,-296.1,-93.9,-0.6,22.8,-35.1,-59.1,0,552,0,154,0, 
0.3100,74.7,-53.1,-27.0,35.7,23.4,-105.9,1.2,7.2,-963.3,-15.6,-210.9,-136.2,58.2,-132.3,-1.2,-119.4,-7.2,-6.3,-296.4,-81.0,-0.6,27.3,-41.4,-58.8,0,558,0,155,0, 
0.3133,80.1,-63.3,-37.8,29.1,19.5,-108.6,4.8,2.7,-222.3,-20.7,-218.1,-144.0,64.8,-132.0,-0.3,-106.2,-7.2,-6.0,-304.5,-89.1,-0.6,26.7,-30.0,-58.8,0,564,0,156,0, 
0.3167,92.7,-66.9,-39.0,30.9,20.1,-106.2,1.5,0.9,6891.3,-21.3,-219.9,-138.9,51.6,-134.1,-3.9,-118.5,-6.9,-6.0,-306.9,-89.1,-0.9,15.3,-38.4,-60.9,0,570,0,157,0, 
0.3200,82.2,-67.2,-37.5,31.5,18.3,-109.2,0.0,-2.4,11263.2,-20.7,-216.9,-145.5,49.2,-138.3,-9.0,-120.0,-6.9,-5.7,-306.6,-94.5,-0.9,20.4,-36.9,-60.6,0,576,0,158,0, 
0.3233,65.7,-68.4,-33.6,29.7,18.3,-105.9,4.5,-0.9,6224.4,-17.1,-213.0,-140.4,47.4,-134.1,-2.1,-108.3,-7.2,-5.7,-299.1,-95.1,-0.9,25.5,-28.2,-57.9,0,582,0,159,0, 
0.3267,66.0,-58.8,-24.0,38.4,21.9,-99.0,4.2,4.8,-518.7,-13.8,-207.9,-133.8,61.8,-133.5,-2.4,-116.7,-6.9,-6.0,-293.4,-89.4,-1.2,27.9,-34.5,-56.1,0,588,0,160,0, 
0.3300,73.5,-65.7,-33.3,33.9,15.6,-104.4,6.3,2.1,222.3,-14.7,-213.3,-138.0,53.1,-131.7,3.3,-110.1,-6.9,-5.7,-299.1,-97.5,-0.9,19.2,-29.1,-60.3,0,594,0,161,0, 
0.3333,95.4,-54.0,-28.8,35.7,17.1,-106.8,3.6,3.3,6817.2,-24.3,-219.3,-146.7,79.8,-128.1,1.8,-114.6,-6.6,-6.0,-308.1,-102.6,-0.9,17.4,-37.5,-55.2,0,600,0,162,0, 
0.3367,89.1,-63.6,-33.0,37.2,20.4,-105.3,4.2,3.3,10299.9,-19.5,-216.0,-138.9,39.3,-135.3,-0.9,-114.3,-6.9,-6.0,-302.7,-96.3,-0.6,23.1,-33.9,-57.6,0,606,0,163,0, 
0.3400,72.9,-57.6,-15.6,46.2,24.9,-102.3,9.9,5.1,5335.2,-11.7,-188.1,-121.5,57.3,-134.7,2.1,-108.6,-7.2,-6.0,-275.1,-76.8,-0.6,34.2,-25.8,-57.6,0,612,0,164,0, 
0.3433,65.1,-48.0,-18.0,44.7,22.8,-108.0,7.2,5.4,-1111.5,-22.2,-194.4,-122.7,49.2,-141.6,-5.1,-111.6,-6.9,-5.7,-284.1,-84.0,-0.6,25.5,-26.4,-56.4,0,618,0,165,0, 
0.3467,72.6,-66.0,-24.9,42.9,27.3,-107.7,4.2,6.3,-592.8,-9.9,-198.9,-123.6,74.4,-142.2,-3.3,-111.0,-6.6,-5.7,-285.0,-78.6,-1.2,29.7,-32.1,-48.6,0,624,0,166,0, 
0.3500,85.2,-69.6,-28.5,39.9,23.4,-109.5,2.1,0.0,6224.4,-23.1,-205.5,-136.5,51.0,-141.3,1.5,-103.8,-7.2,-6.0,-294.3,-86.4,-0.6,20.4,-29.4,-54.6,0,630,0,167,0, 
0.3533,78.9,-68.4,-39.9,27.6,10.8,-118.5,-2.1,-7.5,9781.2,-37.8,-218.7,-155.7,72.6,-149.7,6.0,-102.9,-7.2,-5.7,-307.2,-102.9,-0.9,9.3,-33.0,-63.9,0,636,0,168,0, 
0.3567,64.8,-69.0,-30.3,35.1,20.7,-111.3,4.2,-1.5,5335.2,-29.7,-215.4,-145.5,37.8,-149.1,0.9,-104.1,-6.9,-5.7,-298.5,-94.8,-0.3,13.2,-33.0,-61.5,0,642,0,169,0, 
0.3600,63.6,-53.7,-11.7,44.4,31.5,-105.6,0.9,9.0,-1333.8,-19.5,-198.3,-128.1,57.9,-150.0,-12.6,-135.9,-7.2,-6.3,-281.7,-82.2,-0.9,24.3,-48.6,-56.1,0,648,0,170,0, 
0.3633,73.5,-62.1,-26.4,38.4,21.0,-108.0,5.1,1.8,-741.0,-29.1,-207.9,-141.3,44.4,-150.0,-10.5,-117.6,-6.6,-5.7,-291.9,-94.8,-0.6,15.3,-45.3,-63.3,0,654,0,171,0, 
0.3667,84.6,-70.8,-35.1,32.4,16.8,-113.1,2.4,-0.3,6298.5,-32.4,-213.0,-143.4,47.4,-152.4,-11.4,-120.3,-7.2,-6.3,-298.2,-93.0,-0.6,7.5,-46.5,-64.5,0,660,0,172,0, 
0.3700,77.1,-71.4,-33.6,30.3,15.9,-115.8,3.3,-3.9,10077.6,-39.6,-214.2,-141.0,44.7,-156.9,-15.3,-111.6,-7.2,-6.0,-297.6,-97.5,-0.6,7.5,-41.4,-68.1,0,666,0,173,0, 
0.3733,66.9,-62.1,-25.2,35.4,21.9,-114.9,3.0,2.7,5112.9,-34.5,-210.3,-137.7,39.6,-156.6,-13.5,-116.7,-6.9,-6.3,-293.7,-94.2,-0.9,9.0,-45.6,-64.8,0,672,0,174,0, 
0.3767,58.2,-76.2,-33.3,33.3,22.2,-116.1,1.2,-1.8,-1630.2,-26.1,-204.0,-139.8,53.4,-151.5,-15.6,-130.2,-6.9,-5.4,-286.5,-93.6,-0.6,6.6,-40.8,-72.3,0,678,0,175,0, 
0.3800,63.0,-73.2,-36.3,27.3,15.3,-123.0,-1.5,-6.0,-889.2,-40.8,-220.5,-155.4,23.7,-157.2,-8.4,-112.2,-6.9,-5.7,-299.7,-104.4,-0.9,0.3,-39.9,-74.1,0,684,0,176,0, 
0.3833,77.7,-70.2,-39.3,23.4,14.4,-125.7,-5.4,-11.1,6224.4,-42.3,-226.5,-162.0,33.3,-149.4,-9.3,-122.7,-7.2,-6.0,-307.2,-112.2,-0.6,2.7,-48.6,-77.7,0,690,0,177,0, 
0.3867,76.5,-79.2,-42.3,27.3,17.1,-125.1,-5.7,-3.3,10077.6,-32.1,-224.4,-149.4,49.5,-156.6,-12.9,-141.0,-6.9,-5.7,-297.9,-100.8,-0.6,7.5,-55.5,-74.1,0,696,0,178,0, 
0.3900,65.7,-60.6,-20.4,33.3,18.3,-118.8,-2.7,-1.2,5261.1,-41.7,-218.7,-150.9,33.9,-158.7,-24.0,-134.1,-7.5,-5.7,-292.2,-108.0,-0.6,0.3,-48.0,-72.9,0,702,0,179,0, 
0.3933,65.1,-65.1,-39.0,30.0,18.3,-119.1,-3.3,1.8,-1185.6,-33.6,-224.1,-152.7,48.0,-147.3,-14.4,-126.9,-6.9,-5.7,-296.7,-101.7,-0.9,7.5,-49.8,-66.9,0,708,0,180,0, 
0.3967,74.7,-55.8,-37.5,32.7,21.3,-117.0,-1.5,0.9,-444.6,-36.6,-222.3,-150.9,36.0,-150.6,-1.5,-119.1,-6.9,-6.0,-291.6,-101.4,-0.9,1.2,-41.7,-70.8,0,714,0,181,0, 
0.4000,87.0,-58.5,-42.9,27.3,15.0,-121.2,0.0,-3.0,6076.2,-45.3,-237.3,-162.0,33.9,-150.9,1.5,-116.1,-6.9,-5.7,-303.6,-110.7,-0.6,-2.4,-39.0,-68.4,0,720,0,182,0, 
0.4033,78.0,-86.7,-30.6,34.5,24.3,-116.4,-4.2,1.5,10151.7,-31.5,-222.3,-152.7,48.6,-151.5,-21.9,-128.7,-6.9,-5.7,-283.5,-104.1,-0.9,11.4,-44.4,-67.2,0,726,0,183,0, 
0.4067,57.0,-73.5,-44.1,24.0,13.5,-118.8,0.0,-3.9,5557.5,-39.0,-229.5,-165.6,38.7,-165.3,-6.9,-96.9,-6.6,-5.7,-291.9,-116.1,-0.6,-0.9,-27.9,-73.2,0,732,0,184,0, 
0.4100,70.8,-59.4,-22.5,44.7,32.4,-105.3,1.8,10.8,-1482.0,-18.6,-212.1,-139.5,62.1,-141.9,-10.8,-137.4,-6.9,-6.3,-267.6,-89.7,-0.6,19.8,-44.1,-60.9,0,738,0,185,0, 
0.4133,72.0,-72.9,-40.2,32.4,21.9,-115.2,0.9,2.1,-666.9,-26.1,-225.9,-150.6,37.5,-154.5,-10.5,-120.9,-6.9,-5.7,-286.8,-96.0,0.0,18.6,-43.5,-63.0,0,744,0,186,0, 
0.4167,82.8,-65.1,-40.8,26.7,17.4,-117.9,-4.8,-2.4,6520.8,-37.5,-233.7,-158.4,57.3,-150.3,0.3,-122.1,-6.6,-6.0,-288.9,-100.8,-0.6,4.8,-47.4,-70.5,0,750,0,187,0, 
0.4200,75.3,-77.4,-46.2,24.9,20.1,-116.4,-5.1,-3.9,10151.7,-35.4,-231.3,-152.7,23.1,-158.4,-21.0,-128.4,-7.5,-6.0,-285.3,-102.9,-0.6,7.8,-41.4,-72.0,0,756,0,188,0, 
0.4233,58.5,-62.4,-34.2,29.1,15.6,-118.5,-7.2,-2.4,5335.2,-36.0,-225.0,-152.1,31.5,-158.1,-10.8,-127.2,-6.9,-6.0,-282.0,-106.5,-0.6,5.4,-46.5,-80.1,0,762,0,189,0, 
0.4267,50.4,-80.4,-44.7,23.7,13.2,-119.4,0.3,-5.4,-889.2,-27.6,-225.0,-153.6,36.3,-161.4,-9.6,-116.1,-7.2,-5.7,-284.7,-102.9,-0.9,10.5,-37.2,-73.5,0,768,0,190,0, 
0.4300,65.4,-66.3,-30.9,30.9,20.1,-116.4,1.5,0.0,0.0,-30.6,-227.4,-149.7,33.3,-152.4,-13.8,-121.8,-7.2,-5.7,-282.6,-99.6,-0.6,19.2,-39.3,-70.2,0,774,0,191,0, 
0.4333,69.3,-79.8,-54.3,20.7,9.3,-120.0,3.0,-8.7,6817.2,-41.7,-237.6,-167.7,32.4,-161.1,-15.3,-116.4,-7.2,-6.0,-295.5,-108.3,0.0,4.5,-31.2,-81.0,0,780,0,192,0, 
0.4367,69.6,-75.0,-41.1,26.1,11.4,-124.8,-3.0,-4.5,10374.0,-35.7,-235.5,-166.5,31.8,-161.7,-21.0,-135.6,-7.2,-5.7,-290.1,-110.4,-0.3,-3.9,-48.3,-79.2,0,786,0,193,0, 
0.4400,60.6,-69.0,-41.4,24.6,10.5,-127.8,-5.7,-3.3,6076.2,-39.0,-230.4,-164.4,50.7,-157.8,0.3,-114.6,-7.2,-6.0,-288.6,-110.1,-0.6,2.7,-43.8,-73.8,0,792,0,194,0, 
0.4433,55.8,-66.0,-38.1,30.3,20.7,-115.8,3.3,3.3,-444.6,-26.4,-218.7,-154.2,24.6,-150.0,-6.9,-119.1,-6.6,-5.7,-272.4,-96.3,-0.6,12.9,-36.9,-66.9,0,798,0,195,0, 
0.4467,60.6,-79.8,-49.2,22.2,9.9,-125.1,-2.1,-6.3,296.4,-35.7,-237.3,-164.4,27.0,-159.9,-3.3,-102.6,-7.2,-5.4,-284.4,-101.1,-0.6,7.5,-32.1,-74.4,0,804,0,196,0, 
0.4500,73.5,-63.0,-36.9,32.4,15.3,-124.2,-3.6,-1.8,7261.8,-38.4,-234.3,-156.9,27.0,-156.0,-20.7,-133.2,-6.9,-6.0,-276.6,-95.4,-0.9,9.9,-48.0,-71.4,0,810,0,197,0, 
0.4533,76.5,-68.1,-45.6,26.4,10.2,-125.1,-8.7,-5.1,10077.6,-36.0,-228.3,-159.3,47.1,-151.5,-13.2,-125.4,-6.9,-5.7,-272.1,-100.5,-0.9,3.3,-44.7,-75.9,0,816,0,198,0, 
0.4567,58.2,-71.1,-43.8,27.3,12.0,-126.3,-4.5,-4.2,5038.8,-31.8,-228.0,-161.7,37.5,-152.1,-9.9,-116.7,-6.6,-6.0,-269.7,-95.4,-0.3,8.1,-36.6,-75.6,0,822,0,199,0, 
0.4600,48.6,-66.3,-40.2,32.4,19.8,-123.0,-3.3,0.6,-1037.4,-27.3,-223.5,-148.8,36.9,-153.9,-2.4,-123.9,-6.9,-5.7,-272.1,-87.0,-0.3,17.4,-45.0,-67.8,0,828,0,200,0, 
0.4633,61.2,-72.6,-39.0,35.1,21.3,-120.0,-0.6,2.1,-222.3,-29.1,-223.8,-146.1,33.0,-155.7,-3.9,-118.8,-6.0,-6.0,-270.9,-83.4,-0.6,12.6,-43.5,-66.3,0,834,0,201,0, 
0.4667,74.7,-64.8,-45.0,26.1,14.7,-128.4,-8.4,-4.2,6594.9,-34.2,-236.1,-158.1,42.3,-140.7,11.4,-122.4,-6.9,-5.4,-283.8,-96.6,-0.6,6.3,-56.4,-75.3,0,840,0,202,0, 
0.4700,65.1,-76.2,-44.1,30.9,18.0,-124.5,-4.8,0.3,9929.4,-32.7,-226.8,-152.1,36.6,-161.1,-4.2,-113.4,-6.9,-5.7,-271.5,-93.9,-0.6,9.3,-39.0,-69.0,0,846,0,203,0, 
0.4733,55.2,-69.9,-33.6,42.0,26.7,-116.4,0.0,10.2,4668.3,-20.7,-212.4,-140.4,40.2,-162.9,-17.1,-122.4,-6.9,-5.7,-253.2,-78.9,-0.9,18.9,-38.4,-61.8,0,852,0,204,0, 
0.4767,54.0,-58.2,-23.7,41.4,30.9,-112.8,-0.6,11.7,-2000.7,-13.2,-214.2,-141.0,48.9,-150.6,-3.0,-129.3,-7.2,-6.0,-247.2,-78.0,-0.6,24.6,-44.7,-60.6,0,858,0,205,0, 
0.4800,65.1,-65.7,-37.2,30.0,20.4,-115.8,-0.9,3.0,-1407.9,-26.7,-229.8,-149.4,39.6,-150.3,0.0,-116.4,-7.2,-5.4,-264.9,-87.6,-0.6,9.9,-37.8,-68.4,0,864,0,206,0, 
0.4833,82.8,-60.0,-33.9,29.7,18.0,-114.6,1.8,1.8,5261.1,-32.4,-223.5,-155.1,37.5,-147.3,-5.1,-126.0,-6.9,-6.3,-260.4,-86.1,-1.2,9.0,-29.7,-61.5,0,870,0,207,0, 
0.4867,81.0,-58.8,-35.7,27.3,15.0,-114.6,0.6,3.3,8373.3,-24.3,-225.6,-157.8,71.4,-146.1,6.9,-127.5,-6.9,-6.0,-258.9,-87.0,-0.9,9.6,-38.4,-68.1,0,876,0,208,0, 
0.4900,63.6,-67.2,-42.0,24.0,14.7,-115.2,1.5,4.8,2889.9,-14.4,-227.7,-157.5,23.4,-139.2,16.8,-123.3,-6.6,-6.0,-252.3,-90.6,-0.6,15.6,-38.4,-70.2,0,882,0,209,0, 
0.4933,54.9,-60.3,-36.0,27.6,13.8,-116.1,2.1,9.0,-3779.1,-17.4,-229.2,-152.7,57.0,-147.0,7.2,-123.6,-6.6,-5.7,-255.0,-87.9,-0.3,14.7,-37.8,-63.6,0,888,0,210,0, 
0.4967,64.8,-63.6,-39.3,26.4,13.2,-117.0,-3.3,1.5,-2889.9,-15.3,-228.9,-153.6,46.2,-146.7,5.1,-123.6,-6.9,-6.3,-254.4,-87.9,-0.6,22.2,-40.8,-57.6,0,894,0,211,0, 
0.5000,74.7,-61.2,-33.3,27.0,9.6,-121.8,-5.1,-1.5,4075.5,-22.8,-229.2,-153.0,53.7,-149.1,-5.1,-129.6,-7.2,-5.7,-255.6,-93.0,-0.9,10.8,-49.5,-63.9,0,900,0,212,0, 
0.5033,69.3,-67.2,-40.2,22.5,11.4,-124.8,-8.7,-4.5,7261.8,-20.7,-232.8,-162.9,37.8,-150.6,-9.0,-126.3,-7.2,-5.7,-255.3,-93.3,-0.3,12.6,-42.6,-63.9,0,906,0,213,0, 
0.5067,57.9,-65.7,-36.3,24.9,7.5,-124.2,-4.2,-0.9,2148.9,-19.2,-226.2,-161.4,45.9,-141.0,7.2,-120.0,-6.9,-6.0,-246.0,-98.7,-0.9,15.3,-42.3,-69.6,0,912,0,214,0, 
0.5100,54.3,-62.7,-39.0,20.7,8.1,-125.4,-5.7,-3.9,-4816.5,-21.9,-227.7,-159.6,43.2,-150.3,0.6,-109.2,-7.2,-5.7,-248.4,-101.7,-0.9,14.1,-37.2,-73.2,0,918,0,215,0, 
0.5133,65.4,-58.5,-28.8,27.9,12.3,-129.0,-7.2,-4.8,-3779.1,-26.7,-228.3,-158.7,48.6,-160.5,-15.3,-116.4,-6.6,-6.0,-246.3,-94.8,-0.6,8.7,-34.2,-74.7,0,924,0,216,0, 
0.5167,77.1,-62.4,-42.3,22.2,11.4,-127.8,-9.9,-7.8,3408.6,-15.9,-231.6,-164.7,31.2,-147.6,-7.2,-129.0,-6.9,-5.4,-246.0,-97.2,-0.6,13.8,-41.1,-75.6,0,930,0,217,0, 
0.5200,73.8,-49.2,-33.6,23.7,8.4,-135.0,-14.7,-8.1,6594.9,-24.9,-231.6,-164.1,42.3,-150.3,-3.3,-132.9,-6.6,-5.7,-247.8,-102.3,-1.2,5.1,-51.9,-83.1,0,936,0,218,0, 
0.5233,51.9,-89.4,-38.4,25.2,12.6,-130.8,-8.7,-6.3,1407.9,-16.2,-228.0,-154.5,53.7,-153.0,-2.7,-122.4,-6.9,-5.7,-245.1,-91.2,-0.9,18.6,-42.6,-77.7,0,942,0,219,0, 
0.5267,50.4,-67.5,-36.0,23.7,14.4,-127.8,-5.1,-2.7,-5409.3,-23.7,-226.5,-160.8,41.4,-155.7,4.5,-110.4,-6.9,-5.7,-242.7,-97.8,-0.6,12.3,-42.6,-84.9,0,948,0,220,0, 
0.5300,64.8,-56.4,-35.7,25.2,11.1,-127.8,-11.4,1.2,-4446.0,-26.4,-238.5,-164.7,26.7,-148.8,-3.0,-124.5,-7.2,-5.4,-258.6,-98.7,-0.9,11.1,-46.5,-79.5,0,954,0,221,0, 
0.5333,68.1,-76.2,-42.3,28.8,16.2,-125.7,-9.0,-1.5,2593.5,-23.1,-228.3,-158.1,31.5,-158.7,-1.5,-128.1,-6.9,-6.3,-249.6,-95.1,-0.6,14.1,-53.4,-75.3,0,960,0,222,0, 
0.5367,72.3,-69.9,-40.2,26.7,13.8,-123.0,-9.9,-3.9,5928.0,-21.9,-227.7,-155.4,46.8,-150.3,2.1,-128.1,-6.9,-6.3,-242.4,-93.0,-0.9,9.9,-51.9,-75.0,0,966,0,223,0, 
0.5400,61.8,-56.1,-24.9,32.7,15.9,-118.8,-6.9,-1.2,889.2,-25.8,-222.9,-161.1,45.0,-147.6,8.1,-120.6,-6.9,-6.0,-240.6,-90.6,-0.3,14.7,-42.6,-70.8,0,972,0,224,0, 
0.5433,55.5,-63.6,-33.6,37.5,25.5,-113.4,-2.4,0.3,-5483.4,-11.7,-210.9,-149.1,32.1,-144.9,-1.2,-117.3,-7.2,-6.0,-228.3,-86.1,-0.9,27.0,-36.0,-61.5,0,978,0,225,0, 
0.5467,63.9,-54.0,-27.6,41.4,27.0,-108.9,-2.4,1.5,-4446.0,-14.1,-213.3,-140.7,47.4,-145.8,-7.5,-127.2,-7.2,-6.3,-228.3,-84.3,-0.9,29.1,-43.2,-59.7,0,984,0,226,0, 
0.5500,74.1,-63.9,-29.7,38.1,24.6,-110.7,0.0,0.9,2964.0,-22.2,-221.7,-145.5,47.4,-151.5,-6.3,-117.3,-6.9,-6.0,-236.7,-85.5,-0.9,24.3,-36.6,-62.1,0,990,0,227,0, 
0.5533,66.9,-64.5,-30.9,36.9,21.0,-117.6,-3.6,0.3,6076.2,-22.2,-221.1,-152.4,23.7,-150.6,1.2,-114.9,-6.9,-6.3,-235.8,-93.9,-0.9,20.4,-40.5,-67.2,0,996,0,228,0, 
0.5567,63.3,-48.6,-23.4,38.7,22.8,-117.3,-6.6,1.2,1778.4,-19.5,-213.3,-144.0,54.0,-138.0,2.1,-122.7,-6.9,-5.4,-225.6,-90.0,-0.6,21.3,-39.9,-67.5,0,1002,0,229,0, 
0.5600,55.8,-49.5,-18.6,40.8,24.0,-116.7,-0.6,2.7,-4890.6,-14.4,-217.2,-150.6,30.3,-149.7,5.1,-104.7,-6.9,-5.7,-227.7,-93.6,-0.6,22.5,-27.3,-68.4,0,1008,0,230,0, 
0.5633,61.8,-70.2,-34.5,34.8,22.5,-117.3,-6.9,-1.8,-3260.4,-10.8,-226.8,-153.9,43.5,-149.1,-12.0,-125.7,-7.2,-5.4,-230.7,-92.4,-0.3,23.4,-40.5,-65.4,0,1014,0,231,0, 
0.5667,80.4,-53.1,-25.2,35.1,20.7,-118.2,-11.7,-0.9,4594.2,-19.8,-224.4,-160.2,52.5,-143.7,-9.6,-136.2,-6.9,-6.0,-231.6,-96.3,-0.6,18.0,-45.3,-69.0,0,1020,0,232,0, 
0.5700,71.7,-59.7,-32.7,31.8,12.3,-125.7,-13.8,-7.8,8225.1,-20.4,-231.3,-162.9,45.3,-142.5,-1.2,-127.5,-6.6,-5.4,-239.1,-97.8,-0.6,19.2,-45.6,-71.4,0,1026,0,233,0, 
0.5733,62.1,-42.3,-31.5,29.4,12.9,-126.3,-4.2,-9.0,3408.6,-17.1,-223.5,-147.6,20.1,-142.8,-3.3,-105.0,-6.6,-5.7,-235.5,-95.1,-1.2,18.9,-24.6,-71.1,0,1032,0,234,0, 
0.5767,63.6,-39.0,-24.6,36.0,21.0,-117.6,-3.6,0.3,-2148.9,-12.9,-214.5,-136.5,52.5,-138.3,-7.5,-124.8,-6.6,-5.7,-228.0,-86.4,-0.3,27.0,-32.7,-64.5,0,1038,0,235,0, 
0.5800,67.5,-68.7,-17.1,42.3,29.4,-106.2,-2.7,3.9,0.0,8.4,-205.5,-133.8,79.5,-142.5,-3.0,-135.6,-6.9,-5.7,-209.4,-77.4,-0.9,38.1,-42.0,-54.3,0,1044,0,236,0, 
0.5833,83.1,-48.9,-21.9,33.6,19.2,-111.3,-7.2,-3.0,7706.4,-27.0,-218.7,-144.6,48.9,-143.4,-1.8,-126.6,-7.2,-5.7,-228.0,-91.2,-0.3,22.2,-39.9,-64.8,0,1050,0,237,0, 
0.5867,73.8,-68.7,-35.4,25.8,14.4,-112.5,-5.4,-7.8,12004.2,-21.6,-223.8,-143.7,45.3,-148.2,-6.0,-124.8,-6.6,-5.7,-228.9,-90.6,-0.9,21.9,-38.4,-62.4,0,1056,0,238,0, 
0.5900,60.6,-50.4,-39.3,19.5,12.0,-116.4,-3.0,-7.8,8151.0,-19.5,-230.7,-153.3,61.5,-148.8,-9.0,-130.8,-7.2,-6.0,-244.8,-99.0,-0.9,22.2,-46.5,-67.2,0,1062,0,239,0, 
0.5933,54.9,-81.9,-41.4,21.0,10.8,-110.7,-1.5,-7.8,3112.2,-11.7,-229.2,-150.9,21.6,-151.2,0.6,-112.2,-6.9,-6.0,-237.0,-96.0,-0.9,26.1,-30.3,-63.9,0,1068,0,240,0, 
0.5967,67.5,-60.0,-30.0,26.7,21.0,-102.0,0.9,-0.3,5705.7,-25.8,-226.2,-156.6,37.2,-156.6,-13.5,-127.8,-6.9,-5.7,-235.5,-96.9,-0.6,18.9,-31.5,-62.7,0,1074,0,241,0, 
0.6000,75.9,-81.3,-44.1,20.1,18.0,-104.1,-3.6,-6.9,14523.6,-24.3,-230.7,-166.5,28.5,-160.2,-18.6,-138.0,-7.2,-6.0,-239.4,-102.9,-0.6,16.8,-39.0,-62.7,0,1080,0,242,0, 
0.6033,74.7,-73.5,-43.5,18.3,15.3,-118.2,-10.5,-8.7,19784.7,-27.6,-234.0,-166.2,29.4,-160.2,-13.2,-132.0,-6.9,-6.3,-242.1,-103.8,-0.3,16.8,-56.4,-63.0,0,1086,0,243,0, 
0.6067,65.4,-63.9,-33.9,29.7,26.1,-110.4,-5.7,0.3,16153.8,-14.4,-218.1,-150.9,31.2,-156.0,-8.1,-132.3,-6.9,-6.0,-226.8,-88.2,-0.9,21.6,-44.4,-59.1,0,1092,0,244,0, 
0.6100,57.9,-63.3,-34.8,28.2,23.4,-112.8,-7.8,2.1,10966.8,-16.5,-217.2,-152.7,45.6,-153.9,-3.6,-130.2,-6.9,-6.3,-223.8,-90.3,-0.3,23.1,-46.5,-64.2,0,1098,0,245,0, 
0.6133,66.0,-72.6,-39.6,22.2,15.6,-116.7,-6.3,-3.9,12967.5,-26.4,-231.3,-159.0,24.3,-160.5,-9.0,-133.2,-6.6,-5.7,-231.9,-97.8,-0.9,15.0,-54.3,-68.4,0,1104,0,246,0, 
0.6167,85.2,-74.7,-46.5,20.4,13.8,-120.9,-11.7,-4.8,21414.9,-28.2,-228.6,-157.5,33.6,-156.0,-3.3,-129.6,-6.9,-5.7,-236.7,-96.0,-0.3,10.8,-49.8,-64.8,0,1110,0,247,0, 
0.6200,76.5,-61.8,-28.2,32.4,22.2,-116.1,-9.0,0.0,25490.4,-28.2,-221.4,-152.1,29.4,-162.9,-18.0,-133.2,-6.9,-5.7,-225.6,-93.9,-0.6,9.0,-44.4,-66.0,0,1116,0,248,0, 
0.6233,61.8,-63.6,-37.2,27.3,15.3,-116.1,-9.0,1.2,20896.2,-26.7,-222.6,-150.6,50.4,-156.0,-6.9,-127.5,-7.2,-6.0,-229.8,-92.1,-0.9,15.9,-47.7,-64.8,0,1122,0,249,0, 
0.6267,62.1,-56.7,-34.8,27.6,16.8,-113.7,-7.2,3.3,14375.4,-32.1,-219.0,-147.9,29.4,-155.4,-12.0,-123.9,-6.9,-6.0,-230.7,-89.7,-0.9,14.4,-48.3,-63.9,0,1128,0,250,0, 
0.6300,59.1,-78.0,-39.3,27.9,17.7,-117.9,-6.6,0.0,15412.8,-27.9,-221.7,-151.2,22.8,-159.9,-0.6,-127.5,-6.9,-5.4,-228.3,-88.2,-0.3,15.3,-48.9,-62.7,0,1134,0,251,0, 
0.6333,71.4,-75.6,-43.5,27.0,17.4,-114.3,-10.5,-0.3,21859.5,-31.5,-230.7,-153.9,31.2,-169.8,-25.8,-145.5,-7.2,-6.0,-242.4,-96.6,-0.6,13.8,-51.9,-61.5,0,1140,0,252,0, 
0.6367,64.8,-74.4,-41.4,26.4,14.4,-115.5,-5.7,2.4,24453.0,-33.9,-228.0,-155.1,29.7,-161.1,-10.2,-126.6,-6.9,-5.7,-239.7,-98.1,-0.6,12.9,-47.4,-64.5,0,1146,0,253,0, 
0.6400,58.2,-56.1,-25.2,36.3,24.9,-111.0,-4.2,12.3,18525.0,-27.0,-211.8,-140.1,35.1,-167.1,-16.8,-127.8,-7.2,-6.0,-220.8,-87.0,-0.9,20.1,-39.9,-60.6,0,1152,0,254,0, 
0.6433,54.3,-65.4,-30.3,39.3,26.7,-106.8,-3.9,12.3,10892.7,-16.5,-209.4,-139.2,43.2,-153.6,-6.6,-125.1,-6.6,-5.7,-210.6,-89.7,-0.9,26.4,-42.6,-58.8,0,1158,0,255,0, 
0.6467,61.8,-66.9,-32.7,34.2,22.5,-111.6,-5.1,8.7,11559.6,-30.0,-220.8,-151.8,37.5,-150.0,-2.4,-133.5,-6.6,-6.0,-226.8,-99.6,-0.9,21.9,-41.4,-61.2,0,1164,0,0,0, 
0.6500,67.8,-74.7,-38.1,32.1,18.0,-111.0,-3.0,1.8,18376.8,-28.8,-222.6,-149.7,33.3,-163.2,-15.9,-119.4,-6.9,-6.0,-227.7,-98.4,-1.2,16.2,-30.9,-61.8,0,1170,0,1,0, 
0.6533,69.0,-60.9,-24.6,38.1,22.8,-111.3,-7.2,5.7,20748.0,-20.4,-207.0,-141.6,36.6,-153.6,-15.6,-143.7,-6.9,-6.0,-210.9,-94.8,-0.9,18.9,-48.0,-63.0,0,1176,0,2,0, 
0.6567,54.3,-57.3,-20.7,35.7,18.6,-112.8,-3.0,4.2,15264.6,-20.4,-207.9,-151.8,44.4,-146.1,1.2,-121.5,-7.2,-5.7,-206.4,-101.1,-0.9,20.4,-36.6,-64.2,0,1182,0,3,0, 
0.6600,54.6,-72.6,-38.7,29.1,19.8,-113.1,-5.4,5.1,8447.4,-10.5,-214.2,-153.9,47.4,-150.9,1.5,-132.3,-7.2,-6.0,-208.5,-98.4,-0.9,26.4,-41.1,-64.2,0,1188,0,4,0, 
0.6633,69.6,-56.1,-33.9,27.6,14.7,-111.6,-2.4,5.7,9114.3,-27.9,-228.6,-153.0,57.6,-138.6,8.4,-116.7,-6.6,-5.7,-219.3,-105.0,-0.9,15.0,-33.9,-68.4,0,1194,0,5,0, 
0.6667,76.8,-73.8,-41.1,28.5,15.3,-113.4,-6.6,2.7,15561.0,-16.8,-226.8,-147.0,35.4,-150.0,-3.0,-129.3,-6.9,-6.0,-222.9,-100.2,-0.9,20.1,-40.8,-58.2,0,1200,0,6,0, 
0.6700,76.2,-66.9,-35.1,31.2,16.5,-116.1,-7.8,4.8,18302.7,-14.1,-221.1,-146.7,45.0,-142.5,-5.1,-127.2,-7.2,-5.4,-216.3,-105.9,-0.6,22.5,-38.7,-53.4,0,1206,0,7,0, 
0.6733,55.5,-66.6,-35.4,34.8,18.9,-111.6,-3.3,6.9,12597.0,-9.0,-216.3,-138.3,42.0,-147.9,2.1,-122.7,-6.9,-6.0,-214.2,-94.2,-0.6,23.4,-30.3,-52.2,0,1212,0,8,0, 
0.6767,65.7,-54.0,-31.8,30.9,17.1,-111.6,-6.0,5.4,5631.6,-21.6,-220.8,-153.0,50.1,-131.1,7.2,-123.6,-7.2,-6.0,-212.1,-100.8,-0.6,28.5,-33.6,-54.3,0,1218,0,9,0, 
0.6800,70.8,-63.3,-35.7,37.8,24.3,-112.8,-4.2,8.4,6520.8,-13.5,-216.6,-143.7,38.1,-141.0,3.9,-124.5,-6.9,-6.0,-216.6,-93.3,-0.6,25.5,-34.5,-54.6,0,1224,0,10,0, 
0.6833,78.6,-69.6,-44.1,26.1,13.5,-114.9,-10.2,1.2,12967.5,-26.7,-229.2,-162.6,42.9,-146.1,13.2,-121.8,-6.6,-5.7,-228.0,-110.4,-0.3,18.9,-40.8,-58.2,0,1230,0,11,0, 
0.6867,75.9,-58.5,-29.4,39.3,22.8,-111.6,-7.2,10.2,15783.3,-16.8,-216.9,-152.4,42.9,-143.1,1.5,-137.7,-6.6,-5.7,-210.9,-98.7,-0.3,23.7,-40.2,-60.6,0,1236,0,12,0, 
0.6900,65.7,-50.1,-18.9,46.5,32.1,-105.3,-1.8,16.8,9707.1,-11.7,-200.7,-140.1,54.3,-153.9,-4.2,-128.1,-6.9,-6.0,-186.3,-89.4,-0.6,33.3,-31.2,-53.4,0,1242,0,13,0, 
0.6933,57.3,-43.5,-3.9,47.1,33.6,-104.4,1.5,17.7,3630.9,-10.8,-210.6,-141.3,41.1,-150.6,16.5,-113.1,-6.9,-6.3,-200.7,-90.3,-0.9,34.2,-32.7,-51.9,0,1248,0,14,0, 
0.6967,60.9,-72.0,-30.9,37.8,28.2,-106.2,6.3,10.5,4594.2,-15.3,-213.0,-146.4,50.4,-157.2,1.8,-106.2,-6.6,-5.4,-207.9,-90.6,-0.6,26.1,-23.7,-50.4,0,1254,0,15,0, 
0.7000,85.8,-51.3,-13.5,47.4,39.0,-104.1,2.4,20.1,11189.1,-10.8,-205.2,-141.3,54.0,-143.1,-2.4,-144.3,-6.6,-6.0,-201.3,-84.0,-0.3,32.7,-42.6,-43.8,0,1260,0,16,0, 
0.7033,72.0,-65.7,-30.0,39.3,29.7,-108.9,-0.9,12.3,14004.9,-12.6,-210.9,-143.4,50.7,-145.2,17.1,-125.7,-7.2,-6.0,-205.2,-88.5,-0.6,30.3,-38.7,-48.0,0,1266,0,17,0, 
0.7067,70.8,-34.8,0.6,51.6,40.2,-104.4,1.5,23.1,8447.4,-12.3,-201.0,-139.2,52.2,-145.2,7.2,-130.2,-6.9,-6.0,-198.6,-82.2,-0.9,33.3,-40.5,-46.5,0,1272,0,18,0, 
0.7100,52.5,-70.5,-24.6,42.3,36.3,-108.6,2.4,14.7,2593.5,-11.4,-203.7,-139.5,49.5,-156.0,0.3,-125.1,-7.2,-5.4,-198.0,-86.1,-0.3,30.3,-30.9,-48.6,0,1278,0,19,0, 
0.7133,64.2,-60.9,-21.9,45.6,35.1,-108.9,0.3,16.8,3630.9,-17.7,-203.4,-136.2,43.8,-153.3,8.4,-126.0,-7.2,-5.7,-195.0,-84.0,-0.9,27.3,-40.2,-52.2,0,1284,0,20,0, 
0.7167,77.7,-66.3,-37.5,30.6,18.6,-117.0,-0.9,7.2,10077.6,-33.0,-223.2,-155.7,54.3,-154.5,1.2,-122.1,-6.9,-6.3,-216.0,-99.9,-0.6,9.9,-34.8,-61.2,0,1290,0,21,0, 
0.7200,72.3,-66.9,-37.2,28.8,20.4,-121.5,-6.3,9.0,13782.6,-30.6,-227.4,-154.8,21.0,-153.3,0.9,-131.4,-6.9,-5.7,-216.9,-99.3,-0.9,5.7,-41.4,-60.9,0,1296,0,22,0, 
0.7233,64.5,-33.0,-21.6,42.6,31.8,-113.4,-2.1,19.5,8076.9,-17.4,-206.7,-141.3,46.2,-144.3,0.3,-148.8,-7.2,-6.3,-197.4,-87.6,-0.9,24.3,-46.5,-52.8,0,1302,0,23,0, 
0.7267,54.3,-61.2,-21.3,41.7,30.6,-106.8,-0.9,19.5,1630.2,-20.4,-206.7,-134.7,55.8,-150.3,-9.9,-133.5,-6.6,-6.3,-193.8,-89.1,-0.6,31.2,-40.2,-52.2,0,1308,0,24,0, 
0.7300,68.1,-58.5,-33.9,34.5,28.5,-110.7,-1.8,14.4,2741.7,-21.6,-221.7,-141.3,34.8,-144.3,3.0,-122.1,-6.9,-6.0,-211.8,-90.6,-0.6,13.8,-48.3,-57.9,0,1314,0,25,0, 
0.7333,84.9,-49.2,-25.2,37.5,30.9,-108.6,-3.9,18.3,9484.8,-25.2,-215.7,-151.8,52.8,-141.0,-9.3,-151.8,-6.6,-5.7,-208.8,-87.3,-0.9,19.8,-49.8,-52.5,0,1320,0,26,0, 
0.7367,71.1,-65.1,-39.9,31.8,29.4,-111.0,-6.3,10.5,12522.9,-24.3,-218.7,-150.9,29.1,-150.9,-3.3,-142.5,-7.2,-6.0,-207.9,-89.4,-0.9,10.5,-46.5,-58.2,0,1326,0,27,0, 
0.7400,58.5,-62.7,-31.5,40.8,33.9,-107.1,-2.1,11.1,7410.0,-21.0,-214.2,-143.7,41.7,-150.9,-19.2,-141.3,-7.2,-6.0,-204.3,-81.6,-0.6,25.2,-45.0,-51.3,0,1332,0,28,0, 
0.7433,54.3,-62.7,-33.3,36.3,35.1,-104.7,0.6,11.1,889.2,-19.2,-219.0,-141.6,39.6,-142.8,5.7,-145.5,-6.9,-6.3,-210.3,-79.8,-0.6,29.1,-38.4,-51.6,0,1338,0,29,0, 
0.7467,63.0,-53.7,-30.6,37.2,31.8,-106.2,-3.9,14.1,2074.8,-25.5,-216.6,-146.1,42.0,-140.7,-3.9,-145.8,-6.9,-5.7,-209.1,-83.7,-0.6,21.9,-45.6,-53.4,0,1344,0,30,0, 
0.7500,75.9,-65.7,-46.5,26.4,24.0,-109.5,-3.6,7.2,8892.0,-31.5,-225.0,-152.4,36.3,-150.6,1.8,-123.0,-7.2,-5.7,-219.0,-90.9,-0.9,15.3,-37.2,-57.6,0,1350,0,31,0, 
0.7533,75.3,-58.8,-18.3,39.3,33.6,-108.0,-0.9,15.3,11856.0,-25.5,-210.6,-137.1,43.2,-144.0,-10.8,-140.1,-6.6,-5.7,-204.3,-84.9,-0.6,10.8,-45.0,-59.1,0,1356,0,32,0, 
0.7567,64.5,-51.6,-33.6,38.1,37.8,-100.2,1.2,15.9,6891.3,-15.9,-209.4,-132.9,55.2,-138.6,-0.6,-131.4,-6.9,-6.0,-206.1,-72.9,-0.6,24.6,-34.5,-51.6,0,1362,0,33,0, 
0.7600,63.0,-43.5,-26.7,41.1,36.3,-102.9,-5.1,15.0,222.3,-16.2,-208.5,-141.9,48.6,-120.3,18.9,-132.6,-6.6,-5.4,-199.5,-79.8,-0.3,20.1,-50.1,-55.8,0,1368,0,34,0, 
0.7633,70.5,-51.6,-27.3,40.8,36.9,-98.7,-1.8,13.8,741.0,-11.4,-207.0,-139.2,53.4,-130.8,4.2,-139.8,-6.6,-5.4,-195.0,-75.3,-0.6,29.1,-42.6,-54.6,0,1374,0,35,0, 
0.7667,78.6,-46.2,-23.1,45.6,37.2,-99.0,2.7,14.4,7706.4,-5.7,-207.6,-135.0,75.3,-147.6,-27.6,-142.8,-6.9,-6.0,-195.6,-75.6,-1.2,26.4,-39.9,-51.9,0,1380,0,36,0, 
0.7700,78.6,-36.9,-19.2,42.0,32.7,-105.3,-4.8,15.6,10818.6,-18.9,-209.7,-139.5,61.8,-133.2,-15.6,-150.3,-6.9,-5.7,-196.2,-85.5,-0.6,17.7,-51.6,-58.2,0,1386,0,37,0, 
0.7733,60.9,-31.8,-17.7,43.5,36.0,-99.0,3.3,14.7,6298.5,1.5,-203.7,-129.9,47.1,-137.4,-12.6,-144.0,-7.2,-5.7,-190.8,-70.8,-0.9,30.3,-42.0,-59.4,0,1392,0,38,0, 
0.7767,51.9,-71.1,-27.3,40.2,31.2,-96.6,9.9,8.7,-296.4,-5.4,-205.8,-130.5,72.0,-132.3,6.9,-126.6,-6.6,-6.3,-188.4,-75.6,-0.3,31.5,-29.4,-53.7,0,1398,0,39,0, 
0.7800,57.0,-60.9,-27.0,38.7,30.3,-101.4,3.0,7.5,963.3,-10.2,-209.1,-133.8,55.2,-142.2,-6.0,-133.8,-7.2,-5.7,-194.7,-75.0,-0.6,31.2,-33.3,-52.8,0,1404,0,40,0, 
0.7833,69.0,-66.6,-33.0,28.5,21.0,-110.1,-4.2,-0.9,7854.6,-27.6,-217.5,-139.8,53.7,-144.0,-5.4,-130.2,-6.6,-6.3,-201.9,-86.7,-0.9,15.6,-42.6,-58.5,0,1410,0,41,0, 
0.7867,68.4,-64.5,-26.1,27.3,22.8,-104.4,-1.8,6.3,11189.1,-22.5,-222.0,-140.1,46.8,-148.2,0.3,-125.4,-6.9,-6.0,-212.7,-83.1,-0.9,20.1,-39.6,-53.1,0,1416,0,42,0, 
0.7900,55.2,-69.9,-35.4,31.8,30.3,-102.3,0.6,9.3,6372.6,-7.8,-211.8,-129.0,54.3,-141.3,5.7,-138.0,-6.9,-5.7,-202.2,-70.5,-0.3,31.2,-44.7,-53.1,0,1422,0,43,0, 
0.7933,65.1,-51.9,-33.6,31.8,26.7,-105.3,-0.9,10.2,370.5,-14.4,-212.7,-143.4,45.3,-127.8,16.8,-131.4,-7.2,-5.7,-206.1,-82.2,-0.6,27.0,-44.1,-55.5,0,1428,0,44,0, 
0.7967,69.3,-58.2,-35.1,28.8,23.4,-111.0,-0.6,7.8,1407.9,-23.1,-214.2,-153.6,52.5,-138.3,12.9,-119.4,-6.6,-6.0,-209.7,-89.7,-0.9,21.9,-34.2,-59.1,0,1434,0,45,0, 
0.8000,76.8,-70.5,-45.6,27.0,21.3,-106.5,1.5,3.0,8521.5,-19.2,-220.2,-155.7,59.4,-139.8,5.1,-122.1,-7.2,-5.7,-208.8,-90.9,-1.2,19.5,-37.8,-56.1,0,1440,0,46,0, 
0.8033,79.8,-45.0,-21.3,39.3,30.6,-101.1,2.1,13.8,11559.6,-11.1,-209.4,-142.2,52.2,-132.9,-1.5,-142.2,-6.3,-5.1,-198.0,-81.9,-0.3,34.2,-42.3,-48.9,0,1446,0,47,0, 
0.8067,61.5,-57.6,-34.8,35.4,33.9,-98.4,4.8,11.1,7113.6,-6.0,-206.4,-135.0,54.3,-140.1,-0.6,-130.2,-7.2,-6.0,-194.4,-80.4,-0.9,34.8,-30.6,-48.3,0,1452,0,48,0, 
0.8100,69.0,-33.3,-18.3,43.5,39.9,-97.8,7.8,21.3,741.0,-7.2,-201.0,-133.2,76.8,-128.4,3.6,-133.2,-6.6,-6.0,-188.1,-77.7,-0.9,40.2,-38.7,-46.8,0,1458,0,49,0, 
0.8133,73.2,-67.8,-27.6,41.4,38.4,-100.5,3.9,11.7,1482.0,-4.8,-203.1,-137.7,68.1,-128.1,9.3,-138.0,-6.9,-5.4,-185.4,-78.0,-1.2,31.8,-40.5,-49.8,0,1464,0,50,0, 
0.8167,81.0,-60.9,-33.6,36.3,33.0,-102.3,7.2,8.1,8225.1,-7.8,-210.3,-139.2,53.7,-142.5,3.6,-127.5,-7.2,-5.7,-192.6,-78.0,-0.3,28.5,-33.6,-52.8,0,1470,0,51,0, 
0.8200,71.7,-62.4,-33.6,35.7,34.8,-102.3,2.1,6.9,12152.4,-13.5,-211.5,-132.0,50.4,-142.8,1.8,-133.5,-6.3,-6.0,-195.9,-83.7,-0.3,22.5,-35.1,-54.9,0,1476,0,52,0, 
0.8233,66.6,-47.4,-18.0,53.1,46.8,-94.8,5.4,16.2,6891.3,-5.7,-193.8,-120.9,75.6,-135.0,3.6,-139.2,-6.9,-5.7,-180.6,-69.9,-0.6,38.1,-40.5,-57.3,0,1482,0,53,0, 
0.8267,63.6,-58.2,-27.6,43.2,41.1,-96.6,6.0,12.0,1037.4,-15.0,-205.2,-141.0,42.3,-141.3,18.0,-120.9,-6.9,-5.7,-196.8,-82.5,-0.9,31.2,-33.0,-59.4,0,1488,0,54,0, 
0.8300,74.4,-37.5,-14.7,58.5,50.1,-93.3,2.7,24.0,2148.9,-12.3,-195.0,-131.1,49.8,-137.1,-6.6,-153.0,-6.9,-5.7,-190.2,-72.6,-0.9,36.9,-52.2,-45.6,0,1494,0,55,0, 
0.8333,75.3,-37.2,-6.9,52.2,43.8,-100.5,0.9,15.3,8669.7,-29.1,-209.1,-137.1,68.7,-144.3,7.5,-131.7,-7.2,-5.7,-201.9,-82.2,-0.6,18.9,-39.3,-47.7,0,1500,0,56,0, 
0.8367,71.7,-67.2,-36.3,50.1,46.2,-94.5,2.1,13.8,12078.3,-15.9,-201.9,-122.1,36.9,-145.2,4.2,-142.8,-7.2,-5.7,-198.9,-70.5,-0.6,30.9,-40.5,-39.9,0,1506,0,57,0, 
0.8400,65.1,-53.7,-27.0,47.4,45.6,-93.3,5.1,15.6,6965.4,-19.2,-206.7,-133.5,48.0,-139.2,12.0,-130.8,-6.6,-6.0,-199.5,-76.8,-0.6,25.8,-38.4,-47.7,0,1512,0,58,0, 
0.8433,66.6,-44.1,-22.8,53.1,51.0,-92.7,1.8,21.9,889.2,-0.9,-195.9,-126.9,63.3,-135.0,6.9,-142.2,-6.9,-6.3,-188.1,-77.4,-0.3,42.0,-44.7,-54.0,0,1518,0,59,0, 
0.8467,70.5,-51.0,-28.2,43.2,39.9,-96.9,2.1,13.2,1556.1,-19.8,-207.0,-131.7,53.4,-136.8,11.4,-134.1,-7.2,-5.7,-201.6,-80.4,-0.9,33.3,-39.9,-52.8,0,1524,0,60,0, 
0.8500,79.8,-51.3,-33.6,36.6,33.0,-102.3,2.1,7.5,8151.0,-33.0,-213.9,-143.4,54.3,-141.0,9.6,-115.8,-6.9,-6.0,-207.6,-91.8,-0.9,20.1,-24.6,-54.6,0,1530,0,61,0, 
0.8533,80.4,-50.1,-30.9,40.2,35.4,-102.6,-1.2,7.5,11411.4,-21.9,-211.2,-137.1,44.7,-133.5,8.1,-144.9,-6.6,-6.3,-200.4,-83.1,-0.3,22.8,-42.0,-52.2,0,1536,0,62,0, 
0.8567,72.3,-36.3,-26.1,44.4,39.3,-95.1,3.0,14.4,7187.7,-8.7,-204.9,-129.9,48.0,-126.3,11.4,-149.1,-6.9,-6.0,-192.6,-75.6,-0.9,39.3,-47.7,-51.6,0,1542,0,63,0, 
0.8600,57.3,-53.4,-16.5,47.1,40.2,-93.0,8.4,17.7,1259.7,-2.7,-191.4,-123.3,76.2,-141.6,-1.2,-142.2,-6.6,-5.7,-179.4,-76.8,0.0,38.4,-30.9,-46.5,0,1548,0,64,0, 
0.8633,78.0,-22.5,-26.4,46.8,38.7,-97.2,3.0,19.2,2074.8,-9.6,-192.6,-126.6,69.0,-126.0,-3.0,-161.1,-7.2,-5.7,-188.7,-81.3,-0.9,36.0,-51.6,-53.4,0,1554,0,65,0, 
0.8667,84.0,-43.5,-7.5,52.5,39.9,-96.6,3.3,18.3,8521.5,-14.1,-194.4,-129.0,63.9,-137.4,0.3,-157.2,-6.6,-5.7,-182.1,-74.4,-0.9,36.0,-47.4,-48.6,0,1560,0,66,0, 
0.8700,81.0,-69.0,-32.4,42.0,32.4,-100.8,1.5,10.5,11707.8,-12.6,-197.4,-133.8,56.7,-129.3,17.4,-129.6,-6.6,-5.7,-189.9,-82.2,-0.6,29.1,-36.0,-60.6,0,1566,0,67,0, 
0.8733,64.5,-48.3,-16.5,50.1,42.3,-93.0,6.9,18.9,7335.9,-1.2,-187.2,-119.7,74.1,-131.4,8.4,-154.2,-6.9,-5.4,-177.3,-77.7,-0.6,37.5,-36.3,-53.1,0,1572,0,68,0, 
0.8767,61.2,-56.1,-24.0,42.0,34.8,-103.2,6.0,11.7,1185.6,-15.0,-195.9,-127.8,73.2,-132.6,14.7,-132.3,-7.2,-6.0,-191.7,-81.9,-0.6,32.7,-32.7,-51.6,0,1578,0,69,0, 
0.8800,73.8,-49.8,-22.8,39.3,33.9,-102.0,7.2,15.6,1704.3,-16.8,-207.3,-132.3,52.2,-131.7,3.6,-147.0,-6.6,-5.4,-206.1,-82.8,-0.6,34.5,-31.8,-48.0,0,1584,0,70,0, 
0.8833,79.8,-65.7,-41.7,28.2,24.3,-107.7,2.1,8.4,8299.2,-24.6,-236.7,-153.9,45.6,-134.1,14.7,-146.7,-6.3,-6.3,-230.1,-103.5,-0.6,20.7,-37.5,-56.1,0,1590,0,71,0, 
0.8867,77.1,-54.0,-32.4,34.2,28.5,-108.6,-2.7,11.7,11411.4,-20.1,-225.6,-155.7,70.8,-135.0,-0.3,-157.2,-6.9,-5.7,-218.1,-103.2,-0.6,22.5,-47.4,-56.1,0,1596,0,72,0, 
0.8900,70.2,-40.8,-13.2,45.3,36.9,-105.0,0.0,15.0,6817.2,-7.8,-182.1,-120.9,71.7,-125.7,16.2,-156.0,-7.2,-6.0,-172.5,-82.8,-1.2,28.2,-43.8,-58.8,0,1602,0,73,0, 
0.8933,60.3,-36.6,-15.3,48.0,37.5,-102.9,-2.4,16.8,592.8,1.8,-180.6,-116.7,81.3,-133.8,-3.0,-150.6,-6.9,-6.0,-175.8,-72.9,-0.6,34.5,-43.5,-56.1,0,1608,0,74,0, 
0.8967,70.2,-51.9,-30.9,32.4,28.8,-111.0,-10.5,9.0,1111.5,-8.7,-207.9,-151.2,50.7,-124.5,26.1,-152.4,-6.9,-6.3,-198.6,-97.8,-0.6,18.3,-49.8,-67.5,0,1614,0,75,0, 
0.9000,80.4,-61.2,-23.4,39.6,34.5,-112.2,-11.1,9.3,6817.2,-4.8,-186.6,-128.4,66.0,-132.3,15.0,-168.6,-6.9,-5.4,-174.3,-84.6,-0.9,17.1,-55.5,-64.8,0,1620,0,76,0, 
0.9033,68.1,-45.6,-28.8,34.8,29.7,-118.5,-17.7,1.5,10670.4,-12.9,-173.7,-119.7,68.7,-128.1,3.3,-160.2,-6.6,-6.0,-167.7,-89.1,-0.6,15.9,-55.2,-73.8,0,1626,0,77,0, 
0.9067,57.3,-50.4,-5.1,51.3,42.3,-102.0,1.2,14.4,5779.8,3.6,-167.1,-109.2,62.1,-138.6,-12.6,-147.3,-7.2,-6.0,-159.0,-80.4,-0.9,30.6,-36.0,-68.4,0,1632,0,78,0, 
0.9100,76.5,14.4,-15.6,42.6,30.3,-115.8,-9.3,12.9,-296.4,-16.2,-187.8,-129.6,-7.2,-120.9,-1.2,-168.0,-6.9,-5.7,-188.4,-99.0,-0.6,15.6,-54.0,-80.4,0,1638,0,79,0, 
0.9133,58.8,-93.0,-27.6,46.8,39.6,-107.7,-3.3,9.9,222.3,6.9,-167.1,-111.3,88.5,-134.7,5.1,-155.7,-6.9,-5.7,-163.5,-83.7,-0.6,27.0,-41.7,-63.9,0,1644,0,80,0, 
0.9167,82.5,-63.3,-22.2,45.0,32.4,-114.6,-7.5,8.1,6150.3,-14.7,-168.3,-108.3,89.4,-128.4,16.2,-153.0,-6.9,-5.7,-165.0,-88.8,-0.9,13.8,-48.6,-66.0,0,1650,0,81,0, 
0.9200,70.5,-65.4,-21.6,46.8,39.6,-110.7,0.0,10.2,9336.6,-10.2,-160.5,-111.3,54.6,-132.9,10.8,-147.0,-7.2,-6.0,-162.3,-83.7,-0.3,18.3,-34.2,-67.8,0,1656,0,82,0, 
0.9233,62.4,-44.7,-8.4,55.8,45.6,-105.6,-1.2,19.8,4890.6,-8.7,-152.1,-101.4,71.1,-142.8,-0.9,-150.6,-6.9,-6.0,-152.4,-85.8,-0.6,22.8,-43.8,-64.5,0,1662,0,83,0, 
0.9267,62.1,-45.3,-6.6,58.8,46.2,-103.2,1.5,24.6,-1333.8,-14.7,-135.9,-93.9,41.4,-130.2,3.9,-155.7,-6.9,-6.3,-141.6,-81.0,-0.6,23.1,-45.9,-63.9,0,1668,0,84,0, 
0.9300,69.0,-42.0,-14.1,50.4,38.1,-105.9,-1.8,19.2,-1037.4,-29.1,-156.3,-105.6,41.4,-142.2,-0.3,-155.7,-6.6,-5.7,-157.8,-96.6,-0.6,3.9,-44.7,-70.2,0,1674,0,85,0, 
0.9333,76.8,-56.1,-9.9,53.4,43.5,-103.5,2.1,20.7,5187.0,-21.9,-153.9,-107.7,69.0,-155.4,-11.1,-158.7,-6.9,-6.0,-156.3,-92.4,-0.6,8.1,-39.3,-64.8,0,1680,0,86,0, 
0.9367,70.5,-51.9,-22.5,41.4,35.7,-106.8,-2.1,15.3,8373.3,-33.6,-176.7,-115.5,47.4,-153.3,-2.7,-150.3,-7.2,-5.4,-174.6,-103.8,-0.9,-0.9,-46.5,-70.8,0,1686,0,87,0, 
0.9400,66.3,-41.1,-2.7,55.2,45.6,-99.9,-3.3,23.1,3927.3,-17.1,-140.4,-95.1,54.3,-145.5,-14.4,-176.4,-7.2,-6.0,-139.5,-89.7,-0.9,11.7,-51.3,-64.5,0,1692,0,88,0, 
0.9433,53.4,-47.4,-9.3,46.8,40.2,-102.0,6.0,18.0,-2148.9,-18.3,-138.6,-97.5,62.1,-148.2,2.7,-143.4,-7.2,-5.7,-139.5,-93.0,-0.6,14.7,-35.1,-67.5,0,1698,0,89,0, 
0.9467,72.0,-38.1,-8.1,51.6,38.1,-101.1,3.6,21.3,-1630.2,-19.5,-134.7,-99.9,51.9,-140.4,-3.3,-154.5,-6.9,-5.7,-133.2,-96.6,-0.9,12.6,-40.8,-74.1,0,1704,0,90,0, 
0.9500,86.7,-46.2,-16.8,43.5,32.7,-103.8,3.3,16.8,4075.5,-27.6,-149.4,-105.9,62.4,-132.9,-0.9,-159.0,-6.6,-6.0,-150.3,-100.2,-0.3,8.4,-41.1,-77.1,0,1710,0,91,0, 
0.9533,75.6,-44.4,-20.1,39.9,23.1,-111.9,-2.4,9.0,7706.4,-31.2,-153.6,-112.5,73.2,-136.8,6.0,-153.6,-6.9,-5.7,-160.5,-114.6,-1.2,1.8,-39.3,-84.6,0,1716,0,92,0, 
0.9567,62.4,-48.0,-20.1,43.2,31.5,-110.1,-2.4,14.4,3853.2,-18.3,-145.5,-107.1,58.2,-133.2,7.2,-147.3,-6.9,-6.0,-150.6,-100.8,-0.9,9.6,-37.8,-70.8,0,1722,0,93,0, 
0.9600,68.1,-25.2,-32.7,36.0,24.3,-123.0,-11.4,12.0,-2371.2,-29.7,-156.6,-121.5,33.3,-123.3,26.7,-148.5,-7.2,-6.0,-163.5,-116.7,-1.2,-3.9,-47.7,-76.5,0,1728,0,94,0, 
0.9633,60.9,-73.8,-23.4,39.0,28.2,-116.4,-6.9,11.1,-2371.2,-12.6,-152.1,-113.1,49.2,-140.1,1.8,-152.4,-6.9,-5.7,-152.1,-114.9,-0.6,7.8,-40.5,-69.9,0,1734,0,95,0, 
0.9667,77.7,-59.1,-33.6,34.2,26.7,-120.3,-14.4,8.4,4001.4,-21.0,-161.4,-116.1,59.4,-141.9,-7.2,-173.4,-6.9,-5.7,-165.0,-110.1,-1.5,2.1,-54.6,-75.6,0,1740,0,96,0, 
0.9700,71.7,-60.9,-25.5,33.0,25.2,-118.5,-8.7,3.6,7187.7,-26.1,-166.8,-117.6,46.5,-147.3,-0.6,-141.0,-6.6,-5.7,-166.2,-119.7,-0.3,7.2,-30.0,-61.2,0,1746,0,97,0, 
0.9733,68.1,-52.8,-15.6,44.4,39.3,-108.9,-7.5,14.7,3038.1,-12.9,-156.3,-102.0,50.4,-134.4,-1.2,-174.0,-7.2,-6.0,-154.5,-97.8,-0.6,15.3,-44.1,-63.0,0,1752,0,98,0, 
0.9767,60.3,-57.6,-24.3,33.3,28.2,-114.6,-11.4,9.6,-2889.9,-15.3,-167.1,-115.2,51.0,-137.4,5.4,-160.2,-6.9,-6.0,-163.2,-110.7,-0.9,12.6,-50.7,-92.4,0,1758,0,99,0, 
0.9800,64.8,-66.0,-26.1,30.3,22.8,-119.1,-7.5,7.8,-2371.2,-23.4,-166.8,-119.1,49.5,-133.5,9.0,-155.4,-6.9,-6.0,-166.2,-115.5,-1.5,3.9,-42.6,-69.3,0,1764,0,100,0, 
0.9833,72.9,-66.9,-38.4,20.1,12.0,-128.1,-17.1,-2.4,4001.4,-38.7,-190.5,-142.5,60.0,-140.4,9.3,-154.5,-6.6,-5.7,-189.0,-132.3,-0.3,-4.5,-47.1,-81.6,0,1770,0,101,0, 
0.9867,65.1,-73.8,-40.8,27.9,19.5,-126.9,-12.9,-1.8,7632.3,-35.1,-185.4,-136.8,-3.6,-149.7,1.8,-154.8,-7.2,-5.7,-187.8,-127.8,-0.6,-8.4,-42.0,-77.7,0,1776,0,102,0, 
0.9900,48.6,-67.5,-21.6,41.1,29.1,-118.2,-16.5,8.7,3334.5,-22.5,-164.7,-121.8,60.3,-158.4,-18.3,-181.2,-6.9,-6.3,-163.5,-114.6,-0.9,4.8,-66.0,-83.7,0,1782,0,103,0, 
0.9933,51.3,-57.6,-16.2,43.8,33.6,-115.2,-8.7,12.0,-2741.7,-15.6,-157.2,-119.4,56.7,-149.1,-8.7,-181.8,-6.6,-6.0,-159.9,-110.1,-0.3,15.3,-58.2,-73.2,0,1788,0,104,0, 
0.9967,54.9,-67.5,-32.4,32.7,24.9,-124.5,-12.0,6.0,-1556.1,-32.1,-174.3,-125.1,42.6,-159.6,-4.8,-155.7,-6.9,-5.7,-182.7,-117.3,-0.9,-1.8,-52.8,-78.0,0,1794,0,105,0, 
1.0000,65.1,-62.4,-19.5,36.0,23.1,-129.3,-17.4,8.1,4890.6,-28.8,-170.1,-127.8,41.1,-150.3,-8.7,-171.3,-7.5,-5.7,-172.2,-120.6,-0.6,-0.9,-61.5,-72.3,0,1800,0,106,0, 
1.0033,66.0,-61.2,-30.9,32.1,16.2,-131.1,-25.5,2.4,8076.9,-27.0,-170.7,-127.8,54.0,-153.9,-8.4,-183.0,-6.9,-5.7,-170.7,-122.7,-0.6,-1.2,-72.3,-77.1,0,1806,0,107,0, 
1.0067,52.5,-64.8,-27.6,29.1,18.0,-130.8,-24.0,0.6,4594.2,-27.6,-170.1,-134.1,43.5,-159.3,-7.8,-182.7,-6.9,-5.4,-165.3,-123.0,-0.9,0.9,-70.2,-80.7,0,1812,0,108,0, 
1.0100,53.7,-52.5,-15.0,33.3,18.0,-133.2,-18.9,8.4,-963.3,-30.0,-170.7,-138.9,55.8,-159.3,-17.4,-181.5,-6.9,-6.0,-161.4,-131.4,-0.3,-2.1,-66.9,-82.5,0,1818,0,109,0, 
1.0133,65.4,-45.0,-24.9,28.8,17.1,-136.2,-21.0,8.1,-963.3,-36.9,-186.9,-142.5,17.4,-157.5,-15.3,-179.1,-6.3,-5.7,-179.1,-135.9,-0.6,-10.5,-65.1,-87.0,0,1824,0,110,0, 
1.0167,84.6,-38.4,-30.0,28.2,10.5,-137.7,-23.1,5.7,5483.4,-40.2,-191.7,-145.2,36.0,-150.0,-15.3,-169.8,-7.2,-5.7,-187.8,-140.4,-0.6,-13.5,-63.9,-88.8,0,1830,0,111,0, 
1.0200,66.6,-67.2,-22.8,35.7,13.5,-133.5,-22.2,9.3,9410.7,-35.4,-179.7,-139.8,53.1,-159.0,-15.9,-177.0,-6.9,-6.0,-174.6,-130.5,-0.3,-13.2,-60.0,-86.7,0,1836,0,112,0, 
1.0233,66.9,-42.6,-33.9,24.9,6.6,-140.1,-24.6,9.9,5409.3,-41.7,-183.0,-149.4,14.7,-146.7,-21.0,-182.7,-6.9,-6.0,-185.1,-139.5,-0.6,-7.8,-69.9,-87.6,0,1842,0,113,0, 
1.0267,39.9,-83.7,-27.9,31.5,18.0,-130.5,-18.6,11.1,-370.5,-25.8,-175.2,-137.1,61.8,-165.0,-8.7,-166.8,-6.9,-5.7,-171.0,-127.2,-0.3,3.3,-52.8,-78.3,0,1848,0,114,0, 
1.0300,70.5,-49.5,-28.8,28.2,16.8,-130.8,-10.5,9.9,0.0,-40.8,-190.5,-137.7,45.9,-151.8,-13.8,-168.3,-7.2,-6.0,-184.8,-125.1,-0.9,-8.4,-49.8,-79.8,0,1854,0,115,0, 
1.0333,77.1,-63.9,-27.0,25.5,14.1,-136.5,-14.1,4.5,6372.6,-39.9,-180.0,-147.3,48.9,-149.4,-14.7,-168.6,-6.6,-6.0,-176.1,-133.5,-0.6,-11.4,-63.0,-79.2,0,1860,0,116,0, 
1.0367,78.9,-55.8,-45.3,19.5,10.5,-142.5,-14.7,4.2,10077.6,-35.4,-188.4,-154.8,44.1,-147.3,-14.7,-168.9,-6.9,-5.7,-188.1,-134.1,-0.6,-11.1,-57.3,-75.3,0,1866,0,117,0, 
1.0400,54.9,-72.9,-38.1,14.4,3.3,-141.9,-10.5,0.9,5853.9,-32.4,-195.9,-154.8,41.1,-148.8,1.8,-151.8,-6.6,-6.0,-186.0,-143.7,-0.9,-9.0,-49.2,-83.4,0,1872,0,118,0, 
1.0433,58.8,-63.3,-48.6,10.8,3.0,-141.9,-11.7,2.4,0.0,-36.9,-205.5,-161.1,41.4,-143.4,-3.0,-166.8,-6.9,-5.4,-195.9,-145.8,-0.6,-7.8,-58.5,-83.4,0,1878,0,119,0, 
1.0467,72.9,-61.2,-44.4,17.7,8.1,-142.8,-10.8,3.0,-222.3,-28.8,-191.1,-147.0,49.8,-134.4,-0.9,-177.9,-6.9,-5.7,-184.8,-137.1,-1.2,-9.6,-63.0,-88.8,0,1884,0,120,0, 
1.0500,75.9,-64.2,-46.5,9.9,0.6,-147.0,-10.2,-9.0,5779.8,-44.4,-191.4,-155.4,41.7,-146.7,1.2,-152.4,-6.6,-6.0,-189.3,-143.4,-0.9,-19.8,-51.6,-90.0,0,1890,0,121,0, 
1.0533,79.8,-40.8,-42.0,10.2,-0.3,-149.7,-12.3,-6.6,9114.3,-49.2,-201.9,-161.7,24.3,-143.7,-4.2,-175.8,-6.6,-6.0,-197.1,-152.1,-0.9,-24.6,-56.4,-93.0,0,1896,0,122,0, 
1.0567,56.1,-85.5,-50.4,9.9,3.0,-144.6,-4.8,-3.6,4742.4,-37.2,-192.6,-147.3,48.9,-149.7,6.3,-155.4,-6.6,-5.7,-182.1,-139.5,-0.9,-16.8,-56.1,-93.0,0,1902,0,123,0, 
1.0600,76.5,-29.7,-27.9,18.6,6.0,-137.4,-7.2,7.2,-1333.8,-51.0,-186.9,-140.4,26.7,-132.9,0.0,-190.2,-6.6,-6.3,-188.7,-135.9,-0.6,-13.5,-71.7,-91.5,0,1908,0,124,0, 
1.0633,64.5,-75.0,-31.8,21.3,11.1,-132.9,-4.8,3.3,-1852.5,-24.9,-178.2,-143.4,57.9,-157.2,-6.3,-179.1,-6.9,-6.0,-165.9,-132.6,-0.3,1.2,-64.2,-75.3,0,1914,0,125,0, 
1.0667,75.6,-78.0,-48.6,16.2,3.6,-138.0,-7.8,-4.5,3927.3,-28.8,-188.7,-151.8,45.9,-144.9,5.4,-165.6,-6.9,-5.4,-183.9,-140.4,-0.9,-6.3,-58.8,-74.4,0,1920,0,126,0, 
1.0700,66.0,-80.1,-49.2,5.7,-7.2,-143.7,-4.2,-11.4,7706.4,-43.2,-198.9,-160.5,30.9,-157.5,3.9,-139.8,-7.2,-6.0,-191.7,-150.9,-0.3,-19.2,-39.9,-81.9,0,1926,0,127,0, 
1.0733,58.2,-65.4,-43.5,9.0,-3.6,-142.5,-6.9,-6.3,3556.8,-41.1,-190.2,-147.9,46.2,-142.8,12.9,-158.7,-6.9,-5.7,-186.3,-144.6,-0.9,-15.0,-49.5,-78.6,0,1932,0,128,0, 
1.0767,62.1,-47.7,-10.5,31.8,17.7,-126.6,-1.2,13.2,-2815.8,-7.8,-167.1,-123.6,48.6,-139.2,-5.4,-186.3,-6.9,-5.7,-158.1,-116.1,-0.9,15.3,-62.1,-65.1,0,1938,0,129,0, 
1.0800,69.0,-39.3,-17.1,29.1,17.1,-128.7,-3.9,12.3,-2593.5,-23.4,-173.7,-132.9,80.7,-136.5,6.0,-183.3,-7.2,-5.7,-163.8,-118.5,-0.9,7.5,-62.1,-67.2,0,1944,0,130,0, 
1.0833,74.4,-60.6,-32.1,25.8,14.7,-127.8,-3.3,7.2,3334.5,-18.6,-176.7,-140.7,54.0,-142.5,-3.9,-172.8,-6.9,-5.7,-165.6,-126.3,-1.2,9.0,-51.0,-65.7,0,1950,0,131,0, 
1.0867,68.1,-67.5,-34.8,25.5,13.2,-131.1,-7.5,3.3,6594.9,-22.8,-180.0,-138.6,40.8,-141.3,0.3,-175.8,-6.9,-5.4,-165.3,-123.9,-1.2,4.5,-51.9,-69.3,0,1956,0,132,0, 
1.0900,61.5,-60.9,-35.4,18.3,4.8,-136.2,-3.0,-4.8,2371.2,-32.4,-178.5,-145.5,60.9,-144.3,15.6,-145.8,-7.2,-6.0,-164.7,-138.3,-1.2,-8.1,-38.4,-80.7,0,1962,0,133,0, 
1.0933,51.6,-50.4,-15.3,35.1,21.0,-120.0,-5.4,9.0,-3779.1,-14.4,-169.5,-128.1,38.4,-146.7,-12.0,-186.0,-7.2,-6.0,-152.4,-119.1,-0.6,4.8,-53.1,-57.0,0,1968,0,134,0, 
1.0967,86.1,9.9,-19.5,29.1,12.0,-131.4,-15.9,6.6,-3853.2,-36.9,-188.1,-140.1,-33.9,-130.2,-5.1,-193.2,-6.6,-5.4,-177.9,-129.6,-0.9,3.0,-66.6,-103.2,0,1974,0,135,0, 
1.1000,65.1,-77.7,-20.7,29.4,15.9,-132.0,-10.5,-0.9,1778.4,-27.6,-180.3,-137.7,72.9,-158.1,-1.2,-166.5,-7.2,-5.7,-166.8,-125.7,-0.9,-1.2,-43.5,-70.2,0,1980,0,136,0, 
1.1033,62.4,-85.8,-29.7,35.4,21.6,-125.7,-12.0,2.4,4668.3,-7.8,-169.2,-129.3,80.7,-151.5,0.0,-178.5,-6.9,-6.0,-147.6,-114.0,-1.2,9.9,-51.6,-58.5,0,1986,0,137,0, 
1.1067,62.1,-45.9,6.0,47.7,30.3,-120.3,-9.9,18.0,296.4,-11.7,-156.9,-122.1,78.3,-152.7,-19.2,-176.7,-6.9,-6.3,-138.0,-112.8,-0.6,12.6,-40.2,-50.1,0,1992,0,138,0, 
1.1100,59.7,-44.7,-9.9,43.8,33.0,-118.8,-8.4,18.0,-5779.8,-11.4,-161.1,-118.5,63.6,-147.6,-4.8,-169.5,-6.9,-5.7,-145.2,-111.6,-0.6,13.5,-50.4,-55.8,0,1998,0,139,0, 
1.1133,59.7,-56.4,-20.4,35.1,19.2,-130.5,-9.0,10.2,-5631.6,-23.7,-171.6,-127.8,45.6,-145.2,9.9,-156.6,-6.6,-5.7,-151.5,-121.5,-0.6,-4.2,-44.4,-66.6,0,2004,0,140,0, 
1.1167,76.2,-55.8,-18.3,38.7,22.5,-126.0,-12.6,12.0,-518.7,-17.1,-168.9,-129.3,62.7,-148.8,-17.4,-174.9,-6.6,-6.0,-148.8,-120.0,-0.9,2.7,-52.2,-67.5,0,2010,0,141,0, 
1.1200,79.5,-45.6,-14.4,38.7,20.4,-128.1,-15.3,12.0,2519.4,-17.4,-163.2,-130.2,58.8,-148.8,-1.5,-189.0,-6.9,-5.7,-144.6,-120.3,-0.3,2.4,-46.5,-64.2,0,2016,0,142,0, 
1.1233,67.2,-36.9,-18.0,28.5,11.1,-132.0,-12.3,5.1,-1259.7,-30.6,-179.7,-140.7,52.5,-148.5,8.1,-171.6,-7.2,-5.4,-153.6,-131.4,-0.6,-7.5,-41.4,-78.6,0,2022,0,143,0, 
1.1267,59.4,-50.7,-11.4,36.3,17.7,-129.3,-10.8,13.5,-7632.3,-15.6,-168.3,-130.5,63.0,-150.9,-3.0,-173.1,-6.6,-6.0,-142.2,-118.8,-0.9,1.5,-51.6,-75.6,0,2028,0,144,0, 
1.1300,76.2,-36.3,-5.1,40.8,20.4,-126.6,-10.2,18.6,-8299.2,-18.0,-165.6,-139.2,66.0,-143.4,-12.0,-191.4,-6.6,-6.3,-145.8,-124.2,-0.9,-0.3,-49.5,-72.6,0,2034,0,145,0, 
1.1333,83.7,-34.5,-31.2,25.8,5.1,-141.6,-21.3,5.7,-2519.4,-36.6,-188.1,-148.2,69.3,-137.7,0.0,-189.6,-6.9,-5.7,-165.6,-140.4,-0.3,-13.8,-61.2,-89.7,0,2040,0,146,0, 
1.1367,81.0,-36.6,-25.2,26.4,6.3,-142.8,-20.7,9.0,1111.5,-36.6,-191.4,-149.4,34.2,-147.3,-17.4,-195.0,-7.2,-5.7,-169.5,-139.5,-0.9,-20.1,-60.6,-92.7,0,2046,0,147,0, 
1.1400,66.9,-50.4,-31.2,23.1,7.2,-147.9,-20.4,9.3,-2889.9,-34.8,-194.1,-148.8,38.1,-152.4,-14.4,-175.8,-6.6,-6.0,-167.4,-138.9,-0.9,-11.4,-61.5,-89.7,0,2052,0,148,0, 
1.1433,57.9,-62.7,-32.7,26.4,10.5,-140.1,-21.9,13.2,-9040.2,-22.2,-186.0,-141.3,60.0,-143.4,-9.3,-200.4,-6.9,-6.0,-157.2,-132.9,-0.6,-9.9,-67.8,-84.9,0,2058,0,149,0, 
1.1467,66.3,-47.7,-35.7,18.3,1.5,-145.2,-21.0,6.0,-9484.8,-44.4,-200.7,-155.1,51.0,-147.3,-10.5,-186.3,-6.9,-5.4,-172.2,-143.7,-0.9,-22.8,-62.1,-88.5,0,2064,0,150,0, 
1.1500,69.9,-44.7,-19.5,28.5,9.3,-141.3,-24.6,7.5,-3408.6,-45.0,-192.3,-152.7,57.9,-153.3,-27.6,-201.3,-6.6,-5.7,-165.6,-138.6,-0.6,-21.6,-77.4,-87.9,0,2070,0,151,0, 
1.1533,69.9,-47.4,-53.1,8.1,-6.6,-151.8,-21.9,-3.6,-518.7,-47.4,-207.6,-170.4,29.1,-147.6,3.3,-159.3,-7.2,-5.4,-179.4,-157.8,-0.9,-27.9,-55.2,-91.8,0,2076,0,152,0, 
1.1567,50.1,-57.6,-30.0,23.4,6.3,-141.9,-19.5,6.9,-4520.1,-32.1,-182.7,-156.0,57.9,-155.7,-9.9,-169.8,-6.3,-6.0,-150.9,-144.9,-0.6,-19.5,-58.2,-88.5,0,2082,0,153,0, 
1.1600,59.4,-40.2,-24.0,31.2,14.1,-135.9,-21.9,8.1,-9855.3,-15.6,-175.2,-136.8,60.3,-135.9,-5.1,-198.0,-7.5,-5.7,-146.4,-130.8,-0.6,-3.9,-69.6,-89.7,0,2088,0,154,0, 
1.1633,69.6,-47.7,-24.6,30.0,11.7,-138.3,-21.0,6.9,-10299.9,-23.7,-176.1,-136.5,75.0,-136.2,3.6,-186.0,-7.2,-6.3,-154.2,-129.9,0.0,-7.5,-63.6,-86.1,0,2094,0,155,0, 
1.1667,79.5,-34.5,-24.3,29.1,7.5,-143.4,-22.8,3.0,-5038.8,-33.0,-174.9,-142.2,26.1,-136.8,-12.9,-185.7,-6.6,-5.7,-149.7,-133.8,-0.6,-16.2,-68.1,-80.7,0,2100,0,156,0, 
1.1700,76.8,-41.4,-22.2,31.5,13.2,-139.8,-24.0,3.9,-1407.9,-27.9,-180.0,-141.6,70.5,-131.7,-3.9,-195.6,-6.9,-6.3,-155.7,-130.5,-0.3,-1.5,-71.4,-74.4,0,2106,0,157,0, 
1.1733,66.0,-21.0,-22.8,29.4,8.1,-144.9,-27.0,3.0,-4668.3,-28.5,-181.5,-140.4,61.8,-144.3,-9.9,-184.8,-6.9,-6.0,-159.3,-135.9,-0.9,-10.5,-62.7,-84.9,0,2112,0,158,0, 
1.1767,49.5,-57.6,-26.4,25.8,11.7,-141.6,-20.1,1.5,-10744.5,-27.3,-186.6,-137.4,60.0,-142.8,6.9,-175.2,-6.9,-6.3,-159.9,-126.9,-1.2,-9.9,-57.6,-81.6,0,2118,0,159,0, 
1.1800,65.4,-29.4,-49.2,12.6,-2.7,-149.7,-22.8,-4.5,-11040.9,-45.6,-213.6,-165.9,45.3,-141.9,11.4,-169.8,-6.6,-6.0,-192.0,-150.9,-0.6,-23.1,-68.1,-82.5,0,2124,0,160,0, 
1.1833,65.4,-63.0,-34.2,18.6,-1.2,-146.7,-25.8,-4.8,-5335.2,-43.8,-200.4,-174.0,65.7,-148.5,-5.1,-179.7,-7.2,-5.4,-173.1,-155.4,-0.3,-20.4,-69.9,-74.7,0,2130,0,161,0, 
1.1867,62.1,-50.4,-39.0,13.8,-5.4,-148.5,-23.1,-7.5,-889.2,-33.0,-193.5,-155.4,42.0,-154.5,-3.0,-155.7,-6.6,-5.7,-167.7,-151.2,-0.6,-22.2,-63.9,-77.4,0,2136,0,162,0, 
1.1900,55.2,-40.5,-18.0,24.6,8.7,-141.9,-18.6,0.6,-4371.9,-24.0,-165.0,-129.6,42.9,-142.2,7.8,-169.2,-6.9,-6.0,-138.6,-128.1,-0.6,-2.7,-58.8,-75.0,0,2142,0,163,0, 
1.1933,63.9,-16.8,-19.8,29.7,9.3,-134.4,-19.5,7.2,-10225.8,-27.9,-165.6,-128.1,6.0,-143.4,-15.9,-183.9,-6.9,-6.0,-147.0,-129.3,-0.6,-16.2,-69.3,-67.2,0,2148,0,164,0, 
1.1967,55.2,-59.7,-28.2,26.7,9.9,-127.5,-13.2,5.4,-9929.4,-20.1,-167.4,-133.2,103.2,-143.4,4.5,-187.2,-6.9,-6.0,-146.4,-130.2,-0.6,-7.2,-59.1,-72.6,0,2154,0,165,0, 
1.2000,71.1,-45.3,-27.9,19.2,-0.6,-142.5,-15.0,3.0,-3927.3,-33.0,-186.9,-154.2,45.9,-160.5,-12.6,-165.3,-7.2,-6.0,-164.4,-144.0,-0.9,-29.1,-54.3,-92.1,0,2160,0,166,0, 
1.2033,64.5,-48.6,-24.9,26.4,6.3,-139.2,-12.9,4.8,74.1,-24.6,-170.1,-142.2,61.2,-154.8,-3.0,-167.1,-7.2,-5.7,-144.0,-137.1,-0.3,-6.9,-49.5,-72.3,0,2166,0,167,0, 
1.2067,55.8,-45.6,-18.0,30.0,7.5,-136.8,-14.7,5.1,-3112.2,-24.0,-173.4,-139.8,39.3,-158.4,-10.2,-163.2,-6.9,-5.7,-143.4,-135.6,-0.6,-11.7,-44.4,-70.8,0,2172,0,168,0, 
1.2100,51.0,-38.7,-8.4,38.1,19.5,-126.0,-14.7,13.8,-8892.0,-14.1,-149.7,-131.1,79.5,-145.8,-3.6,-191.4,-6.6,-6.0,-128.7,-121.5,-0.9,1.2,-59.1,-68.7,0,2178,0,169,0, 
1.2133,49.5,-57.6,-28.5,24.3,12.3,-129.0,-9.6,3.0,-8892.0,-22.8,-163.5,-130.2,42.0,-153.0,-3.6,-162.9,-7.2,-5.7,-142.2,-127.8,-0.9,-11.4,-38.1,-74.1,0,2184,0,170,0, 
1.2167,58.8,-55.5,-30.6,18.6,6.9,-138.9,-21.0,-8.7,-2445.3,-28.8,-165.9,-144.3,51.0,-156.6,0.3,-174.3,-6.9,-5.7,-144.6,-138.6,-0.6,-18.6,-60.0,-76.8,0,2190,0,171,0, 
1.2200,62.4,-62.4,-28.2,25.2,11.7,-140.4,-17.7,-5.4,1482.0,-24.6,-162.6,-130.5,42.3,-152.4,-5.1,-173.4,-7.2,-5.7,-133.2,-128.4,-0.6,-13.2,-64.2,-68.4,0,2196,0,172,0, 
1.2233,50.7,-50.7,-24.6,26.1,13.5,-140.4,-18.3,-3.0,-2445.3,-26.7,-162.3,-132.9,54.0,-158.4,-2.4,-176.7,-6.9,-6.0,-140.7,-126.3,-0.6,-12.9,-65.4,-73.5,0,2202,0,173,0, 
1.2267,45.3,-42.6,-21.9,28.8,18.3,-138.6,-15.3,4.2,-8299.2,-26.4,-165.0,-135.6,44.4,-152.4,-5.7,-177.9,-6.9,-5.4,-140.7,-134.1,-0.9,-3.0,-65.7,-69.9,0,2208,0,174,0, 
1.2300,46.8,-49.8,-24.6,24.3,9.9,-141.9,-21.0,2.4,-8151.0,-33.0,-168.0,-145.5,43.5,-158.7,-9.3,-179.1,-6.9,-5.7,-147.9,-142.2,-0.3,-14.7,-71.1,-78.6,0,2214,0,175,0, 
1.2333,59.7,-48.9,-32.4,21.3,12.0,-139.8,-18.3,0.9,-2148.9,-28.5,-174.0,-147.9,36.9,-150.3,-8.4,-174.6,-6.9,-5.7,-154.8,-144.0,-0.9,-11.7,-68.4,-78.3,0,2220,0,176,0, 
1.2367,51.3,-51.0,-36.9,20.1,2.4,-144.3,-19.8,-2.4,1630.2,-35.4,-182.7,-151.2,33.0,-158.1,-6.9,-167.1,-6.9,-5.7,-150.9,-148.5,-0.6,-20.4,-63.0,-81.3,0,2226,0,177,0, 
1.2400,45.9,-59.4,-13.8,35.1,20.1,-133.2,-12.0,8.1,-1778.4,-15.6,-156.0,-127.5,63.6,-143.7,0.0,-164.4,-6.9,-6.0,-131.4,-131.4,-0.6,-3.9,-56.1,-70.8,0,2232,0,178,0, 
1.2433,46.8,-36.9,-12.9,36.3,23.4,-130.5,-6.9,6.0,-7558.2,-21.0,-164.7,-130.8,49.5,-146.1,-1.5,-161.4,-6.9,-5.7,-141.0,-127.8,-0.9,0.6,-50.7,-70.2,0,2238,0,179,0, 
1.2467,49.2,-36.9,-20.4,31.8,17.7,-132.9,-8.1,-0.6,-7484.1,-13.8,-159.6,-133.5,46.8,-151.2,-8.1,-165.0,-7.2,-5.7,-135.0,-135.3,-1.2,-6.6,-52.2,-72.9,0,2244,0,180,0, 
1.2500,66.3,-34.8,-24.3,25.8,12.3,-140.1,-15.6,-5.7,-1482.0,-21.0,-161.1,-140.4,26.1,-136.2,1.2,-162.9,-7.2,-5.7,-132.0,-135.0,-0.6,-6.9,-61.8,-68.7,0,2250,0,181,0, 
1.2533,58.2,-45.0,-22.8,27.9,19.5,-141.3,-17.4,-6.0,1926.6,-21.9,-158.1,-131.4,61.2,-138.0,6.0,-159.9,-6.9,-5.7,-127.5,-130.2,-1.2,-4.2,-58.5,-65.1,0,2256,0,182,0, 
1.2567,53.1,-27.0,-7.5,37.2,27.9,-132.3,-12.3,3.0,-1407.9,-15.6,-153.6,-129.3,84.9,-148.5,-1.8,-159.6,-6.9,-5.7,-121.8,-118.5,-0.9,1.8,-57.6,-61.8,0,2262,0,183,0, 
1.2600,48.9,-34.2,-12.6,38.1,28.5,-130.5,-8.7,6.9,-7335.9,-3.9,-152.4,-126.0,67.8,-148.2,-5.4,-152.1,-7.2,-6.3,-123.3,-119.1,-1.2,12.3,-44.7,-56.1,0,2268,0,184,0, 
1.2633,65.4,-26.1,-13.2,33.6,25.2,-135.0,-13.8,3.0,-7854.6,-13.8,-158.4,-120.6,87.9,-138.6,-5.1,-165.0,-6.9,-5.4,-127.8,-116.4,-0.9,6.0,-56.4,-63.0,0,2274,0,185,0, 
1.2667,58.5,-36.0,-9.0,33.0,22.2,-138.3,-18.3,-3.9,-1482.0,-21.0,-161.4,-135.0,55.8,-146.7,-13.2,-175.2,-7.2,-6.0,-131.1,-127.5,-0.9,-8.7,-62.1,-68.4,0,2280,0,186,0, 
1.2700,64.5,-38.1,-20.7,37.5,25.5,-136.5,-15.9,2.1,2148.9,-12.9,-151.5,-132.0,59.1,-146.1,-11.7,-171.3,-7.2,-5.7,-121.5,-124.5,-0.3,0.9,-59.7,-60.0,0,2286,0,187,0, 
1.2733,56.7,-36.3,-20.1,30.6,19.2,-140.1,-16.8,-3.9,-1333.8,-19.8,-156.9,-135.9,67.5,-138.0,8.1,-159.0,-6.9,-5.7,-130.8,-128.4,-0.6,2.1,-59.7,-66.6,0,2292,0,188,0, 
1.2767,52.2,-19.2,-18.6,30.6,18.9,-141.0,-19.8,-3.0,-6594.9,-21.9,-151.2,-130.2,53.7,-144.9,-6.0,-166.8,-6.6,-5.7,-123.3,-122.1,-0.9,0.3,-62.1,-70.5,0,2298,0,189,0, 
1.2800,53.7,-30.3,-18.0,30.6,16.8,-140.7,-18.6,-3.6,-6520.8,-23.4,-156.9,-121.8,30.6,-148.5,-24.6,-180.6,-6.9,-6.0,-124.8,-121.2,-0.9,-3.6,-64.2,-70.8,0,2304,0,190,0, 
1.2833,58.8,-54.3,-18.6,29.4,13.8,-138.3,-16.2,-8.1,-592.8,-35.4,-160.5,-129.6,66.6,-152.1,-9.3,-157.8,-6.6,-5.7,-129.0,-120.6,-0.9,-13.8,-49.5,-74.7,0,2310,0,191,0, 
1.2867,66.9,-31.2,-19.8,30.0,15.6,-136.2,-15.0,-2.4,3186.3,-26.1,-157.8,-134.1,54.3,-151.2,-17.1,-174.3,-6.9,-5.7,-129.3,-128.1,-0.9,-5.4,-56.4,-68.1,0,2316,0,192,0, 
1.2900,59.4,-16.8,-8.7,35.4,20.4,-138.3,-20.7,3.0,148.2,-20.1,-150.0,-124.8,9.3,-145.5,-22.5,-179.4,-6.9,-6.0,-125.4,-122.4,-0.3,-2.4,-62.7,-64.8,0,2322,0,193,0, 
1.2933,47.1,-40.5,-24.0,30.0,16.2,-138.0,-17.4,-0.3,-5335.2,-21.3,-156.0,-131.1,62.1,-150.9,-15.6,-168.9,-6.9,-5.4,-137.7,-126.9,-0.3,1.8,-56.7,-61.2,0,2328,0,194,0, 
1.2967,46.8,-49.2,-15.9,35.7,23.7,-130.2,-12.6,0.0,-4964.7,-15.0,-151.5,-120.6,76.2,-161.4,-16.5,-171.6,-6.9,-5.7,-129.9,-116.4,-0.9,0.9,-54.9,-60.6,0,2334,0,195,0, 
1.3000,68.1,-48.9,-27.3,28.5,16.5,-131.7,-14.1,-3.3,666.9,-22.2,-158.7,-130.2,55.8,-151.5,-1.8,-161.7,-6.9,-5.7,-134.4,-126.0,0.0,-3.0,-54.3,-45.9,0,2340,0,196,0, 
1.3033,65.1,-48.6,-23.4,30.0,15.3,-127.2,-14.1,-0.9,4742.4,-27.0,-156.0,-134.4,49.5,-157.8,-6.9,-159.3,-6.9,-5.7,-132.3,-127.5,-0.9,-12.3,-48.0,-74.7,0,2346,0,197,0, 
1.3067,54.9,-45.3,-29.1,27.3,10.5,-139.2,-15.6,-2.4,1926.6,-31.5,-156.9,-131.1,33.0,-153.6,-16.8,-164.7,-6.6,-5.7,-137.1,-129.6,-0.9,-4.5,-54.9,-68.4,0,2352,0,198,0, 
1.3100,54.6,-24.6,-2.7,38.1,21.9,-136.2,-11.4,5.1,-3112.2,-26.7,-150.0,-123.9,46.2,-156.6,-24.3,-179.7,-7.2,-5.4,-128.4,-125.1,-1.2,-3.9,-60.6,-59.1,0,2358,0,199,0, 
1.3133,59.1,-34.2,-32.7,27.6,12.0,-138.9,-16.8,-0.9,-2964.0,-29.7,-158.4,-131.1,71.1,-157.5,-15.6,-182.1,-6.6,-5.7,-133.5,-130.2,-0.9,-6.6,-69.3,-66.0,0,2364,0,200,0, 
1.3167,56.1,-64.5,-24.3,32.7,16.8,-136.2,-12.9,-2.4,3038.1,-31.8,-147.3,-132.0,39.9,-169.8,-23.4,-178.5,-7.5,-5.7,-124.2,-124.5,-0.9,-12.3,-64.5,-61.8,0,2370,0,201,0, 
1.3200,57.3,-65.7,-37.8,12.9,-1.8,-149.7,-21.0,-12.6,7039.5,-51.9,-175.8,-167.7,18.6,-160.8,-3.9,-168.9,-6.9,-6.0,-150.6,-151.8,-0.9,-28.8,-72.3,-88.8,0,2376,0,202,0, 
1.3233,52.2,-48.6,-21.6,28.5,11.7,-135.0,-12.6,-0.6,3705.0,-39.6,-153.6,-142.8,28.5,-168.9,-25.5,-187.2,-6.6,-5.7,-134.7,-138.9,-0.9,-24.3,-67.2,-81.3,0,2382,0,203,0, 
1.3267,33.9,-52.8,-17.1,28.2,12.0,-137.7,-10.8,-2.4,-1704.3,-36.0,-156.0,-145.5,67.8,-180.9,-23.7,-177.0,-6.6,-6.0,-137.4,-137.1,-0.6,-11.4,-71.1,-74.1,0,2388,0,204,0, 
1.3300,46.8,-69.0,-35.4,17.4,3.0,-146.1,-15.0,-9.6,-1630.2,-41.1,-159.3,-145.5,31.5,-167.4,0.3,-173.4,-7.2,-6.0,-144.6,-144.9,-1.2,-21.6,-72.3,-73.5,0,2394,0,205,0, 
1.3333,57.0,-67.2,-38.7,13.2,-0.6,-147.0,-14.7,-11.1,4223.7,-53.1,-160.2,-158.1,37.8,-168.6,-2.1,-178.5,-6.9,-5.7,-149.7,-154.5,-0.6,-33.6,-73.8,-82.2,0,2400,0,206,0, 
1.3367,58.5,-56.4,-32.4,19.2,6.9,-140.1,-10.5,-1.2,7335.9,-49.5,-159.9,-149.4,25.2,-174.9,-26.4,-189.3,-6.9,-6.3,-146.1,-147.0,-0.6,-29.1,-66.3,-74.4,0,2406,0,207,0, 
1.3400,45.0,-48.9,-21.0,22.5,8.1,-135.0,-9.3,-1.2,4742.4,-40.5,-158.7,-140.4,45.3,-169.5,-11.7,-183.0,-6.6,-5.7,-144.9,-144.0,-0.9,-24.9,-66.3,-76.8,0,2412,0,208,0, 
1.3433,45.3,-48.3,-19.5,33.0,19.2,-124.5,-2.4,8.7,-1556.1,-21.6,-146.7,-126.3,56.1,-169.5,-16.5,-178.8,-7.2,-6.0,-129.9,-126.9,-0.6,-10.5,-54.6,-59.7,0,2418,0,209,0, 
1.3467,54.9,-38.4,-11.7,35.4,22.2,-127.2,-4.2,7.8,-1259.7,-34.2,-142.2,-123.9,58.2,-161.4,-15.0,-177.9,-6.9,-5.7,-128.7,-125.7,-0.6,-11.1,-55.2,-63.3,0,2424,0,210,0, 
1.3500,64.8,-39.3,-13.2,40.5,27.3,-126.3,-1.8,6.9,4668.3,-27.9,-146.1,-127.5,54.0,-159.0,-13.2,-176.7,-7.2,-5.7,-135.3,-123.3,-0.9,-10.2,-53.4,-57.0,0,2430,0,211,0, 
1.3533,69.9,-35.1,-13.5,40.8,30.0,-123.0,-1.5,10.2,8002.8,-29.1,-139.8,-130.5,66.3,-150.3,-1.5,-165.9,-6.6,-5.7,-126.0,-120.6,-0.9,-6.6,-48.3,-51.6,0,2436,0,212,0, 
1.3567,63.6,-31.2,-8.4,41.4,30.3,-124.5,-2.4,11.1,4594.2,-20.7,-141.9,-118.5,67.5,-142.8,17.4,-163.5,-6.9,-6.3,-128.7,-116.4,-0.3,-1.8,-48.9,-51.9,0,2442,0,213,0, 
1.3600,60.9,-24.0,-6.3,42.9,33.3,-120.6,-1.8,12.6,-1185.6,-17.7,-133.2,-114.9,72.3,-140.4,14.7,-168.0,-6.9,-6.0,-123.9,-117.0,-0.9,0.9,-45.0,-51.0,0,2448,0,214,0, 
1.3633,71.1,-17.4,-5.7,50.7,37.5,-115.2,2.7,18.3,-1037.4,-13.5,-129.3,-111.3,69.9,-152.1,1.2,-170.1,-6.6,-6.0,-122.4,-109.2,-0.9,8.4,-39.9,-41.1,0,2454,0,215,0, 
1.3667,82.2,-25.2,-3.6,51.6,34.2,-113.4,2.7,15.3,4297.8,-18.0,-132.0,-109.8,59.1,-143.4,6.0,-162.9,-6.9,-6.3,-122.4,-107.1,-0.9,8.1,-37.2,-45.3,0,2460,0,216,0, 
1.3700,84.3,-13.8,-1.2,50.4,32.7,-114.6,4.5,16.8,7780.5,-15.9,-130.5,-106.2,73.2,-151.2,-9.6,-162.3,-6.9,-5.4,-123.0,-103.5,-0.6,3.9,-34.8,-37.8,0,2466,0,217,0, 
1.3733,63.0,-24.6,0.0,49.8,34.2,-117.6,-3.3,13.8,4371.9,-10.8,-131.1,-115.5,85.8,-148.5,0.6,-168.6,-6.9,-6.0,-117.3,-105.3,-0.3,9.3,-45.9,-35.7,0,2472,0,218,0, 
1.3767,64.5,-6.9,-3.6,50.4,31.2,-119.1,-2.7,19.2,-1259.7,-15.6,-127.2,-111.9,68.4,-144.3,14.4,-164.4,-6.9,-6.0,-114.6,-104.4,-0.6,1.8,-42.9,-40.5,0,2478,0,219,0, 
1.3800,66.0,-13.2,-6.6,45.6,27.0,-120.6,-4.5,15.0,-1333.8,-21.6,-131.7,-122.4,69.6,-141.0,7.2,-161.1,-6.9,-5.7,-120.6,-110.1,-0.9,1.2,-43.2,-41.7,0,2484,0,220,0, 
1.3833,72.3,-25.5,-7.5,43.2,24.0,-128.1,-9.6,10.5,4742.4,-29.4,-141.0,-123.6,91.5,-144.0,4.5,-170.1,-6.9,-5.4,-125.4,-115.5,-0.3,-7.8,-47.1,-40.5,0,2490,0,221,0, 
1.3867,56.1,-44.7,-19.8,39.0,22.5,-125.4,-7.2,1.8,8521.5,-21.0,-141.9,-130.2,49.8,-159.9,-8.1,-160.2,-6.9,-6.3,-131.1,-114.6,-0.9,-0.6,-39.9,-34.8,0,2496,0,222,0, 
1.3900,54.6,-17.4,-1.8,44.7,24.6,-127.5,-7.5,7.2,4816.5,-22.2,-134.4,-118.2,73.5,-145.2,-6.3,-179.4,-6.9,-5.7,-114.3,-107.4,-0.6,8.1,-50.7,-64.2,0,2502,0,223,0, 
1.3933,46.5,-21.9,-12.3,36.9,21.0,-139.2,-5.7,3.9,-741.0,-15.9,-130.8,-119.1,69.0,-148.8,2.7,-156.0,-6.6,-6.0,-115.2,-108.6,-0.9,8.1,-41.1,-53.4,0,2508,0,224,0, 
1.3967,57.6,-37.2,-30.0,31.8,20.1,-139.5,-11.1,2.7,-1259.7,-8.7,-138.3,-117.0,83.7,-140.4,-3.0,-177.6,-6.6,-5.7,-120.0,-106.2,-0.9,2.7,-55.2,-51.6,0,2514,0,225,0, 
1.4000,66.9,-42.9,-29.4,22.8,6.6,-148.8,-10.2,-6.9,4816.5,-38.4,-153.3,-149.1,64.5,-146.4,14.1,-144.3,-7.2,-5.7,-135.9,-135.6,-0.6,-18.6,-38.1,-62.4,0,2520,0,226,0, 
1.4033,70.8,-27.3,-20.4,33.9,18.9,-139.5,-16.2,4.5,8151.0,-22.2,-138.9,-134.7,82.5,-135.0,6.9,-188.1,-7.2,-5.4,-126.3,-118.8,-0.9,-4.8,-69.3,-62.7,0,2526,0,227,0, 
1.4067,60.3,-18.6,-6.3,42.0,26.4,-129.3,-8.7,9.9,4668.3,-13.8,-136.2,-115.5,73.5,-144.3,-4.8,-177.6,-7.2,-5.7,-116.7,-102.9,-0.9,11.4,-53.7,-60.9,0,2532,0,228,0, 
1.4100,52.5,-15.6,-11.4,36.6,19.5,-138.0,-6.0,5.7,-1185.6,-12.0,-137.1,-117.3,74.4,-153.6,-7.5,-159.0,-6.6,-6.0,-122.7,-106.2,-0.6,6.6,-53.1,-58.2,0,2538,0,229,0, 
1.4133,50.1,-50.4,-27.6,26.4,9.6,-149.4,-12.6,-3.3,-1259.7,-26.4,-151.5,-133.2,53.4,-156.0,20.4,-144.3,-6.9,-6.0,-134.4,-120.0,-0.6,-8.1,-53.4,-61.5,0,2544,0,230,0, 
1.4167,57.6,-38.4,-14.4,40.2,21.0,-138.6,-11.1,4.2,4371.9,-22.2,-139.8,-129.9,71.7,-155.7,-6.3,-172.5,-6.9,-6.0,-120.3,-111.6,-0.9,-9.9,-57.9,-60.9,0,2550,0,231,0, 
1.4200,61.5,-33.6,-16.5,38.1,15.9,-141.0,-6.0,2.4,8225.1,-34.2,-144.9,-137.4,49.2,-156.3,8.4,-139.5,-6.6,-5.7,-129.9,-118.2,-0.9,-9.9,-39.6,-59.4,0,2556,0,232,0, 
1.4233,53.7,-12.6,-9.3,42.9,21.3,-135.3,-9.0,9.0,4668.3,-26.1,-134.7,-125.4,60.0,-156.0,-19.8,-164.4,-6.9,-5.7,-120.6,-105.3,-0.6,0.6,-47.4,-52.5,0,2562,0,233,0, 
1.4267,46.2,-39.6,-5.4,46.5,27.9,-131.1,-15.9,9.6,-1259.7,-8.1,-127.5,-110.1,35.7,-147.9,-2.1,-178.8,-6.9,-6.0,-106.8,-93.6,-0.6,11.7,-68.4,-54.3,0,2568,0,234,0, 
1.4300,47.4,-50.4,-23.7,35.1,18.9,-134.7,-5.1,5.7,-1407.9,-20.7,-136.2,-129.0,63.6,-165.0,-3.6,-151.2,-7.2,-5.7,-123.6,-112.5,-0.9,-4.5,-39.9,-56.1,0,2574,0,235,0, 
1.4333,59.4,-33.3,-27.9,23.7,7.5,-146.7,-11.4,-3.0,4075.5,-45.6,-149.7,-147.6,40.8,-157.5,-2.4,-139.5,-7.2,-5.7,-136.8,-129.6,-0.9,-15.9,-55.8,-66.3,0,2580,0,236,0, 
1.4367,52.2,-43.8,-20.1,34.8,19.5,-139.5,-12.3,5.7,7632.3,-25.5,-142.2,-127.8,76.5,-159.3,-13.8,-179.4,-6.9,-6.3,-131.1,-109.8,-0.6,-7.2,-64.5,-53.1,0,2586,0,237,0, 
1.4400,36.0,-55.2,-20.4,35.7,23.1,-132.9,-8.7,5.7,3630.9,-17.4,-139.5,-123.9,51.6,-155.7,1.5,-171.0,-6.6,-5.7,-122.7,-107.7,-0.6,3.3,-49.8,-60.6,0,2592,0,238,0, 
1.4433,35.1,-46.8,-13.8,38.1,26.7,-136.2,-4.2,11.1,-2148.9,-13.8,-127.8,-122.4,63.0,-153.6,-9.9,-170.1,-7.5,-5.7,-117.6,-103.8,-0.9,1.5,-51.0,-63.0,0,2598,0,239,0, 
1.4467,43.5,-51.6,-11.4,36.6,24.9,-138.0,-9.0,5.1,-2297.1,-19.8,-134.7,-127.5,57.6,-147.3,9.0,-172.5,-7.2,-5.7,-116.7,-112.8,-0.6,3.9,-52.8,-54.0,0,2604,0,240,0, 
1.4500,48.0,-63.3,-23.4,32.1,16.5,-139.5,-6.9,-3.9,2889.9,-23.4,-134.4,-127.5,45.9,-156.0,-4.8,-147.9,-7.2,-5.7,-121.8,-115.8,-0.9,2.7,-50.1,-51.3,0,2610,0,241,0, 
1.4533,54.6,-50.4,-9.9,36.3,21.3,-136.8,-12.9,1.2,6446.7,-19.2,-132.0,-118.5,54.0,-154.8,-10.2,-177.6,-7.2,-5.7,-113.4,-109.5,-0.6,5.4,-60.3,-49.5,0,2616,0,242,0, 
1.4567,41.1,-49.8,-9.0,36.9,20.7,-135.6,-6.6,1.8,2964.0,-13.2,-125.1,-117.3,53.4,-155.4,-3.0,-173.7,-6.9,-6.0,-107.1,-106.8,-0.3,10.2,-49.2,-53.1,0,2622,0,243,0, 
1.4600,32.7,-49.2,-11.1,32.1,15.6,-136.2,-5.1,-0.9,-3038.1,-21.0,-125.7,-119.1,54.9,-157.5,11.7,-155.7,-6.9,-6.0,-113.1,-112.8,-0.6,1.2,-42.0,-60.3,0,2628,0,244,0, 
1.4633,43.8,-32.4,-2.1,36.3,21.9,-130.5,0.3,4.5,-3186.3,-19.5,-127.5,-124.5,45.3,-154.2,-2.7,-172.2,-6.9,-6.0,-116.1,-115.2,-0.6,6.9,-50.4,-50.1,0,2634,0,245,0, 
1.4667,70.8,-11.4,-6.0,30.3,17.1,-136.8,-3.0,4.2,2223.0,-43.8,-142.8,-132.0,16.8,-143.4,5.4,-171.6,-7.2,-6.0,-129.6,-122.4,-0.9,-5.4,-55.8,-56.4,0,2640,0,246,0, 
1.4700,41.7,-84.6,-36.3,17.4,4.5,-141.6,0.9,-12.0,5335.2,-25.2,-147.3,-141.3,74.4,-168.6,10.5,-134.7,-7.2,-6.0,-130.8,-128.4,-0.9,-7.2,-33.0,-63.9,0,2646,0,247,0, 
1.4733,49.5,-27.6,-10.2,29.4,13.8,-141.9,-10.8,-0.9,1407.9,-35.1,-144.0,-128.7,45.0,-148.8,19.5,-181.5,-6.9,-6.3,-133.2,-120.3,-0.9,-6.3,-66.9,-69.9,0,2652,0,248,0, 
1.4767,33.9,-58.8,-15.0,33.6,16.2,-132.3,-3.3,-0.9,-4816.5,-21.6,-126.9,-120.0,62.4,-167.1,4.2,-159.6,-6.9,-5.4,-119.4,-118.2,-0.3,3.3,-48.0,-64.8,0,2658,0,249,0, 
1.4800,56.4,-23.4,-8.7,35.1,17.4,-129.9,-1.2,8.1,-4816.5,-29.4,-128.1,-118.2,38.1,-156.3,-3.3,-168.6,-6.6,-6.0,-123.6,-124.2,-0.6,-12.0,-49.8,-63.0,0,2664,0,250,0, 
1.4833,70.5,-27.6,1.8,45.9,32.7,-122.1,-10.5,11.4,222.3,-16.5,-118.2,-109.8,100.5,-151.5,-18.6,-201.3,-6.6,-6.0,-112.8,-110.7,-0.9,4.8,-75.9,-58.2,0,2670,0,251,0, 
1.4867,67.8,-28.5,-5.7,44.7,31.2,-128.7,-9.9,12.3,3260.4,-25.2,-121.2,-111.6,62.1,-147.9,-5.7,-184.8,-6.6,-6.0,-123.3,-116.1,-0.6,4.5,-70.5,-70.2,0,2676,0,252,0, 
1.4900,45.0,-20.1,6.3,48.0,32.7,-132.3,-6.3,14.4,-296.4,-20.4,-118.5,-116.4,77.7,-154.8,-7.5,-173.1,-7.2,-6.0,-113.1,-117.9,-0.9,-1.2,-60.6,-51.9,0,2682,0,253,0, 
1.4933,42.9,-30.3,-10.2,39.9,27.3,-130.5,-4.5,10.2,-6446.7,-21.6,-121.5,-120.0,63.3,-151.2,6.9,-152.7,-6.9,-5.7,-121.5,-120.0,-0.6,-9.9,-50.7,-59.1,0,2688,0,254,0, 
1.4967,49.8,-15.6,3.9,44.7,26.7,-132.3,-9.0,8.4,-6965.4,-32.4,-124.5,-121.5,78.3,-156.3,-5.1,-157.8,-6.9,-6.0,-123.6,-127.5,-0.9,-13.8,-60.6,-63.9,0,2694,0,255,0, 
1.5000,63.0,-30.9,-10.2,36.9,19.2,-133.2,-11.7,7.5,-1630.2,-35.7,-129.3,-120.6,62.1,-153.9,-11.4,-165.9,-6.9,-6.3,-135.3,-123.0,-0.9,-18.3,-56.7,-65.1,0,2700,0,0,0, 
1.5033,69.6,-17.1,1.5,39.9,21.3,-135.9,-16.5,6.3,1556.1,-27.9,-119.1,-114.0,63.0,-145.5,-4.5,-174.0,-6.9,-6.0,-123.6,-117.6,0.0,-6.0,-76.5,-66.9,0,2706,0,1,0, 
1.5067,57.0,-4.8,-9.6,33.6,14.7,-140.1,-15.9,5.1,-2964.0,-26.1,-122.4,-114.0,55.2,-138.6,6.0,-157.5,-6.9,-6.0,-127.8,-116.7,-0.6,-6.9,-79.5,-71.7,0,2712,0,2,0, 
1.5100,43.2,-28.2,8.7,39.0,14.4,-138.0,-12.6,5.4,-8521.5,-15.9,-106.8,-113.1,88.8,-147.0,7.5,-173.7,-7.2,-5.4,-110.4,-117.6,-0.6,2.7,-54.3,-65.1,0,2718,0,3,0, 
1.5133,53.7,-8.1,-8.1,29.4,11.4,-141.0,-14.1,0.9,-8447.4,-16.5,-117.3,-114.9,69.0,-148.2,-6.6,-174.6,-7.2,-6.0,-123.0,-117.3,-0.6,-6.6,-64.2,-73.2,0,2724,0,4,0, 
1.5167,57.6,-52.5,-21.9,21.3,-1.2,-147.9,-15.9,-9.3,-3112.2,-27.3,-123.3,-131.1,73.5,-153.0,1.2,-168.3,-6.6,-5.7,-122.4,-133.2,-0.6,-15.0,-53.4,-72.3,0,2730,0,5,0, 
1.5200,62.1,-27.3,-21.6,21.3,-2.4,-153.9,-21.0,-9.3,148.2,-34.8,-131.1,-129.3,60.9,-148.8,0.6,-176.4,-6.9,-5.7,-135.6,-131.4,-1.2,-15.6,-65.4,-68.7,0,2736,0,6,0, 
1.5233,51.3,-27.3,-7.2,30.3,7.2,-148.2,-19.2,-6.3,-3705.0,-28.8,-117.9,-110.4,77.7,-149.7,6.0,-168.6,-7.2,-5.7,-131.7,-116.7,-0.6,-9.9,-59.4,-60.9,0,2742,0,7,0, 
1.5267,46.5,-23.7,-12.3,34.5,10.5,-147.0,-18.3,-3.6,-9558.9,-24.0,-116.1,-111.9,72.0,-144.9,9.3,-171.3,-6.9,-5.7,-125.7,-118.8,-0.6,-8.4,-65.1,-65.4,0,2748,0,8,0, 
1.5300,52.5,-37.5,-9.6,31.5,5.7,-150.0,-19.2,-9.9,-9855.3,-29.7,-123.0,-126.3,55.5,-145.2,7.8,-166.5,-6.9,-6.0,-128.4,-129.0,-0.3,-12.6,-55.5,-71.7,0,2754,0,9,0, 
1.5333,68.4,-29.4,-15.3,30.3,7.8,-151.2,-22.5,-8.7,-4223.7,-35.4,-130.5,-115.8,63.3,-142.2,0.6,-174.9,-7.2,-6.0,-144.9,-128.7,-0.9,-24.3,-60.9,-76.5,0,2760,0,10,0, 
1.5367,54.6,-42.9,-12.6,31.8,9.3,-147.9,-18.3,-7.2,-1333.8,-28.8,-119.4,-117.6,84.9,-150.3,4.5,-171.6,-6.6,-5.7,-128.7,-126.9,-0.6,-16.2,-51.0,-67.5,0,2766,0,11,0, 
1.5400,55.5,-37.2,-10.2,27.6,6.3,-153.6,-22.8,-10.8,-5112.9,-28.5,-120.6,-120.9,49.5,-145.8,12.3,-168.0,-6.9,-6.0,-128.4,-132.0,-0.3,-14.7,-62.4,-74.7,0,2772,0,12,0, 
1.5433,36.6,-55.2,-17.7,29.7,10.5,-147.0,-15.9,-10.5,-10299.9,-18.9,-113.1,-110.7,81.3,-154.8,9.9,-158.1,-6.9,-5.7,-126.9,-119.7,-0.9,-7.2,-52.8,-65.4,0,2778,0,13,0, 
1.5467,44.1,-44.4,-9.3,30.3,10.2,-147.6,-17.1,-10.8,-9781.2,-26.7,-114.6,-116.1,87.0,-152.1,5.7,-168.9,-7.2,-5.7,-123.6,-122.1,-0.3,-12.6,-52.5,-69.9,0,2784,0,14,0, 
1.5500,50.7,-44.4,-13.8,23.1,5.7,-144.3,-12.6,-13.8,-4223.7,-39.0,-121.5,-132.0,43.5,-155.7,6.9,-143.7,-6.9,-5.7,-133.2,-131.1,-0.9,-19.8,-31.2,-74.1,0,2790,0,15,0, 
1.5533,50.4,-49.2,-10.8,39.6,21.0,-135.0,-13.5,-3.9,-666.9,-6.9,-113.4,-102.0,82.5,-144.3,0.9,-186.0,-6.6,-6.0,-117.9,-107.4,-0.9,0.3,-56.1,-48.0,0,2796,0,16,0, 
1.5567,42.3,-32.1,-2.4,38.7,17.1,-132.0,-14.7,-1.5,-4371.9,-21.9,-114.3,-110.7,71.1,-136.5,19.5,-174.3,-7.2,-6.0,-125.4,-112.8,-0.9,-9.6,-49.2,-49.8,0,2802,0,17,0, 
1.5600,43.8,-24.6,9.3,46.8,26.4,-126.9,-6.6,7.5,-9929.4,-7.2,-99.9,-93.9,59.4,-136.2,8.4,-168.6,-6.9,-6.0,-110.7,-101.4,-0.9,8.4,-40.5,-61.8,0,2808,0,18,0, 
1.5633,58.2,-4.8,-7.5,35.7,22.5,-135.9,-15.9,3.0,-9855.3,-12.6,-114.0,-110.1,54.3,-129.6,11.7,-163.5,-6.9,-6.0,-124.5,-107.4,-0.9,4.8,-45.0,-49.8,0,2814,0,19,0, 
1.5667,54.6,-44.1,5.7,41.7,21.0,-134.1,-13.8,0.3,-3556.8,-13.8,-114.9,-112.8,111.3,-143.1,7.2,-169.2,-6.9,-6.0,-117.0,-108.9,-0.6,6.3,-44.4,-50.4,0,2820,0,20,0, 
1.5700,58.8,-19.2,1.2,39.0,22.2,-132.9,-9.3,0.6,0.0,-12.9,-110.7,-111.3,69.6,-141.9,16.2,-155.4,-7.2,-6.0,-116.7,-112.2,-0.9,1.5,-38.4,-52.2,0,2826,0,21,0, 
1.5733,40.2,-40.2,9.6,46.5,30.0,-127.5,-9.0,1.5,-3927.3,1.5,-98.1,-98.1,93.6,-145.2,18.9,-153.3,-7.2,-6.0,-102.3,-102.3,-1.2,15.6,-33.3,-51.6,0,2832,0,22,0, 
1.5767,44.4,-37.2,0.0,42.6,36.6,-127.2,-6.9,-3.6,-9707.1,2.1,-100.8,-97.5,84.0,-143.1,25.8,-143.1,-7.2,-6.0,-109.5,-98.4,-0.9,16.2,-27.6,-51.9,0,2838,0,23,0, 
1.5800,58.2,-21.9,20.1,56.7,44.7,-121.8,-11.1,1.8,-9114.3,-4.5,-87.0,-91.5,94.2,-137.4,19.8,-172.5,-6.9,-6.0,-99.6,-93.3,-1.2,13.8,-45.9,-49.2,0,2844,0,24,0, 
1.5833,64.5,-29.7,3.3,48.0,37.2,-125.4,-9.9,-3.9,-3556.8,-11.7,-96.6,-94.8,79.5,-146.7,11.1,-163.5,-6.6,-6.0,-110.1,-98.4,-0.9,12.6,-43.2,-49.5,0,2850,0,25,0, 
1.5867,56.7,-37.8,-15.6,37.2,24.9,-129.6,-11.1,-10.2,222.3,-20.4,-113.7,-105.6,71.4,-144.9,24.6,-149.7,-7.2,-5.7,-126.3,-110.1,-0.9,-0.6,-39.6,-54.9,0,2856,0,26,0, 
1.5900,45.0,-32.1,-3.3,41.7,30.3,-131.1,-13.5,-0.9,-3705.0,-21.6,-106.8,-111.3,78.0,-147.9,20.4,-157.2,-6.9,-5.7,-120.0,-109.5,-0.6,0.3,-45.0,-47.4,0,2862,0,27,0, 
1.5933,51.9,-10.2,14.7,57.3,43.8,-117.9,-10.5,12.0,-9336.6,-5.7,-87.0,-87.6,95.4,-143.7,0.0,-178.5,-7.2,-6.0,-108.3,-90.3,-0.6,13.2,-49.8,-39.0,0,2868,0,28,0, 
1.5967,57.9,-28.5,6.9,47.4,37.5,-121.5,-14.4,10.2,-9410.7,-11.1,-86.1,-94.8,78.9,-143.7,0.3,-173.7,-7.2,-6.0,-111.3,-97.2,-0.9,5.4,-52.5,-43.2,0,2874,0,29,0, 
1.6000,72.0,6.6,-9.0,32.7,19.5,-134.4,-16.5,5.4,-3705.0,-44.4,-136.2,-128.7,46.5,-147.0,-0.3,-174.9,-7.2,-5.7,-152.4,-130.2,-0.9,-19.8,-62.4,-61.5,0,2880,0,30,0, 
1.6033,48.3,-66.6,-22.2,28.2,13.8,-135.6,-14.1,-2.1,-666.9,-33.9,-138.3,-140.4,67.2,-165.6,0.9,-159.9,-6.9,-5.7,-154.8,-143.7,-0.6,-23.1,-46.2,-60.9,0,2886,0,31,0, 
1.6067,49.2,-29.1,-12.9,31.5,16.8,-139.8,-22.5,1.2,-4668.3,-39.6,-134.1,-131.4,83.4,-151.5,11.4,-171.9,-6.9,-5.7,-150.0,-133.5,-0.3,-22.8,-64.8,-67.5,0,2892,0,32,0, 
1.6100,52.5,-30.0,-12.3,37.5,29.4,-133.5,-16.2,1.8,-10374.0,-24.3,-103.5,-97.8,32.7,-149.4,3.0,-163.2,-6.9,-6.0,-132.0,-105.6,-0.6,0.6,-66.0,-60.0,0,2898,0,33,0, 
1.6133,61.2,-18.9,0.3,40.2,27.3,-135.0,-15.9,3.9,-10670.4,-35.4,-106.8,-101.1,97.8,-152.1,2.1,-175.8,-6.9,-5.7,-131.4,-109.5,-0.6,-6.6,-61.5,-63.0,0,2904,0,34,0, 
1.6167,60.6,-49.8,-23.1,27.3,16.5,-140.4,-20.7,-7.5,-5409.3,-40.8,-120.3,-117.0,63.3,-164.7,4.5,-166.5,-6.9,-6.3,-146.4,-123.0,-0.6,-13.2,-58.8,-68.4,0,2910,0,35,0, 
1.6200,64.5,-29.7,-33.3,19.2,10.2,-140.4,-18.6,-8.4,-2148.9,-49.2,-135.0,-129.0,84.9,-160.5,-0.9,-171.6,-6.9,-6.0,-159.9,-131.7,-0.3,-18.0,-56.7,-75.0,0,2916,0,36,0, 
1.6233,57.0,-31.8,-15.6,28.5,24.0,-131.7,-15.6,0.6,-5631.6,-32.4,-108.0,-101.4,53.7,-150.6,-0.3,-182.4,-6.9,-5.7,-138.9,-112.2,-0.6,-10.2,-58.8,-44.1,0,2922,0,37,0, 
1.6267,43.2,-39.0,-31.8,14.7,12.3,-139.2,-13.2,-7.5,-11707.8,-35.1,-130.8,-125.1,61.5,-158.7,9.0,-155.1,-7.2,-6.0,-156.6,-125.7,-0.3,-20.1,-50.4,-78.0,0,2928,0,38,0, 
1.6300,63.6,-35.7,-33.3,10.2,8.4,-148.2,-17.1,-9.0,-11559.6,-33.0,-132.0,-125.4,64.2,-149.4,6.3,-164.4,-7.2,-6.0,-163.2,-133.5,-0.3,-21.9,-58.5,-65.4,0,2934,0,39,0, 
1.6333,66.3,-36.9,-35.4,8.7,3.6,-149.7,-19.8,-12.3,-6076.2,-40.8,-137.1,-134.7,61.8,-156.0,1.2,-175.2,-6.9,-6.3,-168.0,-137.4,-0.3,-23.7,-63.0,-63.6,0,2940,0,40,0, 
1.6367,67.2,-33.0,-34.5,7.5,3.6,-150.0,-24.9,-13.8,-2964.0,-45.3,-139.2,-129.0,53.4,-155.4,-0.3,-181.8,-6.9,-6.3,-164.7,-136.5,-0.6,-31.5,-69.3,-69.6,0,2946,0,41,0, 
1.6400,46.2,-43.5,-31.2,10.2,6.6,-146.7,-22.5,-9.9,-6817.2,-39.0,-136.8,-132.6,56.1,-162.0,3.3,-174.3,-6.3,-5.1,-164.7,-134.7,-0.3,-27.0,-69.9,-68.7,0,2952,0,42,0, 
1.6433,46.2,-36.3,-31.8,14.7,9.3,-144.0,-20.4,-8.7,-13189.8,-39.9,-131.1,-123.0,61.5,-154.8,10.8,-163.8,-6.6,-6.3,-162.3,-125.4,-0.3,-23.1,-67.8,-66.9,0,2958,0,43,0, 
1.6467,53.7,-41.1,-33.9,15.0,9.0,-143.7,-21.0,-12.9,-12819.3,-45.3,-134.1,-127.5,55.2,-158.1,11.4,-159.9,-7.2,-6.0,-163.8,-130.5,-0.9,-25.2,-64.2,-74.7,0,2964,0,44,0, 
1.6500,66.0,-38.7,-28.2,19.8,13.2,-135.0,-19.2,-12.3,-7187.7,-47.4,-124.2,-126.3,56.1,-154.2,6.3,-163.8,-6.6,-6.0,-150.0,-129.0,-0.9,-22.2,-60.6,-69.0,0,2970,0,45,0, 
1.6533,57.9,-45.0,-31.8,16.8,11.1,-140.7,-24.6,-12.3,-4223.7,-51.9,-126.9,-126.3,50.1,-156.6,12.0,-164.7,-6.6,-5.4,-155.1,-134.1,-0.9,-30.0,-63.3,-60.6,0,2976,0,46,0, 
1.6567,44.1,-47.7,-26.4,20.1,17.7,-135.6,-18.9,-6.9,-8076.9,-45.3,-132.3,-118.2,50.7,-166.5,1.2,-163.8,-6.9,-6.3,-161.7,-126.3,-0.6,-16.8,-58.8,-60.6,0,2982,0,47,0, 
1.6600,39.0,-43.5,-18.9,25.8,24.9,-130.8,-14.7,-1.5,-13486.2,-35.7,-120.3,-109.8,54.9,-164.1,-0.6,-162.0,-6.6,-5.7,-156.0,-120.0,-0.6,-9.6,-53.4,-55.2,0,2988,0,48,0, 
1.6633,45.6,-45.9,-20.1,26.1,26.1,-127.5,-12.3,-3.0,-13189.8,-37.5,-120.3,-112.8,55.8,-165.3,-0.9,-156.9,-6.6,-6.0,-159.9,-116.1,-1.2,-9.0,-52.5,-53.4,0,2994,0,49,0, 
1.6667,60.3,-45.9,-19.5,25.5,25.2,-131.4,-13.5,-6.0,-7335.9,-40.2,-121.2,-111.9,55.5,-162.3,7.2,-153.6,-6.9,-5.4,-160.5,-122.1,-0.6,-13.8,-51.9,-58.2,0,3000,0,50,0, 
1.6700,55.2,-49.8,-24.3,25.8,20.4,-130.8,-10.8,-7.8,-4223.7,-41.1,-127.5,-112.2,55.2,-168.9,4.2,-148.8,-6.6,-6.0,-160.8,-120.9,-0.6,-15.6,-41.4,-54.3,0,3006,0,51,0, 
1.6733,47.1,-40.8,-10.5,33.3,25.2,-127.8,-16.5,-5.1,-7706.4,-30.3,-111.6,-105.3,58.8,-158.7,17.7,-156.9,-6.9,-5.7,-149.4,-116.4,-0.9,-9.9,-45.9,-53.7,0,3012,0,52,0, 
1.6767,36.6,-39.6,-11.1,34.2,33.9,-122.7,-10.8,-2.1,-12819.3,-32.7,-110.7,-102.6,59.7,-155.4,21.3,-149.7,-7.5,-6.0,-149.7,-101.1,-0.6,-3.6,-42.0,-43.5,0,3018,0,53,0, 
1.6800,47.7,-34.8,7.2,47.7,45.9,-115.8,-7.8,4.5,-12374.7,-21.3,-95.7,-87.3,65.1,-162.6,1.8,-150.3,-6.9,-6.0,-126.0,-87.9,-0.6,8.4,-39.6,-39.3,0,3024,0,54,0, 
1.6833,55.2,-50.1,-16.5,32.7,31.5,-117.6,-11.1,-7.2,-6372.6,-33.6,-102.3,-105.0,57.3,-156.9,11.7,-152.1,-6.9,-5.7,-141.6,-104.4,-0.9,-7.5,-40.8,-47.4,0,3030,0,55,0, 
1.6867,57.3,-39.9,-14.4,28.5,27.9,-124.2,-8.7,-9.0,-3556.8,-41.7,-118.5,-107.1,51.0,-158.4,12.3,-141.3,-6.9,-6.0,-149.1,-114.0,-0.3,-8.7,-39.9,-66.0,0,3036,0,56,0, 
1.6900,54.0,-7.5,-0.6,36.6,33.9,-133.5,-10.5,0.0,-6743.1,-38.4,-114.0,-95.7,36.3,-154.8,7.2,-153.6,-7.2,-6.0,-148.2,-104.4,-0.6,-5.7,-51.9,-47.1,0,3042,0,57,0, 
1.6933,42.0,-39.3,4.8,40.8,39.9,-124.2,-11.4,3.9,-12152.4,-17.1,-98.1,-92.1,42.0,-162.3,-6.3,-152.4,-7.2,-6.0,-134.1,-99.3,-0.9,4.8,-52.5,-44.4,0,3048,0,58,0, 
1.6967,48.0,-53.1,-0.3,42.0,39.6,-123.0,-12.3,1.2,-11189.1,-27.9,-102.9,-91.8,95.7,-154.8,16.2,-159.9,-6.9,-6.0,-133.2,-102.0,-0.6,-11.7,-53.7,-50.4,0,3054,0,59,0, 
1.7000,57.9,-42.0,-0.3,44.7,43.2,-123.6,-9.6,3.3,-4890.6,-37.8,-99.0,-96.6,58.5,-160.5,0.3,-147.6,-6.9,-6.0,-131.7,-102.6,-0.6,-14.4,-51.6,-51.3,0,3060,0,60,0, 
1.7033,58.2,-39.6,-5.4,40.8,38.4,-124.8,-13.2,3.9,-1259.7,-31.2,-108.3,-103.2,65.7,-147.9,15.9,-169.8,-7.2,-5.7,-145.2,-109.8,-0.6,-11.1,-58.2,-58.2,0,3066,0,61,0, 
1.7067,48.3,-28.2,9.0,45.3,43.5,-120.9,-7.5,9.3,-4446.0,-31.5,-100.8,-101.4,65.4,-165.9,0.6,-149.7,-7.2,-6.0,-138.9,-103.5,-0.6,-9.0,-40.5,-52.2,0,3072,0,62,0, 
1.7100,44.1,-21.6,9.3,49.5,50.4,-118.8,-9.6,12.0,-9410.7,-23.1,-91.8,-91.2,66.9,-157.5,0.6,-174.0,-6.9,-5.7,-131.7,-103.5,-0.3,0.3,-56.1,-46.2,0,3078,0,63,0, 
1.7133,51.3,-30.0,-6.9,38.1,43.2,-122.1,-10.2,4.8,-8373.3,-25.8,-105.9,-97.5,69.6,-154.2,7.8,-161.4,-7.2,-5.7,-146.7,-105.6,-0.9,-3.3,-58.5,-45.3,0,3084,0,64,0, 
1.7167,63.6,-29.7,-6.3,36.6,37.5,-118.8,-10.5,2.4,-2148.9,-30.3,-121.2,-96.3,33.3,-154.5,-0.6,-163.2,-6.9,-6.0,-157.8,-108.3,-0.3,-7.5,-50.4,-48.6,0,3090,0,65,0, 
1.7200,65.7,-26.7,-14.4,29.1,32.1,-120.0,-14.4,-4.5,1259.7,-27.6,-111.9,-103.2,58.5,-153.3,16.8,-156.0,-6.9,-6.3,-147.3,-114.0,-0.6,-9.9,-53.7,-50.7,0,3096,0,66,0, 
1.7233,51.0,-25.2,-2.7,31.2,29.1,-125.1,-18.9,-5.1,-2000.7,-28.8,-103.2,-98.1,99.6,-154.5,13.5,-156.6,-6.9,-5.4,-139.2,-114.6,-0.3,-9.0,-54.3,-42.3,0,3102,0,67,0, 
1.7267,52.5,3.9,-2.4,33.9,36.0,-117.6,-10.8,3.9,-7113.6,-24.0,-99.6,-90.6,54.9,-158.7,6.6,-159.3,-6.6,-6.0,-136.8,-104.4,-0.9,7.5,-42.6,-30.3,0,3108,0,68,0, 
1.7300,54.0,-36.3,-6.6,29.1,25.2,-125.4,-18.6,-7.2,-6150.3,-30.0,-105.3,-102.6,65.7,-155.1,18.9,-154.8,-6.3,-6.0,-149.1,-114.3,-0.6,-9.9,-44.7,-43.5,0,3114,0,69,0, 
1.7333,73.8,-20.7,-5.4,35.1,35.1,-121.2,-17.4,-1.5,74.1,-28.2,-106.5,-91.2,80.7,-151.2,4.2,-168.9,-6.9,-6.3,-143.4,-108.3,-0.9,-5.1,-55.8,-42.6,0,3120,0,70,0, 
1.7367,67.5,-18.9,-15.0,27.6,26.1,-132.0,-20.7,-4.5,3186.3,-35.4,-119.4,-103.5,55.5,-150.9,10.5,-160.5,-6.6,-6.0,-160.2,-121.2,-0.6,-18.0,-54.6,-48.9,0,3126,0,71,0, 
1.7400,48.0,-36.0,-7.8,31.5,28.2,-123.3,-18.0,-2.1,74.1,-18.9,-100.5,-102.0,65.7,-155.1,8.1,-165.3,-6.6,-6.9,-143.4,-115.2,-0.6,-9.0,-53.4,-52.2,0,3132,0,72,0, 
1.7433,51.6,-18.0,-4.5,34.2,29.4,-129.0,-18.6,0.3,-5779.8,-20.1,-94.2,-102.0,59.7,-162.0,-12.0,-173.7,-6.9,-5.7,-140.1,-117.3,-1.2,-5.1,-59.1,-60.6,0,3138,0,73,0, 
1.7467,50.4,-33.6,-10.5,31.2,21.3,-136.8,-21.3,-5.4,-4668.3,-27.0,-118.5,-104.7,79.5,-162.6,-3.0,-166.8,-6.9,-6.0,-153.0,-120.3,-0.6,-11.1,-69.0,-46.2,0,3144,0,74,0, 
1.7500,63.0,-30.9,-18.3,23.7,15.6,-136.8,-25.5,-10.2,1185.6,-37.8,-123.3,-112.2,54.3,-163.5,1.2,-166.8,-6.9,-6.0,-162.3,-124.8,-0.3,-23.1,-65.4,-56.1,0,3150,0,75,0, 
1.7533,61.2,-20.7,-0.6,33.0,23.1,-129.0,-18.9,-5.7,4520.1,-33.6,-113.7,-104.7,60.9,-163.8,-4.8,-169.2,-6.9,-5.4,-148.8,-117.6,-0.3,-12.3,-56.4,-53.1,0,3156,0,76,0, 
1.7567,48.0,-18.0,-1.8,33.3,24.3,-128.4,-18.9,-5.1,1037.4,-32.1,-102.3,-105.6,51.3,-159.6,0.6,-167.7,-6.6,-6.0,-150.3,-116.7,-0.9,-15.9,-58.8,-51.9,0,3162,0,77,0, 
1.7600,49.5,-26.4,-10.5,31.2,29.7,-131.1,-16.2,-7.5,-4371.9,-27.0,-105.6,-99.0,55.8,-155.1,10.5,-158.1,-7.2,-5.7,-151.2,-111.9,-0.6,-11.7,-52.5,-45.0,0,3168,0,78,0, 
1.7633,55.2,-27.0,-7.5,32.1,28.5,-128.7,-13.8,-6.6,-4223.7,-29.7,-104.1,-102.6,66.3,-160.5,7.5,-141.0,-7.2,-6.3,-147.0,-110.1,-0.9,-3.6,-44.4,-41.7,0,3174,0,79,0, 
1.7667,60.9,-40.8,-25.2,16.5,18.3,-135.6,-17.1,-15.3,1482.0,-41.1,-125.4,-117.0,50.1,-172.2,12.3,-132.9,-6.9,-5.7,-165.3,-123.3,-0.9,-24.3,-41.1,-54.6,0,3180,0,80,0, 
1.7700,66.6,-18.0,-8.1,33.9,27.9,-126.6,-21.3,-2.1,5187.0,-25.5,-107.4,-103.2,62.1,-152.7,1.8,-188.1,-7.2,-6.0,-159.0,-111.0,-0.9,-7.5,-77.7,-47.4,0,3186,0,81,0, 
1.7733,52.2,-29.4,-14.4,28.5,21.0,-129.9,-18.3,0.3,963.3,-26.7,-118.5,-128.7,61.2,-165.3,-0.3,-171.0,-7.2,-5.7,-171.3,-129.3,-0.9,-10.8,-69.6,-55.2,0,3192,0,82,0, 
1.7767,45.6,-30.6,-18.0,26.1,16.5,-133.5,-17.7,2.7,-4668.3,-37.8,-144.0,-153.9,67.2,-162.6,1.5,-168.0,-6.9,-5.7,-183.3,-162.9,-0.6,-13.8,-59.7,-56.7,0,3198,0,83,0, 
1.7800,56.4,-30.6,-14.1,30.9,25.2,-126.0,-15.3,3.3,-4001.4,-28.8,-136.8,-138.6,65.1,-158.1,0.6,-176.4,-7.2,-5.7,-173.1,-134.4,-0.6,-10.5,-55.2,-47.7,0,3204,0,84,0, 
1.7833,69.9,-9.6,-9.9,38.7,32.1,-128.4,-16.2,3.0,2148.9,-26.1,-101.7,-96.3,51.6,-166.8,-6.3,-170.4,-7.2,-5.4,-147.9,-98.7,-0.9,-0.6,-54.6,-45.9,0,3210,0,85,0, 
1.7867,63.9,-37.2,0.6,39.9,27.9,-124.2,-13.2,2.7,5187.0,-28.2,-98.7,-100.2,88.8,-161.7,8.7,-172.2,-6.9,-6.0,-141.0,-109.2,-0.6,-6.6,-54.0,-53.4,0,3216,0,86,0, 
1.7900,51.3,-34.5,-21.9,35.4,31.5,-121.5,-15.6,3.0,1259.7,-27.0,-111.0,-107.1,67.2,-165.0,0.9,-174.9,-7.2,-5.7,-157.2,-111.9,-1.2,0.6,-57.0,-45.9,0,3222,0,87,0, 
1.7933,49.8,-23.4,-4.2,41.7,37.8,-123.3,-16.5,6.9,-4075.5,-17.4,-105.6,-100.2,56.7,-162.0,5.1,-172.2,-6.6,-6.3,-154.2,-104.4,-0.9,-0.9,-59.1,-36.0,0,3228,0,88,0, 
1.7967,56.4,-30.9,-18.6,36.0,35.1,-120.9,-12.9,2.7,-3779.1,-30.0,-122.4,-96.9,70.2,-161.7,10.2,-168.9,-7.5,-6.0,-166.5,-103.5,-0.3,0.0,-49.2,-36.3,0,3234,0,89,0, 
1.8000,64.8,-26.1,-16.2,35.7,32.7,-121.8,-13.8,-3.3,2148.9,-24.9,-123.6,-96.0,78.3,-164.7,1.5,-160.5,-7.5,-5.7,-167.7,-94.5,-0.6,1.8,-45.0,-54.3,0,3240,0,90,0, 
1.8033,74.7,-2.7,-11.7,39.0,39.9,-129.9,-22.2,-1.2,6002.1,-19.5,-105.0,-90.6,20.7,-147.0,4.2,-185.4,-6.9,-5.4,-156.0,-89.1,-0.6,15.0,-64.5,-39.0,0,3246,0,91,0, 
1.8067,44.4,-45.0,-21.9,32.4,36.0,-125.7,-15.3,-7.8,1333.8,-20.4,-104.7,-100.5,84.3,-162.6,11.4,-156.9,-6.9,-6.3,-156.9,-94.8,-0.6,7.2,-43.5,-40.5,0,3252,0,92,0, 
1.8100,43.2,-40.5,-27.9,24.9,24.3,-135.0,-20.1,-10.2,-3408.6,-27.3,-123.6,-109.8,84.6,-155.4,30.6,-165.3,-6.9,-6.0,-166.2,-98.7,-0.6,1.5,-62.7,-42.6,0,3258,0,93,0, 
1.8133,51.6,-37.2,-22.8,25.2,27.9,-129.3,-17.4,-9.9,-2667.6,-24.6,-126.0,-105.6,63.6,-165.6,-2.4,-172.8,-6.9,-6.0,-167.1,-88.2,-0.3,7.8,-53.1,-43.5,0,3264,0,94,0, 
1.8167,61.2,-39.6,-28.2,16.5,18.3,-137.1,-18.3,-12.6,3112.2,-30.0,-138.3,-116.1,65.4,-168.0,-2.4,-158.4,-6.9,-5.7,-183.9,-100.2,-0.9,-2.4,-58.2,-48.3,0,3270,0,95,0, 
1.8200,56.1,-41.1,-34.5,17.7,19.5,-135.0,-19.8,-10.5,6372.6,-30.3,-129.0,-103.2,58.2,-162.6,3.6,-171.6,-6.9,-5.7,-181.5,-86.7,-0.6,4.2,-63.0,-39.6,0,3276,0,96,0, 
1.8233,50.1,1.8,-21.0,19.2,19.5,-136.2,-21.3,-8.7,2297.1,-40.2,-133.2,-115.8,34.5,-165.3,-6.6,-183.9,-6.9,-5.7,-183.6,-93.6,-0.3,1.5,-63.6,-53.1,0,3282,0,97,0, 
1.8267,33.6,-60.9,-36.3,19.8,23.4,-127.8,-13.2,-10.5,-3334.5,-18.3,-123.9,-109.2,65.7,-170.7,-3.3,-167.1,-6.9,-5.7,-171.3,-82.8,-0.6,7.8,-43.8,-44.1,0,3288,0,98,0, 
1.8300,42.6,-60.3,-38.4,17.4,24.0,-131.4,-18.3,-13.5,-2815.8,-28.5,-132.9,-110.4,45.9,-176.4,-0.3,-166.8,-6.6,-5.7,-177.6,-84.6,-0.6,8.7,-50.7,-40.5,0,3294,0,99,0, 
1.8333,62.7,-30.9,-37.8,16.2,25.5,-135.0,-21.0,-15.9,3408.6,-37.8,-138.6,-105.0,17.7,-172.8,-7.5,-162.0,-7.2,-6.0,-190.2,-74.4,-0.6,6.9,-47.7,-35.4,0,3300,0,100,0, 
1.8367,50.7,-58.8,-36.6,19.8,24.3,-132.3,-19.5,-17.7,6372.6,-32.7,-136.8,-105.9,58.5,-170.7,7.2,-160.8,-6.9,-6.0,-186.3,-80.1,-0.6,3.0,-51.9,-36.9,0,3306,0,101,0, 
1.8400,50.4,-20.1,-27.9,19.5,25.5,-129.3,-21.0,-10.2,2519.4,-26.1,-142.5,-112.2,60.9,-165.9,-6.6,-172.2,-6.9,-5.7,-190.8,-85.2,-0.6,6.3,-59.7,-40.8,0,3312,0,102,0, 
1.8433,37.8,-54.9,-41.4,13.5,25.2,-126.0,-12.9,-15.9,-3038.1,-18.3,-139.2,-107.7,44.4,-168.3,8.1,-156.9,-6.9,-6.3,-186.3,-86.7,-0.9,13.8,-51.6,-29.7,0,3318,0,103,0, 
1.8467,48.3,-40.8,-36.6,14.4,32.7,-123.9,-14.1,-15.0,-2148.9,-31.8,-138.3,-110.7,55.2,-171.3,-8.1,-160.5,-6.6,-5.7,-181.8,-81.9,-0.6,5.1,-56.7,-51.6,0,3324,0,104,0, 
1.8500,57.6,-40.5,-38.4,13.8,28.8,-134.4,-14.7,-15.6,3705.0,-36.6,-137.1,-116.7,24.6,-174.3,-8.4,-157.8,-7.2,-6.3,-188.7,-86.7,-0.3,-4.2,-54.6,-45.0,0,3330,0,105,0, 
1.8533,51.3,-46.5,-37.5,15.6,27.3,-132.9,-16.8,-14.4,6891.3,-40.8,-140.1,-108.3,92.4,-169.5,3.3,-158.1,-6.9,-5.4,-192.0,-89.1,-0.9,-5.1,-51.6,-36.3,0,3336,0,106,0, 
1.8567,42.3,-44.7,-33.0,18.3,33.9,-128.4,-18.6,-10.5,2815.8,-24.6,-129.6,-103.8,28.2,-168.6,16.2,-174.3,-6.9,-5.7,-175.2,-82.2,-0.6,11.1,-62.7,-36.9,0,3342,0,107,0, 
1.8600,32.4,-29.1,-13.2,28.8,39.6,-121.2,-9.9,1.5,-2371.2,-24.9,-114.9,-95.4,55.2,-178.5,-5.4,-171.0,-6.9,-5.7,-163.5,-78.9,-0.9,10.2,-55.5,-36.3,0,3348,0,108,0, 
1.8633,38.7,-44.7,-35.7,21.0,32.7,-130.2,-16.5,-6.6,-1704.3,-21.6,-123.9,-107.4,48.3,-172.5,0.6,-172.2,-6.9,-5.7,-172.2,-81.3,-0.9,4.2,-70.5,-32.1,0,3354,0,109,0, 
1.8667,58.2,-4.5,-17.1,22.8,27.0,-136.2,-19.8,-2.7,3630.9,-42.9,-140.1,-111.0,7.5,-164.4,-3.6,-170.1,-6.6,-6.0,-188.4,-91.2,-0.9,-4.2,-73.5,-37.8,0,3360,0,110,0, 
1.8700,41.1,-65.1,-43.8,12.0,24.6,-136.2,-16.8,-11.4,6817.2,-27.0,-137.7,-110.4,50.4,-172.5,-3.3,-165.3,-6.9,-5.4,-188.7,-92.4,-0.3,0.0,-75.6,-41.4,0,3366,0,111,0, 
1.8733,31.5,-42.6,-28.8,16.5,27.3,-129.9,-11.7,-3.0,2889.9,-30.0,-130.2,-106.8,76.5,-173.1,9.6,-156.9,-6.9,-5.4,-178.2,-94.2,-0.6,-3.0,-60.6,-37.2,0,3372,0,112,0, 
1.8767,33.3,-17.4,-29.7,19.2,31.8,-128.7,-16.8,-2.1,-3334.5,-30.6,-134.4,-105.3,22.2,-166.5,0.0,-181.5,-6.9,-5.7,-185.4,-94.2,-0.9,2.4,-73.8,-39.3,0,3378,0,113,0, 
1.8800,33.9,-45.9,-24.3,23.7,35.1,-127.5,-13.5,-3.3,-2371.2,-23.1,-127.2,-96.3,61.8,-174.9,-10.8,-169.2,-7.2,-6.3,-174.0,-88.2,-0.3,-0.3,-59.4,-36.0,0,3384,0,114,0, 
1.8833,49.8,-53.7,-42.3,11.7,25.5,-134.7,-19.2,-14.1,4001.4,-29.1,-147.6,-111.9,49.8,-166.2,11.7,-153.6,-6.6,-5.7,-187.8,-97.2,-0.9,-5.1,-60.6,-41.7,0,3390,0,115,0, 
1.8867,50.1,-32.7,-27.9,16.2,27.9,-134.4,-13.2,-6.0,6743.1,-27.0,-133.8,-115.8,54.0,-172.2,-10.2,-159.6,-6.9,-6.0,-177.6,-93.9,0.0,-0.3,-58.5,-45.6,0,3396,0,116,0, 
1.8900,40.5,-30.6,-27.6,18.0,31.2,-127.2,-11.7,-6.9,2297.1,-28.5,-124.2,-106.5,48.0,-174.0,-0.6,-157.2,-6.9,-6.0,-169.8,-88.8,-0.9,-0.6,-54.9,-36.9,0,3402,0,117,0, 
1.8933,28.2,-36.0,-21.0,14.7,27.0,-133.8,-15.3,-9.0,-3186.3,-28.8,-127.2,-111.0,57.3,-172.5,3.9,-155.7,-7.2,-5.7,-174.3,-99.6,-0.6,-7.2,-57.6,-59.1,0,3408,0,118,0, 
1.8967,46.5,-33.9,-41.7,11.1,24.0,-141.9,-21.9,-12.6,-2371.2,-32.4,-143.4,-114.6,33.3,-168.3,12.3,-166.5,-6.9,-5.4,-189.3,-92.7,-0.6,-2.7,-65.4,-45.6,0,3414,0,119,0, 
1.9000,48.6,-51.3,-36.0,11.7,16.5,-145.5,-21.0,-17.1,3779.1,-42.0,-143.7,-124.8,54.6,-175.5,3.0,-162.9,-6.9,-5.1,-187.2,-104.7,-0.6,-6.9,-66.3,-39.9,0,3420,0,120,0, 
1.9033,40.2,-57.0,-47.4,5.4,15.9,-142.8,-24.0,-20.1,6743.1,-33.6,-144.3,-113.1,33.0,-187.2,-6.0,-176.4,-6.6,-5.7,-191.1,-100.2,-0.6,-6.9,-68.7,-44.7,0,3426,0,121,0, 
1.9067,28.8,-47.1,-45.3,4.8,14.1,-140.4,-18.9,-21.0,2741.7,-45.0,-154.5,-115.8,33.0,-185.7,0.0,-158.4,-6.9,-6.0,-201.6,-98.4,-0.6,-15.0,-59.1,-51.3,0,3432,0,122,0, 
1.9100,26.1,-44.1,-49.5,4.2,12.0,-141.9,-18.3,-21.9,-2667.6,-44.1,-144.9,-120.0,13.8,-189.3,1.2,-163.2,-7.5,-6.0,-195.9,-103.5,-0.3,-6.9,-59.4,-54.6,0,3438,0,123,0, 
1.9133,33.3,-63.0,-43.5,8.7,12.0,-143.7,-24.6,-21.3,-1778.4,-49.8,-148.5,-123.0,34.5,-183.3,-0.3,-192.3,-6.9,-5.7,-194.7,-103.5,-0.6,-18.6,-72.9,-53.7,0,3444,0,124,0, 
1.9167,36.9,-64.8,-51.6,0.9,6.9,-147.0,-23.1,-25.2,4446.0,-57.6,-155.7,-128.1,20.7,-192.3,0.0,-183.3,-7.2,-6.0,-205.8,-107.4,-0.6,-19.5,-77.7,-58.5,0,3450,0,125,0, 
1.9200,32.1,-69.6,-51.9,2.1,8.7,-143.4,-28.5,-29.1,7335.9,-55.8,-150.0,-137.4,10.2,-199.5,-8.4,-180.0,-6.9,-5.1,-197.1,-114.0,-0.9,-25.2,-80.4,-59.1,0,3456,0,126,0, 
1.9233,31.5,-45.9,-52.2,-0.6,2.7,-146.7,-22.8,-23.7,3853.2,-61.2,-151.5,-135.9,15.9,-188.7,-5.7,-180.3,-7.2,-6.3,-204.0,-114.0,-0.3,-19.5,-77.1,-66.3,0,3462,0,127,0, 
1.9267,15.0,-60.0,-53.1,-3.3,-1.5,-148.5,-15.6,-29.4,-2000.7,-57.3,-152.4,-142.5,11.7,-197.1,7.8,-156.9,-6.9,-6.3,-199.5,-117.0,-0.9,-24.3,-66.9,-60.9,0,3468,0,128,0, 
1.9300,42.9,-22.2,-29.4,6.9,6.0,-150.3,-25.2,-18.9,-815.1,-60.6,-146.7,-132.3,-20.7,-179.4,1.8,-195.9,-6.6,-5.7,-202.8,-114.0,-0.6,-30.6,-90.0,-56.1,0,3474,0,129,0, 
1.9333,37.8,-72.9,-61.8,-0.9,11.1,-146.1,-18.6,-26.4,4594.2,-41.7,-150.6,-136.2,53.1,-186.6,-10.8,-180.6,-7.2,-5.7,-199.2,-104.7,-0.3,-21.3,-76.2,-54.0,0,3480,0,130,0, 
1.9367,38.7,-56.4,-61.2,-6.3,3.6,-155.1,-21.3,-27.0,7558.2,-48.9,-162.9,-131.7,26.4,-183.3,-2.7,-182.1,-6.9,-6.0,-214.2,-111.0,-0.6,-21.6,-78.9,-57.9,0,3486,0,131,0, 
1.9400,31.2,-52.2,-53.4,-2.7,7.2,-149.7,-15.6,-28.2,3779.1,-49.8,-153.0,-125.1,30.9,-183.9,-1.5,-172.5,-6.9,-5.7,-203.4,-107.4,-0.6,-15.3,-63.6,-51.3,0,3492,0,132,0, 
1.9433,26.1,-53.4,-51.3,-2.4,5.7,-142.8,-13.2,-26.4,-1407.9,-40.5,-151.2,-131.4,18.0,-170.4,12.6,-166.2,-6.6,-5.7,-198.6,-110.4,-0.9,-12.3,-63.3,-47.4,0,3498,0,133,0, 
1.9467,30.9,-49.5,-47.1,2.7,9.9,-143.1,-13.2,-21.0,-666.9,-40.5,-145.2,-111.9,18.6,-177.3,6.3,-159.3,-7.2,-5.7,-191.1,-96.0,-0.9,-9.3,-59.1,-62.1,0,3504,0,134,0, 
1.9500,42.3,-55.8,-40.2,11.1,20.4,-143.7,-16.5,-18.0,5409.3,-33.0,-138.3,-104.1,51.0,-174.0,-7.2,-180.9,-7.2,-6.0,-186.0,-85.5,-0.9,-7.8,-64.8,-37.8,0,3510,0,135,0, 
1.9533,44.7,-46.8,-45.0,3.6,9.6,-148.2,-19.8,-21.6,8447.4,-42.6,-143.1,-129.6,26.1,-176.1,4.5,-171.0,-7.2,-5.7,-190.8,-99.3,-0.6,-8.1,-66.3,-38.1,0,3516,0,136,0, 
1.9567,33.0,-50.1,-41.7,5.1,13.8,-142.2,-19.2,-17.4,4371.9,-34.8,-141.0,-115.8,-6.6,-170.1,1.2,-171.6,-6.9,-6.0,-188.4,-96.9,-0.6,-1.2,-64.5,-36.9,0,3522,0,137,0, 
1.9600,28.8,-33.6,-40.8,6.9,15.0,-139.8,-17.7,-15.6,-1259.7,-40.2,-142.2,-116.7,40.5,-175.2,14.7,-169.8,-7.2,-5.7,-194.1,-97.2,-0.6,-8.7,-68.4,-48.0,0,3528,0,138,0, 
1.9633,33.0,-65.4,-54.6,-2.4,9.6,-138.9,-14.1,-18.3,-889.2,-48.0,-163.5,-141.3,29.1,-181.2,8.1,-144.3,-6.9,-6.0,-208.5,-118.5,-0.9,-17.7,-42.6,-51.9,0,3534,0,139,0, 
1.9667,48.6,-41.7,-26.4,15.3,27.0,-133.8,-22.8,-4.8,5631.6,-34.5,-150.9,-126.6,43.5,-177.3,-14.4,-182.7,-7.2,-5.7,-195.3,-100.5,-0.9,2.7,-81.0,-32.1,0,3540,0,140,0, 
1.9700,45.6,-44.7,-46.5,1.8,14.4,-135.6,-21.9,-16.8,8817.9,-41.7,-158.4,-123.9,24.3,-183.3,0.0,-157.5,-6.6,-5.7,-201.6,-98.4,-0.9,-4.8,-66.9,-35.1,0,3546,0,141,0, 
1.9733,37.2,-40.2,-35.1,11.1,26.4,-132.3,-20.1,-12.3,4668.3,-20.7,-128.4,-90.6,52.5,-168.9,6.0,-165.9,-6.6,-5.4,-174.3,-66.9,-0.3,17.4,-68.1,-25.5,0,3552,0,142,0, 
1.9767,30.6,-41.4,-33.3,9.9,26.7,-129.9,-14.4,-11.7,-741.0,-19.8,-124.5,-96.6,44.1,-172.8,3.6,-168.0,-7.2,-6.0,-172.8,-74.7,-0.3,16.2,-55.2,-27.3,0,3558,0,143,0, 
1.9800,40.5,-37.8,-43.5,0.6,17.7,-133.2,-15.3,-16.5,148.2,-29.4,-142.8,-123.0,48.0,-175.5,2.7,-151.2,-7.2,-5.7,-188.1,-88.5,-0.9,-1.2,-49.8,-29.4,0,3564,0,144,0, 
1.9833,48.3,-36.3,-36.0,6.0,22.5,-129.3,-18.6,-14.7,6224.4,-30.3,-137.1,-115.2,46.8,-175.2,-7.8,-175.5,-6.6,-5.4,-182.4,-85.8,-0.9,4.2,-68.4,-26.7,0,3570,0,145,0, 
1.9867,60.6,-22.5,-39.0,3.6,21.0,-132.6,-21.3,-15.6,9262.5,-37.2,-141.3,-117.0,22.5,-169.2,9.6,-171.3,-6.6,-5.4,-186.3,-83.4,-0.6,4.8,-70.2,-27.6,0,3576,0,146,0, 
1.9900,34.8,-51.0,-44.7,0.0,18.0,-136.5,-17.1,-18.6,5112.9,-39.6,-150.9,-118.5,35.1,-172.5,25.2,-150.6,-6.9,-5.7,-189.3,-86.4,-0.6,2.4,-53.7,-31.5,0,3582,0,147,0, 
1.9933,36.6,-28.2,-35.7,7.2,23.7,-129.3,-14.7,-11.4,-444.6,-29.1,-140.1,-107.4,32.1,-170.4,8.4,-165.0,-6.9,-5.7,-184.2,-86.1,-0.6,0.9,-60.0,-27.6,0,3588,0,148,0, 
1.9967,50.4,-28.5,-34.8,13.5,30.6,-128.4,-11.4,-6.6,444.6,-28.2,-132.6,-103.5,54.9,-172.2,5.7,-170.1,-6.9,-6.0,-181.2,-68.1,-0.6,13.2,-65.4,-42.9,0,3594,0,149,0, 
2.0000,57.9,-37.2,-30.6,12.9,24.3,-136.8,-13.8,-11.7,6150.3,-39.9,-131.4,-105.6,13.5,-176.7,7.5,-156.0,-6.6,-5.7,-181.5,-75.6,-0.9,-1.2,-54.3,-42.0,0,3600,0,150,0, 
2.0033,62.4,-21.0,-48.6,6.0,19.8,-142.5,-18.9,-14.4,9188.4,-42.6,-138.3,-117.0,2.1,-168.6,8.1,-173.7,-6.9,-6.0,-188.1,-82.5,-0.9,1.5,-70.2,-41.4,0,3606,0,151,0, 
2.0067,23.1,-58.2,-33.6,10.5,23.1,-142.5,-18.3,-15.3,5261.1,-36.6,-128.1,-112.2,57.3,-189.9,6.9,-153.6,-6.6,-5.4,-173.1,-79.2,-0.9,1.8,-67.2,-36.9,0,3612,0,152,0, 
2.0100,28.2,-56.4,-47.4,6.9,24.6,-136.5,-16.2,-14.7,0.0,-38.1,-131.1,-107.4,30.3,-183.0,-6.0,-163.8,-6.9,-5.7,-178.5,-72.9,0.0,7.5,-65.7,-34.5,0,3618,0,153,0, 
2.0133,37.5,-42.6,-41.4,9.0,28.2,-135.0,-19.2,-12.9,666.9,-26.4,-128.1,-103.8,35.7,-177.6,-2.4,-166.8,-6.6,-5.7,-177.9,-67.8,-0.6,12.6,-68.7,-29.7,0,3624,0,154,0, 
2.0167,46.8,-39.6,-52.5,-0.3,16.2,-141.9,-22.8,-23.4,6743.1,-40.8,-147.3,-117.3,34.5,-175.8,1.8,-166.5,-7.2,-5.7,-199.8,-89.1,-0.9,-2.7,-71.7,-44.7,0,3630,0,155,0, 
2.0200,44.4,-37.2,-43.5,3.9,21.0,-140.4,-22.5,-19.8,9114.3,-31.2,-141.9,-115.5,38.1,-174.6,-9.9,-180.3,-6.9,-5.7,-189.6,-77.7,-0.6,5.4,-67.2,-36.0,0,3636,0,156,0, 
2.0233,27.0,-53.4,-49.8,-8.1,8.1,-144.0,-17.1,-28.2,5038.8,-33.6,-147.9,-118.2,28.5,-169.2,24.9,-144.9,-6.9,-5.4,-195.3,-86.7,-0.9,0.3,-59.4,-39.6,0,3642,0,157,0, 
2.0267,32.1,-32.1,-42.3,2.1,16.5,-137.7,-15.0,-17.4,74.1,-33.9,-138.9,-107.7,41.7,-158.4,17.4,-171.3,-7.2,-6.0,-185.1,-81.0,-0.6,2.4,-67.5,-36.6,0,3648,0,158,0, 
2.0300,40.8,-38.4,-41.4,1.8,14.7,-133.2,-12.6,-19.2,222.3,-29.4,-136.2,-110.4,39.6,-168.9,16.5,-158.4,-7.2,-5.7,-186.0,-88.5,-0.6,6.9,-65.7,-42.3,0,3654,0,159,0, 
2.0333,47.4,-40.2,-46.5,-3.3,8.4,-142.8,-17.1,-30.9,6224.4,-37.8,-143.1,-111.9,35.1,-168.6,9.0,-149.1,-7.2,-6.0,-190.8,-90.9,-0.6,-8.4,-58.5,-41.7,0,3660,0,160,0, 
2.0367,54.9,-25.8,-31.2,6.0,9.0,-144.0,-21.6,-23.4,8966.1,-29.7,-132.3,-105.6,23.7,-162.9,16.2,-167.1,-7.2,-5.7,-177.3,-86.4,-0.9,-1.2,-76.2,-44.1,0,3666,0,161,0, 
2.0400,43.2,-34.8,-42.0,0.6,7.2,-138.0,-22.2,-26.1,4594.2,-35.4,-135.0,-102.9,24.3,-160.5,15.9,-160.8,-6.9,-5.4,-183.0,-88.5,-1.2,-14.7,-66.9,-42.3,0,3672,0,162,0, 
2.0433,33.0,-30.9,-35.4,6.0,13.5,-134.1,-18.0,-17.4,-1111.5,-28.5,-131.4,-104.4,34.2,-177.3,5.1,-168.0,-6.6,-5.7,-186.3,-77.4,-0.6,8.1,-63.6,-57.3,0,3678,0,163,0, 
2.0467,44.7,-45.6,-46.8,0.0,9.0,-137.4,-17.7,-20.1,-370.5,-33.9,-145.2,-129.9,35.1,-171.6,18.0,-156.0,-6.6,-5.7,-199.8,-91.8,-0.9,3.0,-67.2,-45.3,0,3684,0,164,0, 
2.0500,50.4,-30.6,-37.2,6.0,9.3,-139.2,-17.4,-16.5,5483.4,-45.6,-146.4,-117.6,34.8,-176.4,-2.7,-165.0,-6.6,-6.0,-205.8,-84.0,-0.3,-0.9,-64.8,-28.5,0,3690,0,165,0, 
2.0533,45.6,-52.5,-55.2,-7.8,1.5,-145.8,-24.0,-25.2,8447.4,-46.2,-150.6,-120.6,-0.6,-185.7,11.4,-152.7,-7.2,-5.7,-207.6,-93.6,-0.3,-6.3,-70.5,-38.1,0,3696,0,166,0, 
2.0567,33.9,-30.3,-42.9,-3.3,2.4,-140.1,-21.3,-21.3,4075.5,-45.9,-151.5,-118.5,46.8,-185.1,6.6,-144.3,-6.6,-5.7,-205.8,-93.3,-0.9,-4.2,-57.3,-42.3,0,3702,0,167,0, 
2.0600,35.4,-60.3,-44.4,0.6,12.3,-129.9,-15.0,-18.9,-1556.1,-28.5,-140.7,-114.0,28.5,-171.3,9.3,-174.6,-6.9,-5.1,-198.3,-82.5,-0.3,7.2,-60.3,-30.6,0,3708,0,168,0, 
2.0633,33.0,-55.5,-51.9,-5.7,3.0,-134.1,-14.4,-30.3,-889.2,-39.6,-161.4,-120.0,33.9,-182.7,7.2,-163.2,-7.2,-6.0,-212.1,-95.4,-0.3,-2.7,-58.2,-36.0,0,3714,0,169,0, 
2.0667,42.0,-58.5,-66.9,-18.9,-2.7,-138.0,-17.7,-37.5,4816.5,-52.2,-171.3,-132.6,19.8,-185.4,8.1,-162.9,-6.6,-5.7,-227.4,-98.7,-0.9,-16.5,-63.9,-44.7,0,3720,0,170,0, 
2.0700,39.9,-48.3,-54.9,-18.3,-6.6,-141.0,-18.9,-37.5,7558.2,-66.9,-174.0,-136.5,28.2,-183.0,2.4,-156.0,-6.9,-5.7,-232.2,-108.0,-0.6,-18.9,-63.3,-49.5,0,3726,0,171,0, 
2.0733,27.3,-51.9,-68.1,-18.3,0.9,-140.1,-13.5,-31.8,2667.6,-54.9,-166.2,-130.5,24.0,-181.5,8.7,-160.5,-6.6,-5.4,-222.0,-90.6,-0.3,-13.5,-51.9,-42.0,0,3732,0,172,0, 
2.0767,22.2,-52.2,-72.9,-24.3,-12.3,-147.9,-20.1,-37.2,-2815.8,-61.2,-168.3,-145.5,-4.8,-175.5,21.9,-154.2,-6.9,-5.4,-224.4,-107.7,-0.6,-18.6,-59.7,-52.2,0,3738,0,173,0, 
2.0800,42.6,-44.4,-61.8,-16.2,-4.2,-137.7,-15.3,-27.9,-2000.7,-57.3,-165.3,-132.0,-0.3,-168.3,0.9,-170.7,-7.2,-6.0,-222.9,-99.6,-0.3,-14.4,-65.4,-44.1,0,3744,0,174,0, 
2.0833,37.8,-60.6,-45.9,-3.9,3.0,-133.8,-11.7,-21.3,4149.6,-46.8,-159.3,-125.4,67.8,-177.6,1.5,-161.4,-6.9,-6.0,-216.6,-93.9,-0.3,-4.2,-61.5,-23.7,0,3750,0,175,0, 
2.0867,37.2,-47.1,-54.9,-4.2,6.9,-127.2,-14.7,-18.6,7335.9,-53.4,-153.3,-123.9,28.2,-174.3,-4.5,-172.8,-6.9,-5.7,-218.1,-95.4,-0.3,-14.4,-69.3,-31.5,0,3756,0,176,0, 
2.0900,22.2,-47.4,-47.4,-1.5,6.6,-131.1,-11.4,-18.0,2964.0,-54.9,-156.6,-125.1,36.3,-176.7,-1.8,-146.7,-7.2,-6.0,-215.1,-93.3,-0.6,-7.8,-60.0,-44.4,0,3762,0,177,0, 
2.0933,24.3,-37.5,-46.8,2.1,12.3,-132.3,-15.0,-12.6,-2667.6,-40.2,-154.8,-120.3,29.4,-173.1,-1.5,-160.8,-7.5,-6.0,-216.6,-89.1,-0.6,-2.4,-64.8,-30.0,0,3768,0,178,0, 
2.0967,38.1,-40.2,-46.8,6.3,14.7,-125.7,-10.2,-11.7,-1852.5,-48.6,-145.2,-118.8,34.8,-177.9,3.9,-145.5,-6.9,-5.7,-207.6,-83.4,-0.6,1.2,-49.5,-22.5,0,3774,0,179,0, 
2.1000,52.2,-34.2,-43.8,12.3,22.2,-123.0,-18.3,-10.5,4297.8,-38.4,-141.3,-104.7,33.9,-169.5,-5.1,-178.5,-7.2,-5.7,-201.0,-75.3,-0.6,2.7,-72.6,-21.9,0,3780,0,180,0, 
2.1033,48.0,-45.6,-48.0,8.4,16.8,-129.3,-15.0,-12.6,6891.3,-42.6,-153.6,-117.0,30.3,-165.6,4.5,-149.1,-6.6,-6.0,-211.2,-87.9,-0.9,3.6,-56.7,-27.9,0,3786,0,181,0, 
2.1067,39.9,-13.8,-47.1,4.5,8.4,-138.3,-16.5,-16.2,2667.6,-46.5,-150.9,-122.1,3.0,-171.0,3.9,-157.2,-6.9,-5.4,-212.7,-94.2,-0.9,-13.8,-59.1,-33.0,0,3792,0,182,0, 
2.1100,41.7,-18.6,-33.9,10.2,15.0,-134.7,-16.8,-13.5,-3260.4,-46.2,-137.1,-117.0,66.3,-164.4,3.9,-158.1,-6.9,-5.7,-195.6,-84.3,-0.3,1.2,-64.5,-32.4,0,3798,0,183,0, 
2.1133,46.2,-47.1,-49.5,-0.9,6.6,-145.5,-21.9,-24.6,-2223.0,-46.8,-143.4,-117.9,-14.1,-162.6,-4.5,-156.6,-6.6,-6.0,-203.7,-92.7,-0.6,-7.5,-68.7,-44.7,0,3804,0,184,0, 
2.1167,43.5,-57.0,-62.1,-3.0,2.1,-144.3,-20.4,-33.3,3482.7,-47.4,-157.8,-118.2,14.4,-184.2,-2.1,-153.3,-6.6,-5.7,-220.2,-88.8,-1.2,-12.6,-53.4,-45.9,0,3810,0,185,0, 
2.1200,38.4,-47.4,-37.5,6.0,7.5,-146.4,-25.2,-27.9,6520.8,-34.2,-140.7,-126.6,56.1,-173.7,-2.1,-170.7,-6.9,-5.4,-198.9,-94.8,-0.3,-2.4,-69.6,-39.0,0,3816,0,186,0, 
2.1233,40.2,-35.7,-49.5,2.1,5.4,-148.2,-22.5,-24.6,1852.5,-35.4,-140.4,-118.2,31.2,-163.8,10.2,-159.3,-6.9,-6.0,-200.1,-87.0,-0.6,-0.3,-63.9,-34.5,0,3822,0,187,0, 
2.1267,30.9,-16.2,-29.7,7.5,7.8,-151.5,-24.3,-20.4,-3927.3,-38.4,-134.4,-109.8,22.2,-168.9,3.3,-164.1,-6.9,-5.7,-195.9,-87.0,-0.9,-4.5,-67.2,-42.0,0,3828,0,188,0, 
2.1300,43.5,-50.7,-46.5,4.2,7.5,-154.8,-27.0,-24.3,-2815.8,-39.9,-141.6,-109.5,44.4,-164.4,18.9,-145.2,-6.9,-6.0,-197.7,-88.5,-0.9,-9.0,-69.3,-49.2,0,3834,0,189,0, 
2.1333,51.3,-46.8,-40.2,7.2,11.1,-152.7,-27.0,-21.3,3186.3,-41.7,-144.6,-113.4,19.2,-166.5,6.9,-162.3,-6.9,-5.7,-199.2,-93.3,-0.6,-15.6,-67.8,-48.3,0,3840,0,190,0, 
2.1367,45.9,-36.0,-36.0,4.2,9.3,-153.0,-22.8,-22.5,6150.3,-51.9,-148.2,-120.3,29.4,-168.6,16.8,-148.8,-6.6,-5.7,-201.9,-96.9,-0.9,-19.2,-66.9,-49.5,0,3846,0,191,0, 
2.1400,44.1,-20.7,-26.1,18.9,18.9,-135.9,-17.7,-13.8,2000.7,-37.2,-119.4,-106.8,29.7,-162.9,6.3,-175.2,-6.9,-6.0,-180.0,-84.9,-0.9,-0.3,-69.3,-42.0,0,3852,0,192,0, 
2.1433,34.5,-30.0,-40.8,11.1,16.8,-144.9,-22.5,-16.8,-3482.7,-33.6,-141.3,-111.3,33.3,-167.4,12.3,-173.1,-6.9,-5.7,-205.2,-89.4,-0.6,-2.4,-75.0,-63.3,0,3858,0,193,0, 
2.1467,33.6,-48.6,-33.9,12.0,20.4,-143.4,-19.2,-18.9,-2593.5,-38.4,-141.3,-108.0,49.8,-171.3,3.6,-163.8,-6.9,-6.0,-204.3,-87.0,-0.6,-2.4,-67.2,-42.0,0,3864,0,194,0, 
2.1500,44.7,-41.1,-43.8,7.8,19.8,-142.8,-21.0,-19.5,3556.8,-42.6,-150.0,-116.7,34.8,-179.7,-2.4,-156.9,-6.9,-6.0,-214.8,-93.9,-0.6,-9.9,-66.9,-44.7,0,3870,0,195,0, 
2.1533,40.2,-48.0,-45.9,9.3,18.9,-140.1,-19.5,-22.5,6965.4,-35.1,-138.9,-116.1,29.4,-172.8,1.5,-161.7,-6.6,-6.0,-200.4,-87.6,-0.9,-9.6,-59.7,-42.9,0,3876,0,196,0, 
2.1567,28.5,-36.6,-43.5,8.4,23.1,-130.2,-16.5,-18.0,2593.5,-28.2,-134.7,-105.6,35.7,-176.4,1.8,-151.8,-6.9,-6.0,-199.8,-77.7,-0.6,3.3,-51.9,-38.1,0,3882,0,197,0, 
2.1600,34.8,-18.0,-26.4,15.6,27.6,-129.6,-15.0,-11.1,-3038.1,-31.5,-126.6,-104.1,40.8,-160.5,7.8,-148.8,-6.9,-5.7,-193.8,-72.3,-0.6,11.7,-48.3,-26.4,0,3888,0,198,0, 
2.1633,34.8,-42.6,-38.1,11.1,22.2,-128.1,-13.5,-12.9,-2074.8,-29.7,-133.5,-104.4,41.1,-177.0,6.0,-135.6,-6.9,-6.0,-194.1,-73.5,-0.9,6.6,-52.2,-24.0,0,3894,0,199,0, 
2.1667,48.9,-33.6,-50.1,-0.6,6.6,-138.6,-16.8,-20.4,4149.6,-49.5,-147.9,-115.8,35.7,-167.4,13.5,-139.2,-6.6,-6.0,-199.5,-91.8,-1.2,-13.2,-48.6,-32.1,0,3900,0,200,0, 
2.1700,52.2,-25.2,-27.9,15.0,21.6,-129.3,-17.4,-9.9,6891.3,-30.6,-124.8,-103.8,33.3,-171.9,-4.2,-177.6,-6.9,-5.7,-186.9,-75.0,-0.6,6.9,-63.0,-24.3,0,3906,0,201,0, 
2.1733,53.1,-14.1,-31.5,11.1,24.0,-129.9,-13.2,-9.6,2815.8,-31.2,-127.8,-101.1,30.9,-162.9,9.6,-151.5,-6.9,-5.7,-197.1,-78.0,-0.6,-0.3,-48.6,-35.1,0,3912,0,202,0, 
2.1767,39.6,-36.3,-18.0,30.3,43.2,-119.1,-6.9,-4.2,-2889.9,-8.7,-114.9,-83.4,102.9,-163.8,10.2,-156.3,-6.9,-6.0,-181.5,-54.3,-0.6,20.4,-57.0,-19.5,0,3918,0,203,0, 
2.1800,58.8,-14.1,-26.7,18.3,31.5,-127.2,-15.0,-10.8,-2000.7,-18.0,-129.9,-96.9,30.3,-145.8,14.7,-160.2,-6.9,-5.7,-192.3,-69.3,-0.6,7.8,-55.8,-30.6,0,3924,0,204,0, 
2.1833,64.5,-15.6,-20.7,18.0,27.3,-127.2,-16.2,-15.9,4297.8,-33.6,-130.2,-105.3,43.2,-163.5,5.1,-156.6,-7.2,-6.3,-194.4,-78.0,-0.3,4.8,-54.0,-28.8,0,3930,0,205,0, 
2.1867,51.0,-18.9,-17.1,24.0,32.7,-123.6,-13.2,-13.2,7113.6,-20.1,-127.2,-98.7,80.4,-166.8,10.8,-144.0,-7.2,-5.4,-185.7,-68.4,-0.9,6.3,-50.1,-27.3,0,3936,0,206,0, 
2.1900,45.9,-27.6,-13.2,30.0,40.2,-111.9,-4.2,-10.8,2964.0,-5.7,-110.4,-83.1,52.5,-157.2,10.2,-151.2,-7.2,-6.0,-168.0,-55.5,-0.6,21.9,-49.5,-11.1,0,3942,0,207,0, 
2.1933,43.5,-27.0,-29.1,21.0,33.9,-108.6,-2.7,-11.4,-3038.1,-7.5,-118.8,-87.9,42.3,-153.0,15.6,-146.1,-6.9,-5.4,-182.7,-55.8,-0.9,17.1,-45.9,-36.0,0,3948,0,208,0, 
2.1967,51.6,-23.7,-24.0,17.7,31.8,-124.8,-7.5,-18.3,-2297.1,-22.8,-117.6,-91.2,30.0,-154.8,9.6,-141.3,-6.9,-5.7,-182.4,-60.3,-0.3,7.2,-46.5,-27.3,0,3954,0,209,0, 
2.2000,55.5,-29.7,-27.6,15.0,28.2,-129.9,-12.3,-23.7,3779.1,-20.4,-121.2,-100.5,72.6,-169.2,15.0,-145.5,-6.9,-6.0,-184.5,-64.5,-0.9,3.6,-58.2,-18.3,0,3960,0,210,0, 
2.2033,54.9,-35.1,-32.4,12.9,27.0,-130.5,-13.8,-24.6,7113.6,-24.6,-131.7,-108.0,67.8,-169.2,1.2,-156.9,-6.6,-5.7,-188.1,-65.1,-0.6,9.6,-61.2,-24.0,0,3966,0,211,0, 
2.2067,42.9,-23.4,-32.4,9.3,24.6,-129.0,-12.6,-23.7,2889.9,-30.0,-136.2,-98.4,36.9,-165.9,8.7,-155.1,-6.9,-6.0,-197.7,-64.5,-0.9,6.6,-57.9,-27.0,0,3972,0,212,0, 
2.2100,37.5,-28.5,-32.1,14.1,25.5,-126.6,-10.5,-17.1,-2741.7,-22.5,-123.3,-99.0,57.3,-166.2,7.8,-159.0,-6.6,-5.7,-188.7,-62.4,-0.6,9.9,-66.6,-26.7,0,3978,0,213,0, 
2.2133,48.0,-28.2,-39.6,7.8,16.2,-131.4,-13.8,-21.9,-1778.4,-30.9,-132.0,-115.8,24.6,-162.3,18.3,-154.8,-6.9,-6.0,-201.3,-77.1,-0.9,6.6,-60.3,-32.1,0,3984,0,214,0, 
2.2167,56.1,-38.4,-48.9,-1.5,8.7,-137.4,-17.4,-24.3,4223.7,-44.1,-136.5,-117.0,31.2,-171.3,11.1,-148.8,-6.9,-5.7,-204.6,-81.3,-0.9,-8.1,-60.9,-40.2,0,3990,0,215,0, 
2.2200,57.3,-28.8,-25.2,15.3,24.9,-124.2,-10.8,-13.5,6743.1,-30.0,-121.2,-97.2,57.9,-166.2,-4.8,-159.3,-7.2,-6.3,-181.5,-68.1,-1.2,12.3,-51.3,-24.6,0,3996,0,216,0, 
2.2233,51.0,-29.1,-43.2,0.6,11.4,-134.4,-12.3,-20.1,2445.3,-39.9,-133.8,-103.5,45.0,-166.5,21.9,-140.7,-6.6,-5.4,-200.1,-74.7,-0.6,4.5,-52.2,-28.5,0,4002,0,217,0, 
2.2267,46.5,-16.5,-39.6,2.1,9.3,-135.3,-13.2,-20.1,-3334.5,-29.4,-125.4,-104.1,24.0,-160.2,16.5,-144.6,-6.9,-5.4,-192.9,-77.4,0.0,8.4,-53.7,-32.1,0,4008,0,218,0, 
2.2300,56.7,-45.9,-40.5,0.6,9.9,-141.6,-12.3,-24.9,-2371.2,-35.4,-121.5,-106.2,46.8,-155.4,36.3,-143.4,-6.9,-5.7,-189.6,-72.6,-1.2,-0.3,-51.6,-32.1,0,4014,0,219,0, 
2.2333,69.0,-14.7,-35.4,8.1,12.0,-141.0,-16.8,-21.3,3112.2,-34.8,-131.7,-99.9,43.5,-157.8,17.4,-151.2,-6.6,-5.7,-196.5,-67.8,-0.6,5.4,-63.9,-37.8,0,4020,0,220,0, 
2.2367,52.8,-51.3,-40.2,9.3,18.6,-139.8,-17.7,-25.8,5779.8,-14.7,-125.7,-87.9,60.3,-164.4,-6.6,-144.0,-6.9,-5.7,-187.8,-62.4,-0.9,14.1,-56.1,-25.5,0,4026,0,221,0, 
2.2400,43.2,-21.6,-18.6,14.1,18.9,-141.9,-21.6,-22.5,1704.3,-16.5,-112.8,-85.2,57.0,-158.1,-2.7,-156.3,-6.6,-5.7,-186.0,-69.0,-0.3,13.5,-63.9,-26.1,0,4032,0,222,0, 
2.2433,43.8,-34.8,-23.4,14.7,21.9,-135.0,-15.3,-24.6,-3927.3,-16.5,-106.8,-86.1,71.7,-156.6,12.9,-146.4,-7.2,-5.7,-176.1,-67.8,-0.9,16.8,-57.0,-18.6,0,4038,0,223,0, 
2.2467,52.5,-32.7,-26.7,14.4,23.1,-131.4,-16.2,-26.7,-3482.7,-14.7,-111.6,-90.0,44.7,-157.8,15.9,-153.0,-7.5,-5.4,-180.6,-66.6,-0.6,16.8,-56.1,-32.7,0,4044,0,224,0, 
2.2500,62.7,-31.8,-33.3,12.9,18.6,-141.9,-22.5,-30.9,2815.8,-19.5,-113.7,-93.3,76.8,-159.0,4.8,-148.8,-6.9,-5.7,-183.3,-68.4,-0.3,13.2,-54.6,-41.7,0,4050,0,225,0, 
2.2533,64.5,-27.3,-24.9,17.7,27.6,-137.1,-16.5,-23.4,5483.4,-12.0,-106.5,-83.4,37.8,-159.6,3.6,-153.9,-6.6,-5.7,-181.8,-58.8,-0.6,15.3,-58.8,-22.2,0,4056,0,226,0, 
2.2567,53.7,-18.3,-21.9,22.2,30.3,-127.5,-14.4,-16.2,1556.1,-7.5,-100.8,-81.6,76.2,-152.7,22.2,-157.2,-6.9,-6.0,-168.0,-57.9,-0.6,24.6,-60.6,-18.6,0,4062,0,227,0, 
2.2600,41.4,-39.0,-15.3,26.7,35.1,-119.7,-7.8,-15.9,-3927.3,-1.2,-94.2,-74.4,74.1,-161.1,17.1,-142.5,-7.2,-6.3,-158.4,-48.0,-0.6,33.6,-44.7,-7.8,0,4068,0,228,0, 
2.2633,57.0,-24.3,-28.2,18.0,25.5,-125.1,-9.3,-17.1,-3112.2,-13.8,-106.2,-80.4,64.5,-157.2,20.4,-146.7,-6.9,-5.7,-178.2,-61.2,-0.9,28.5,-52.8,-16.5,0,4074,0,229,0, 
2.2667,76.5,6.0,-7.8,22.2,26.1,-124.5,-12.6,-8.1,2889.9,-19.5,-110.7,-84.9,45.6,-157.8,11.7,-159.3,-7.2,-6.3,-181.5,-66.0,-0.9,16.5,-55.8,-17.4,0,4080,0,230,0, 
2.2700,81.3,-14.4,-39.6,14.1,17.7,-127.8,-14.1,-14.7,5335.2,-22.8,-128.7,-97.2,49.5,-151.8,9.0,-150.3,-6.6,-6.0,-201.0,-70.8,-0.6,15.9,-51.9,-21.0,0,4086,0,231,0, 
2.2733,53.4,-36.6,-26.4,19.5,24.6,-126.6,-9.0,-12.3,741.0,-13.8,-123.6,-94.5,78.0,-165.6,19.8,-145.2,-7.2,-5.7,-194.7,-72.0,-0.9,20.1,-45.3,-27.6,0,4092,0,232,0, 
2.2767,66.6,-17.1,-39.9,11.1,13.2,-130.2,-14.4,-14.4,-4816.5,-30.3,-156.6,-122.7,22.8,-149.4,24.6,-149.4,-6.9,-5.7,-228.3,-94.2,-0.9,1.8,-51.9,-39.3,0,4098,0,233,0, 
2.2800,67.2,-1.8,-23.7,17.7,22.8,-127.5,-14.4,-12.9,-3779.1,-19.2,-132.3,-125.7,73.5,-160.8,19.8,-150.0,-7.5,-6.0,-197.1,-97.8,-1.2,11.7,-48.6,-29.4,0,4104,0,234,0, 
2.2833,67.8,-47.7,-25.8,15.9,21.6,-132.6,-18.0,-23.1,2519.4,-15.0,-112.2,-101.7,64.8,-163.5,21.3,-144.3,-6.9,-5.4,-179.1,-86.7,-0.3,8.1,-49.5,-24.9,0,4110,0,235,0, 
2.2867,60.9,-43.2,-32.1,15.6,24.9,-131.1,-13.8,-24.3,5557.5,-25.8,-116.7,-92.4,61.5,-163.8,20.4,-129.9,-6.9,-6.0,-187.2,-83.1,-0.9,4.2,-33.6,-19.5,0,4116,0,236,0, 
2.2900,54.6,-19.5,-12.9,28.8,37.5,-115.8,-10.8,-16.8,1037.4,-6.3,-96.3,-84.0,63.9,-150.6,12.3,-144.3,-6.6,-6.0,-173.4,-71.4,-0.9,26.4,-48.6,-5.1,0,4122,0,237,0, 
2.2933,45.0,-26.7,-19.5,29.4,42.0,-109.8,-9.0,-16.8,-4446.0,-4.8,-84.3,-78.0,66.3,-154.8,23.1,-144.3,-6.9,-6.0,-159.3,-68.4,-1.2,29.7,-48.6,-18.3,0,4128,0,238,0, 
2.2967,54.9,-31.2,-20.4,20.4,35.1,-122.7,-9.3,-25.2,-3630.9,-14.7,-93.3,-79.5,63.0,-159.9,25.2,-130.2,-7.2,-6.0,-168.9,-77.1,-0.9,19.2,-41.4,-22.5,0,4134,0,239,0, 
2.3000,65.1,-38.1,-32.1,19.2,36.0,-119.7,-12.0,-19.8,2000.7,-23.1,-98.4,-71.4,54.6,-162.6,12.9,-145.5,-6.6,-6.3,-174.0,-80.7,-0.9,3.0,-45.0,-15.3,0,4140,0,240,0, 
2.3033,56.1,-29.4,-32.7,21.6,38.7,-117.3,-13.2,-20.7,4890.6,-20.7,-92.7,-81.9,49.5,-162.3,5.4,-154.5,-6.6,-5.7,-166.8,-75.9,-0.6,14.4,-54.3,-15.3,0,4146,0,241,0, 
2.3067,38.7,-37.5,-32.1,17.4,35.7,-120.9,-8.7,-19.2,518.7,-28.5,-86.4,-80.4,39.9,-168.3,13.8,-138.0,-6.6,-6.3,-163.5,-86.4,-0.9,-1.8,-46.2,-24.9,0,4152,0,242,0, 
2.3100,43.5,-16.5,-18.9,27.0,41.1,-117.9,-11.4,-9.9,-4668.3,-20.1,-67.5,-66.3,40.5,-165.9,-7.2,-165.0,-7.2,-5.7,-140.7,-70.8,-0.6,19.2,-67.8,-21.6,0,4158,0,243,0, 
2.3133,47.7,-34.8,-20.1,24.9,42.9,-116.4,-9.9,-12.3,-3705.0,-19.2,-73.8,-60.9,74.4,-166.5,3.3,-166.5,-6.9,-5.7,-145.8,-69.6,-0.3,13.5,-53.7,-26.4,0,4164,0,244,0, 
2.3167,63.9,-22.8,-24.3,20.7,38.7,-119.1,-11.7,-14.1,2000.7,-30.3,-77.7,-64.8,46.5,-164.7,-1.8,-166.8,-6.9,-5.7,-153.6,-78.0,-0.6,3.6,-55.8,-24.6,0,4170,0,245,0, 
2.3200,63.3,-23.4,-17.7,22.5,39.6,-122.4,-13.8,-11.7,4890.6,-26.1,-70.2,-58.2,60.9,-172.2,-2.7,-163.5,-6.9,-6.0,-146.1,-74.1,-0.6,3.3,-55.2,-22.2,0,4176,0,246,0, 
2.3233,49.8,-23.4,-18.9,20.7,34.8,-120.6,-8.4,-9.3,444.6,-22.5,-75.6,-59.7,63.3,-167.1,15.3,-149.7,-7.2,-5.7,-148.5,-78.6,-0.6,5.7,-55.2,-19.8,0,4182,0,247,0, 
2.3267,54.3,-15.9,-12.0,19.8,35.7,-122.7,-10.8,-9.3,-4890.6,-20.7,-64.5,-55.5,63.9,-159.9,19.8,-149.4,-7.2,-5.7,-137.4,-80.4,-0.6,0.0,-51.6,-26.7,0,4188,0,248,0, 
2.3300,56.4,-20.4,-21.3,16.2,31.8,-122.7,-10.8,-14.4,-4149.6,-15.0,-68.4,-60.9,70.2,-156.3,21.6,-147.3,-6.6,-6.0,-137.7,-82.5,-0.6,6.0,-55.5,-28.2,0,4194,0,249,0, 
2.3333,68.1,-21.0,-21.0,15.6,30.3,-126.3,-10.5,-21.3,2000.7,-20.7,-65.1,-63.6,70.8,-156.3,27.0,-141.0,-6.9,-6.0,-136.8,-84.3,-0.6,5.4,-48.0,-26.4,0,4200,0,250,0, 
2.3367,61.8,-14.7,-13.2,23.1,36.3,-117.3,-4.8,-15.6,4594.2,-11.7,-41.7,-51.9,72.3,-158.4,14.1,-141.9,-6.6,-6.0,-117.9,-74.1,-0.3,4.8,-41.7,-21.3,0,4206,0,251,0, 
2.3400,45.9,-11.4,-15.9,17.1,30.6,-126.0,-9.3,-17.4,222.3,-18.9,-77.4,-69.3,65.4,-159.6,12.3,-139.8,-6.9,-6.0,-150.6,-85.8,-0.9,1.8,-38.4,-43.8,0,4212,0,252,0, 
2.3433,48.6,-18.9,-11.7,24.0,36.6,-125.7,-6.9,-14.7,-5409.3,-3.9,-52.2,-56.7,82.5,-148.2,24.0,-134.1,-7.2,-6.0,-118.5,-81.3,-0.6,16.2,-42.3,-25.2,0,4218,0,253,0, 
2.3467,62.4,-13.8,0.3,27.9,37.2,-123.0,-8.1,-14.7,-4890.6,-11.1,-43.5,-41.7,83.4,-156.0,24.9,-141.3,-6.6,-6.0,-115.2,-72.3,-0.9,8.1,-41.4,-29.4,0,4224,0,254,0, 
2.3500,69.6,-21.0,-13.5,26.1,40.5,-120.6,-7.2,-17.1,1037.4,-6.0,-48.6,-55.2,78.3,-150.6,16.8,-146.1,-6.6,-6.0,-116.4,-76.5,-0.9,6.0,-49.2,-22.2,0,4230,0,255,0, 
2.3533,66.6,-16.2,-4.5,27.6,40.5,-121.8,-12.6,-15.9,4075.5,-10.8,-49.5,-57.0,78.9,-154.5,18.6,-149.1,-6.9,-5.7,-114.9,-85.5,-1.2,15.0,-55.5,-18.3,0,4236,0,0,0, 
2.3567,47.1,-18.0,-9.9,25.5,36.3,-128.1,-9.9,-15.9,74.1,-9.6,-39.9,-48.6,71.1,-163.5,7.5,-151.8,-7.2,-5.7,-108.6,-72.9,-0.9,11.1,-61.8,-26.4,0,4242,0,1,0, 
2.3600,45.6,-11.7,-9.6,19.2,28.5,-135.3,-17.7,-16.8,-5853.9,-17.7,-50.1,-59.4,68.7,-151.8,23.4,-158.1,-7.2,-6.0,-115.5,-92.7,-0.6,3.9,-67.8,-36.6,0,4248,0,2,0, 
2.3633,47.7,-29.1,-15.3,14.7,24.0,-141.9,-18.0,-21.3,-4890.6,-16.5,-56.4,-71.4,72.0,-159.6,37.8,-150.9,-6.9,-5.4,-126.0,-99.3,-0.6,-6.0,-70.5,-51.3,0,4254,0,3,0, 
2.3667,60.6,-18.9,-3.6,20.7,29.7,-137.7,-12.3,-13.5,1111.5,-12.9,-55.8,-68.4,89.1,-166.5,4.5,-154.2,-7.2,-5.7,-120.9,-93.6,-0.9,3.9,-63.0,-42.3,0,4260,0,4,0, 
2.3700,58.8,0.9,-9.0,20.4,25.5,-139.2,-18.0,-17.1,3779.1,-14.7,-53.7,-58.2,44.7,-163.5,12.0,-156.6,-6.9,-6.0,-120.3,-92.4,-0.9,-7.8,-66.6,-47.1,0,4266,0,5,0, 
2.3733,47.4,-19.2,1.2,23.1,25.2,-140.1,-11.7,-14.7,-1185.6,-13.2,-44.7,-51.3,87.6,-158.4,25.8,-143.7,-6.6,-5.7,-110.7,-87.6,-0.6,-0.6,-58.5,-44.7,0,4272,0,6,0, 
2.3767,44.1,-23.1,-17.1,6.3,11.4,-145.5,-15.3,-24.0,-6669.0,-15.9,-61.2,-68.1,66.3,-158.4,42.3,-134.1,-7.2,-6.0,-128.1,-97.2,-0.6,2.1,-53.7,-50.1,0,4278,0,7,0, 
2.3800,60.0,-7.8,3.9,22.8,21.6,-141.9,-16.2,-15.3,-5705.7,-14.7,-57.9,-62.4,89.1,-147.9,31.2,-163.8,-6.6,-5.7,-117.9,-93.6,-0.6,0.3,-76.2,-54.3,0,4284,0,8,0, 
2.3833,59.4,-18.0,-15.9,12.9,12.0,-139.2,-12.9,-22.2,518.7,-15.6,-69.0,-81.6,71.4,-164.7,23.4,-147.6,-6.3,-5.7,-131.7,-106.2,-0.6,-7.8,-56.4,-47.1,0,4290,0,9,0, 
2.3867,61.8,-1.5,4.5,23.7,21.3,-139.2,-11.7,-13.8,3705.0,-13.2,-52.5,-75.0,66.6,-153.6,36.6,-146.7,-6.9,-6.3,-116.7,-104.1,-0.3,-3.0,-59.7,-56.4,0,4296,0,10,0, 
2.3900,47.4,4.5,-7.8,22.2,23.1,-142.2,-16.2,-14.4,-889.2,-3.6,-61.2,-67.5,70.5,-154.5,20.7,-153.9,-6.6,-5.7,-126.9,-93.3,-0.6,5.7,-54.9,-40.5,0,4302,0,11,0, 
2.3933,33.3,-21.3,0.0,22.8,19.5,-145.5,-13.8,-17.1,-6224.4,3.0,-54.0,-62.7,104.4,-161.1,17.7,-144.3,-6.9,-5.4,-119.4,-90.6,-0.9,11.7,-60.0,-39.3,0,4308,0,12,0, 
2.3967,48.9,-13.5,-12.3,13.2,15.6,-142.2,-14.1,-19.2,-5557.5,-11.1,-67.5,-72.9,74.4,-156.6,25.5,-143.4,-7.2,-6.3,-131.7,-98.4,-0.6,4.2,-54.9,-43.2,0,4314,0,13,0, 
2.4000,62.4,-7.2,-4.2,15.9,15.0,-141.0,-12.6,-17.4,815.1,-17.1,-61.8,-80.7,76.5,-152.7,17.1,-145.8,-7.2,-6.3,-132.0,-102.9,-0.9,1.2,-58.8,-50.1,0,4320,0,14,0, 
2.4033,52.8,-11.4,-10.2,15.9,18.6,-133.8,-10.8,-16.5,3334.5,-7.8,-62.7,-77.4,94.2,-171.9,9.3,-150.6,-6.9,-6.0,-129.3,-95.7,-0.6,4.8,-55.2,-44.7,0,4326,0,15,0, 
2.4067,39.9,-22.5,-19.8,6.9,6.6,-138.0,-15.0,-21.3,-815.1,-16.8,-72.9,-78.3,70.2,-168.0,13.8,-156.9,-6.9,-6.0,-140.1,-106.5,-0.6,-6.0,-65.7,-55.2,0,4332,0,16,0, 
2.4100,41.1,-13.2,-37.8,-12.3,-10.5,-149.7,-12.6,-28.8,-6965.4,-28.2,-91.2,-96.0,61.2,-175.2,18.6,-138.0,-6.9,-6.0,-161.7,-130.5,-0.9,-15.3,-63.3,-65.4,0,4338,0,17,0, 
2.4133,53.1,-33.6,-19.5,1.8,-1.5,-145.8,-12.0,-21.3,-5187.0,-25.8,-78.6,-96.0,68.1,-161.4,14.7,-170.7,-6.9,-5.7,-143.7,-120.9,-0.9,-12.9,-76.5,-57.0,0,4344,0,18,0, 
2.4167,55.5,-40.8,-44.1,-12.0,-7.5,-148.8,-15.9,-29.1,666.9,-37.8,-91.8,-100.8,67.2,-178.2,14.1,-161.7,-6.6,-6.0,-160.8,-124.2,-1.2,-25.2,-70.8,-69.0,0,4350,0,19,0, 
2.4200,51.9,-29.7,-38.4,-11.1,-8.7,-144.9,-11.4,-29.1,3260.4,-41.7,-97.5,-100.5,54.3,-174.9,5.1,-150.6,-6.9,-6.0,-161.7,-123.9,-0.9,-21.9,-64.2,-65.4,0,4356,0,20,0, 
2.4233,44.7,-20.4,-40.8,-10.5,-6.3,-145.8,-10.5,-23.1,-815.1,-33.6,-96.6,-98.1,75.6,-177.0,14.7,-153.6,-7.2,-5.7,-170.1,-123.3,-1.2,-18.9,-63.3,-52.5,0,4362,0,21,0, 
2.4267,42.0,-25.5,-34.8,-7.8,-8.4,-144.0,-12.0,-21.6,-5853.9,-31.5,-94.5,-95.1,48.0,-176.7,19.2,-157.2,-6.9,-5.4,-161.4,-121.5,-0.9,-17.4,-67.5,-45.9,0,4368,0,22,0, 
2.4300,50.1,-26.7,-31.8,-5.1,-3.0,-135.9,-12.9,-21.0,-4816.5,-37.8,-99.3,-96.9,60.6,-183.6,-0.9,-162.6,-6.6,-6.0,-159.9,-116.4,-0.6,-20.4,-75.0,-42.6,0,4374,0,23,0, 
2.4333,64.5,-20.1,-24.6,1.5,4.2,-129.9,-13.2,-19.5,889.2,-36.9,-89.1,-99.3,61.5,-181.5,-5.7,-174.0,-7.2,-5.4,-158.4,-114.3,-0.3,-18.3,-76.2,-55.5,0,4380,0,24,0, 
2.4367,63.3,-14.4,-37.2,-1.5,1.5,-142.5,-14.4,-23.4,4446.0,-42.3,-100.2,-103.5,18.0,-179.7,-12.3,-170.7,-6.9,-5.7,-168.9,-120.6,-0.6,-25.2,-75.6,-47.7,0,4386,0,25,0, 
2.4400,48.9,-10.2,-21.0,4.2,6.3,-136.8,-14.1,-17.1,0.0,-43.8,-90.6,-87.6,62.1,-175.2,-3.9,-168.0,-6.9,-5.4,-161.7,-117.6,-0.9,-20.1,-74.1,-42.9,0,4392,0,26,0, 
2.4433,33.3,-31.2,-25.2,8.7,14.7,-135.6,-13.5,-15.6,-5483.4,-28.2,-81.6,-82.2,88.5,-180.9,0.0,-167.1,-7.2,-6.0,-148.5,-108.6,-0.9,-11.7,-75.6,-42.6,0,4398,0,27,0, 
2.4467,47.4,-18.9,-14.7,11.1,19.2,-130.8,-14.1,-15.3,-4446.0,-33.6,-79.2,-77.1,68.4,-180.0,-5.4,-166.2,-6.9,-6.0,-151.5,-95.4,-0.9,-20.7,-72.9,-41.4,0,4404,0,28,0, 
