Time,P3,C3,F3,Fz,F4,C4,P4,Cz,CM,A1,Fp1,Fp2,T3,T5,O1,O2,X3,X2,F7,F8,X1,A2,T6,T4,Trigger,Time_Offset,ADC_Status,ADC_Sequence,Event,Comments
0.0033,-25.5,-303.9,43.5,107.7,-67.2,-134.4,-330.0,87.6,-592.8,-312.9,147.0,56.7,-966.6,-1160.4,-492.6,100.2,-6.3,-5.7,-117.9,-1549.8,-0.6,-49.8,-555.3,-90.0,0,6,0,234,0, 
0.0067,-35.1,-310.8,35.1,97.8,-79.2,-141.3,-333.9,79.8,-444.6,-332.1,130.8,40.8,-973.8,-1155.0,-489.9,102.0,-6.9,-5.7,-131.7,-1565.7,-0.6,-70.2,-557.1,-101.4,0,12,0,235,0, 
0.0100,-32.7,-306.6,38.4,102.0,-76.2,-136.5,-327.6,86.7,-518.7,-319.2,136.5,45.6,-972.9,-1167.3,-507.9,93.9,-6.9,-5.7,-123.9,-1555.2,-0.3,-56.4,-551.4,-90.0,0,18,0,236,0, 
0.0133,-34.8,-318.9,20.1,85.5,-90.9,-148.5,-333.6,75.6,-592.8,-340.5,116.1,29.1,-985.2,-1158.6,-494.1,110.1,-6.9,-6.0,-142.5,-1570.2,-0.9,-73.2,-557.4,-102.0,0,24,0,237,0, 
0.0167,-26.7,-310.8,32.4,90.6,-81.9,-144.6,-327.6,81.0,-518.7,-328.8,126.6,40.5,-976.5,-1144.2,-483.0,106.5,-7.2,-5.7,-136.2,-1559.4,-0.6,-60.6,-554.7,-91.8,0,30,0,238,0, 
0.0200,-30.9,-312.6,29.4,92.7,-84.0,-143.4,-330.6,79.5,-444.6,-324.3,127.2,41.4,-973.8,-1157.4,-492.3,115.2,-6.6,-5.7,-136.5,-1561.5,-0.6,-58.2,-552.3,-90.6,0,36,0,239,0, 
0.0233,-24.3,-301.2,42.9,106.8,-67.2,-129.0,-316.2,89.7,-444.6,-308.7,146.1,59.1,-966.0,-1164.3,-501.0,99.6,-6.9,-5.7,-118.5,-1544.1,-0.3,-37.8,-544.5,-77.7,0,42,0,240,0, 
0.0267,-24.0,-297.9,45.6,106.5,-67.8,-130.5,-321.3,87.6,-444.6,-310.2,143.7,60.0,-964.5,-1156.5,-495.3,105.9,-6.6,-5.7,-118.2,-1547.1,-1.2,-45.0,-546.3,-79.2,0,48,0,241,0, 
0.0300,-22.2,-294.3,48.0,112.2,-62.4,-131.4,-323.1,90.0,-592.8,-307.5,148.8,60.9,-963.6,-1151.1,-489.9,107.4,-6.6,-6.0,-114.0,-1544.7,-0.9,-34.8,-546.3,-78.0,0,54,0,242,0, 
0.0333,-32.7,-302.7,39.9,108.0,-62.4,-135.6,-325.5,84.9,-592.8,-316.5,140.7,54.3,-975.0,-1176.6,-496.2,126.6,-6.9,-5.7,-120.0,-1551.0,-0.6,-49.5,-552.6,-85.2,0,60,0,243,0, 
0.0367,-32.1,-301.8,40.5,110.1,-63.6,-134.7,-333.6,85.5,-518.7,-317.7,140.4,57.3,-968.4,-1146.6,-493.2,111.6,-6.9,-5.7,-117.6,-1547.1,-0.6,-48.0,-555.6,-84.9,0,66,0,244,0, 
0.0400,-29.1,-302.7,48.3,113.7,-57.6,-129.0,-332.1,89.7,-370.5,-307.8,147.6,63.9,-965.4,-1152.9,-498.0,88.5,-7.2,-5.7,-111.3,-1539.0,-0.6,-39.6,-552.6,-80.4,0,72,0,245,0, 
0.0433,-32.7,-303.3,48.3,116.1,-58.8,-131.4,-331.8,90.0,-444.6,-310.5,142.8,60.9,-966.3,-1152.3,-494.7,89.4,-7.2,-6.0,-109.8,-1542.9,-0.9,-42.6,-554.1,-80.7,0,78,0,246,0, 
0.0467,-37.8,-309.3,41.7,110.7,-65.4,-133.5,-328.8,88.8,-741.0,-317.7,138.6,54.9,-974.1,-1163.7,-501.6,103.8,-6.6,-5.7,-118.8,-1544.4,-0.9,-50.7,-554.7,-87.0,0,84,0,247,0, 
0.0500,-34.2,-307.2,42.0,110.4,-65.7,-133.8,-330.0,88.8,-518.7,-315.6,142.2,52.8,-972.9,-1155.9,-499.8,99.6,-6.6,-6.3,-117.0,-1549.5,-0.6,-48.0,-557.1,-86.7,0,90,0,248,0, 
0.0533,-37.2,-306.0,38.4,102.0,-70.2,-138.3,-329.1,83.4,-444.6,-319.5,138.3,48.9,-972.6,-1150.5,-494.4,98.4,-6.9,-6.0,-120.9,-1551.3,-0.6,-54.0,-554.1,-93.9,0,96,0,249,0, 
0.0567,-33.3,-300.9,40.2,111.3,-66.9,-131.7,-322.8,88.5,-370.5,-311.7,140.7,55.8,-966.0,-1165.5,-502.2,107.7,-6.9,-6.3,-119.1,-1540.8,-0.6,-45.0,-546.3,-82.5,0,102,0,250,0, 
0.0600,-24.0,-290.7,48.0,116.7,-59.4,-126.9,-319.5,96.3,-592.8,-300.0,151.8,63.3,-955.2,-1154.4,-498.3,92.1,-6.9,-6.3,-109.2,-1535.7,-0.6,-35.7,-546.6,-80.7,0,108,0,251,0, 
0.0633,-26.1,-298.8,33.9,102.3,-76.2,-141.3,-327.6,85.5,-592.8,-320.1,138.0,46.8,-964.8,-1145.7,-486.3,95.4,-7.2,-5.7,-123.6,-1552.8,-0.6,-52.2,-555.0,-92.4,0,114,0,252,0, 
0.0667,-25.2,-293.7,44.4,105.6,-73.5,-138.0,-328.8,88.2,-444.6,-313.5,138.9,55.5,-963.3,-1146.3,-489.9,98.7,-7.2,-6.0,-122.4,-1544.1,-0.9,-44.4,-553.5,-90.0,0,120,0,253,0, 
0.0700,-26.4,-290.4,40.5,108.9,-72.6,-135.9,-324.3,91.8,-370.5,-312.0,142.2,57.3,-959.4,-1157.1,-498.9,99.3,-7.2,-6.0,-117.0,-1542.9,-0.6,-47.7,-545.7,-84.3,0,126,0,254,0, 
0.0733,-24.9,-288.3,45.6,109.8,-67.8,-135.3,-324.3,92.4,-444.6,-310.5,149.1,58.2,-954.3,-1149.9,-487.2,102.3,-6.9,-6.0,-115.8,-1538.4,-0.9,-44.1,-541.2,-85.2,0,132,0,255,0, 
0.0767,-31.8,-294.3,42.3,108.3,-72.0,-137.1,-324.0,91.5,-444.6,-306.0,146.4,57.3,-963.6,-1174.2,-501.6,117.6,-6.6,-6.0,-115.8,-1547.7,-0.6,-45.9,-539.4,-83.4,0,138,0,0,0, 
0.0800,-21.6,-287.4,49.2,114.0,-63.3,-130.5,-323.7,101.1,-444.6,-306.0,148.2,64.2,-957.9,-1149.6,-494.7,102.0,-6.9,-6.0,-110.1,-1536.6,-0.9,-38.7,-539.4,-78.3,0,144,0,1,0, 
0.0833,-22.8,-287.4,50.1,118.2,-65.7,-131.7,-321.3,96.9,-592.8,-307.2,149.7,65.4,-962.7,-1163.7,-496.2,102.9,-6.6,-6.3,-115.2,-1533.0,-1.2,-39.3,-543.3,-79.8,0,150,0,2,0, 
0.0867,-27.3,-291.6,49.2,117.3,-64.8,-133.2,-331.2,93.3,-444.6,-308.7,151.8,65.4,-964.8,-1165.5,-500.4,103.2,-6.9,-6.0,-114.6,-1532.7,-0.9,-40.5,-546.3,-80.4,0,156,0,3,0, 
0.0900,-22.5,-289.2,54.3,125.1,-57.3,-125.1,-324.3,94.5,-444.6,-300.9,165.0,77.1,-958.2,-1158.6,-501.0,98.1,-6.6,-6.3,-108.0,-1526.7,-0.6,-33.3,-543.0,-72.3,0,162,0,4,0, 
0.0933,-24.6,-285.3,55.5,127.5,-53.4,-122.1,-323.4,96.9,-370.5,-302.4,166.2,77.7,-959.1,-1162.2,-494.1,108.9,-6.9,-6.0,-102.3,-1522.8,-0.9,-32.4,-534.0,-69.9,0,168,0,5,0, 
0.0967,-24.9,-291.3,54.9,128.4,-54.6,-124.5,-323.7,90.9,-518.7,-303.3,162.3,80.1,-960.6,-1164.0,-490.8,111.0,-6.6,-6.3,-97.8,-1521.3,-0.9,-37.2,-535.8,-70.8,0,174,0,6,0, 
0.1000,-20.4,-283.8,62.4,134.4,-45.3,-115.5,-322.2,97.8,-518.7,-293.1,169.5,81.9,-949.5,-1141.2,-485.1,112.5,-6.9,-5.7,-88.2,-1521.6,-0.9,-32.1,-530.7,-64.8,0,180,0,7,0, 
0.1033,-26.1,-287.1,57.6,126.9,-56.4,-120.3,-316.2,95.4,-592.8,-303.0,154.8,61.2,-957.3,-1146.3,-486.3,120.9,-6.9,-5.4,-103.8,-1549.5,-0.3,-51.6,-538.2,-75.9,0,186,0,8,0, 
0.1067,-22.2,-283.5,57.6,126.0,-54.9,-119.1,-321.6,99.0,-370.5,-296.4,141.6,60.6,-951.0,-1133.7,-478.5,110.7,-6.9,-6.0,-110.7,-1537.8,-0.9,-37.2,-534.3,-67.5,0,192,0,9,0, 
0.1100,-21.9,-278.1,68.1,136.8,-45.3,-115.2,-322.2,102.9,-444.6,-283.2,178.5,97.8,-944.4,-1130.4,-485.1,94.5,-6.6,-5.7,-86.4,-1493.4,-0.6,-30.0,-533.4,-59.1,0,198,0,10,0, 
0.1133,-23.7,-277.5,66.6,139.2,-44.7,-115.2,-321.3,101.7,-370.5,-287.7,186.0,107.7,-947.1,-1142.7,-486.9,111.0,-7.2,-6.0,-83.1,-1484.1,-0.9,-20.1,-527.1,-57.3,0,204,0,11,0, 
0.1167,-31.5,-285.9,56.7,128.1,-55.2,-126.0,-328.2,87.6,-518.7,-304.5,169.2,92.4,-959.1,-1142.7,-478.8,114.3,-6.6,-6.0,-103.5,-1497.9,-0.6,-34.2,-537.0,-68.7,0,210,0,12,0, 
0.1200,-30.0,-291.6,43.2,116.1,-63.6,-135.3,-327.9,81.3,-444.6,-324.9,156.9,86.4,-965.7,-1140.9,-473.4,135.6,-7.2,-6.0,-122.7,-1498.2,-0.9,-54.6,-544.5,-79.8,0,216,0,13,0, 
0.1233,-33.9,-282.3,53.1,131.7,-46.5,-126.6,-320.1,94.2,-444.6,-305.4,180.9,109.5,-960.0,-1151.1,-501.0,117.3,-6.6,-6.6,-106.2,-1475.7,-0.9,-35.1,-536.7,-68.1,0,222,0,14,0, 
0.1267,-24.3,-273.0,63.6,145.2,-35.4,-114.9,-317.1,107.7,-444.6,-302.7,180.3,115.5,-950.4,-1144.5,-495.9,91.2,-6.6,-5.7,-105.3,-1460.4,-0.6,-20.4,-527.1,-60.0,0,228,0,15,0, 
0.1300,-26.4,-277.5,62.7,143.7,-37.5,-116.7,-318.3,103.8,-444.6,-313.8,177.0,124.2,-960.0,-1143.6,-489.0,101.4,-7.2,-6.0,-117.0,-1446.0,-0.3,-25.8,-530.1,-63.3,0,234,0,16,0, 
0.1333,-25.8,-279.9,53.7,143.1,-33.6,-114.9,-315.6,105.3,-518.7,-322.5,183.3,126.0,-965.4,-1142.1,-485.4,110.4,-6.6,-6.3,-121.2,-1438.8,-0.6,-25.5,-531.6,-63.6,0,240,0,17,0, 
0.1367,-27.0,-285.3,50.4,137.7,-36.0,-116.1,-315.6,102.0,-518.7,-325.8,168.0,120.9,-967.8,-1143.0,-486.6,117.3,-6.6,-5.7,-134.4,-1443.3,-0.6,-34.8,-535.2,-70.8,0,246,0,18,0, 
0.1400,-21.0,-280.8,55.5,147.0,-30.0,-109.2,-314.4,102.9,-370.5,-321.3,180.6,134.4,-964.8,-1137.6,-485.1,99.6,-6.9,-6.0,-129.3,-1422.3,-1.2,-25.5,-532.5,-60.6,0,252,0,19,0, 
0.1433,-24.9,-280.2,57.0,150.0,-27.3,-106.2,-316.2,103.5,-370.5,-315.9,183.9,140.1,-962.7,-1150.8,-487.5,108.6,-7.2,-5.7,-124.8,-1418.4,-0.6,-22.8,-528.9,-54.6,0,258,0,20,0, 
0.1467,-25.2,-282.3,55.2,143.7,-33.6,-105.0,-311.1,106.2,-370.5,-320.7,172.5,127.2,-967.2,-1152.0,-488.1,122.7,-6.9,-5.7,-133.2,-1431.6,-0.9,-31.5,-525.3,-56.7,0,264,0,21,0, 
0.1500,-18.3,-278.1,57.9,147.3,-25.5,-99.3,-308.7,111.0,-518.7,-314.4,181.2,134.1,-961.8,-1137.0,-479.7,111.6,-6.6,-6.0,-124.8,-1422.3,-0.3,-17.1,-514.8,-45.3,0,270,0,22,0, 
0.1533,-17.1,-280.2,53.1,144.9,-29.1,-104.1,-309.3,106.5,-592.8,-311.4,174.3,126.3,-961.5,-1140.0,-481.5,96.6,-6.6,-6.3,-128.4,-1426.5,-0.6,-19.8,-524.4,-52.8,0,276,0,23,0, 
0.1567,-16.8,-280.5,51.3,139.5,-31.8,-108.3,-309.0,104.4,-296.4,-319.8,171.6,122.7,-959.4,-1139.1,-472.8,116.7,-6.9,-5.4,-134.7,-1433.7,-0.6,-23.1,-523.5,-56.7,0,282,0,24,0, 
0.1600,-22.5,-285.3,47.7,138.0,-40.8,-116.7,-311.1,99.0,-370.5,-322.5,169.2,114.0,-961.8,-1140.3,-475.8,123.0,-6.6,-6.0,-135.3,-1443.0,-0.6,-35.4,-521.4,-65.4,0,288,0,25,0, 
0.1633,-27.0,-291.9,45.6,135.3,-46.8,-119.4,-311.1,97.2,-370.5,-324.3,161.4,108.6,-972.3,-1159.5,-481.8,135.6,-6.9,-5.7,-137.7,-1450.8,-0.9,-33.6,-525.6,-65.1,0,294,0,26,0, 
0.1667,-21.0,-278.1,58.8,144.0,-34.8,-112.5,-309.0,104.1,-592.8,-308.7,169.2,114.9,-960.6,-1145.1,-481.5,115.5,-6.6,-6.3,-130.2,-1446.0,-0.6,-27.3,-521.4,-56.4,0,300,0,27,0, 
0.1700,-20.4,-278.7,57.9,142.8,-37.8,-112.8,-309.9,105.9,-518.7,-307.2,165.9,118.5,-960.9,-1140.0,-483.9,114.9,-6.9,-5.1,-130.8,-1439.1,-0.3,-21.6,-519.0,-55.2,0,306,0,28,0, 
0.1733,-21.3,-279.9,56.1,139.2,-40.2,-117.0,-306.0,100.8,-370.5,-317.1,163.5,109.8,-959.1,-1138.2,-483.3,115.5,-6.9,-6.0,-136.2,-1440.6,-0.6,-28.2,-519.3,-58.8,0,312,0,29,0, 
0.1767,-17.1,-276.9,59.1,144.0,-34.8,-110.1,-306.3,105.6,-222.3,-313.2,164.7,110.4,-956.7,-1139.4,-480.6,115.8,-7.2,-6.0,-135.9,-1439.1,-0.9,-28.8,-517.8,-53.1,0,318,0,30,0, 
0.1800,-25.2,-279.6,50.1,141.0,-41.7,-111.0,-314.1,102.6,-518.7,-321.3,158.7,109.8,-958.5,-1140.9,-483.6,107.1,-6.9,-6.0,-140.7,-1442.4,-0.6,-34.2,-528.0,-60.3,0,324,0,31,0, 
0.1833,-28.5,-279.9,54.3,138.0,-39.3,-108.0,-313.5,103.2,-444.6,-320.1,160.2,111.6,-963.6,-1155.0,-495.6,114.3,-6.9,-5.7,-141.9,-1442.7,-0.6,-30.6,-524.7,-56.4,0,330,0,32,0, 
0.1867,-26.4,-278.4,53.1,138.3,-37.2,-104.1,-310.8,104.1,-518.7,-316.2,160.8,113.1,-963.3,-1157.7,-496.5,117.0,-6.6,-6.3,-138.6,-1442.4,-0.6,-32.7,-524.4,-55.5,0,336,0,33,0, 
0.1900,-31.8,-280.5,50.7,134.1,-41.4,-106.8,-312.0,100.5,-370.5,-323.7,153.6,103.2,-969.0,-1164.3,-502.2,111.0,-7.2,-6.0,-146.1,-1451.7,-0.6,-37.5,-534.3,-58.8,0,342,0,34,0, 
0.1933,-30.9,-288.9,34.5,127.2,-48.9,-117.0,-317.7,91.8,-370.5,-335.1,148.5,95.4,-971.7,-1152.0,-488.1,119.1,-6.9,-6.0,-154.2,-1458.3,-0.3,-48.0,-539.7,-70.5,0,348,0,35,0, 
0.1967,-33.3,-289.5,43.2,132.6,-43.5,-117.3,-312.9,91.5,-444.6,-332.7,150.3,96.6,-969.9,-1155.6,-488.1,109.5,-7.2,-6.0,-154.5,-1455.0,-0.6,-41.7,-542.1,-68.7,0,354,0,36,0, 
0.2000,-34.5,-290.7,42.0,129.0,-44.4,-120.0,-318.3,86.4,-518.7,-333.0,141.6,93.3,-971.7,-1156.5,-489.6,119.4,-6.9,-6.0,-156.6,-1459.8,-0.9,-45.6,-543.6,-72.3,0,360,0,37,0, 
0.2033,-32.7,-285.6,41.7,131.4,-42.6,-117.0,-312.9,91.8,-444.6,-331.2,146.4,93.6,-971.7,-1156.2,-494.4,108.9,-6.9,-5.7,-153.6,-1459.2,-0.6,-43.2,-537.6,-68.7,0,366,0,38,0, 
0.2067,-29.1,-277.5,49.2,140.7,-38.7,-114.3,-311.4,94.8,-370.5,-318.9,156.9,106.5,-964.2,-1145.7,-495.3,87.0,-6.9,-5.7,-143.7,-1446.3,-0.6,-31.8,-538.5,-62.7,0,372,0,39,0, 
0.2100,-35.4,-288.9,40.5,135.6,-46.5,-120.6,-312.6,87.9,-370.5,-330.6,148.8,96.9,-976.8,-1165.8,-492.3,111.0,-6.9,-5.7,-149.1,-1450.5,-0.3,-39.3,-537.6,-68.1,0,378,0,40,0, 
0.2133,-28.2,-289.8,42.0,134.4,-46.5,-123.0,-314.7,86.7,-518.7,-333.9,145.8,89.7,-977.1,-1152.6,-476.7,115.8,-7.2,-6.0,-156.3,-1462.2,-0.9,-49.2,-535.5,-72.3,0,384,0,41,0, 
0.2167,-30.3,-282.6,50.7,144.9,-36.9,-111.9,-306.9,89.1,-444.6,-319.5,153.6,101.1,-972.3,-1159.2,-499.5,116.7,-6.6,-6.0,-146.4,-1445.1,-0.3,-37.8,-528.3,-63.0,0,390,0,42,0, 
0.2200,-27.6,-285.3,42.0,135.9,-44.4,-118.2,-307.8,87.0,-592.8,-329.4,146.1,96.9,-976.8,-1158.3,-495.0,135.3,-6.9,-6.0,-154.5,-1453.5,-0.3,-46.5,-531.3,-68.4,0,396,0,43,0, 
0.2233,-31.8,-283.5,41.1,135.9,-45.0,-116.1,-309.0,87.6,-444.6,-329.1,138.9,93.3,-976.8,-1161.3,-498.6,114.6,-6.6,-5.7,-159.0,-1455.6,-0.6,-47.7,-538.8,-69.3,0,402,0,44,0, 
0.2267,-21.9,-270.3,53.7,147.3,-34.2,-102.9,-302.4,99.3,-222.3,-310.8,157.2,108.9,-968.4,-1171.8,-503.7,100.5,-6.9,-5.4,-140.7,-1442.1,-0.9,-26.1,-530.4,-55.5,0,408,0,45,0, 
0.2300,-23.7,-276.3,48.9,130.2,-45.0,-109.2,-306.3,95.1,-592.8,-322.2,151.5,99.0,-973.5,-1157.7,-495.0,107.7,-6.9,-6.0,-148.5,-1449.0,-1.2,-34.8,-534.6,-64.2,0,414,0,46,0, 
0.2333,-28.5,-286.8,31.8,115.5,-60.6,-124.5,-313.8,79.2,-444.6,-337.2,136.5,83.7,-983.4,-1166.4,-497.1,107.1,-6.9,-6.0,-165.3,-1466.1,-0.3,-59.4,-552.9,-78.0,0,420,0,47,0, 
0.2367,-24.6,-279.0,37.8,124.2,-54.9,-113.1,-304.5,87.3,-518.7,-329.7,140.7,90.3,-980.4,-1154.7,-492.3,103.2,-6.6,-6.0,-160.5,-1460.1,-0.6,-44.7,-540.6,-67.8,0,426,0,48,0, 
0.2400,-30.6,-279.0,35.7,128.4,-51.0,-111.9,-306.9,87.9,-296.4,-322.8,142.2,88.5,-977.1,-1167.9,-509.1,110.7,-6.6,-5.4,-154.5,-1455.0,-0.6,-37.5,-532.2,-61.2,0,432,0,49,0, 
0.2433,-33.9,-282.0,36.9,123.6,-50.1,-114.6,-314.7,87.9,-518.7,-327.6,141.9,87.3,-977.1,-1169.4,-506.4,109.8,-6.9,-6.3,-157.5,-1456.2,-0.6,-35.4,-540.3,-67.8,0,438,0,50,0, 
0.2467,-38.1,-289.8,27.6,115.8,-59.1,-121.8,-320.1,73.2,-518.7,-339.3,127.2,76.8,-984.0,-1158.9,-501.9,112.2,-6.9,-5.7,-170.1,-1466.7,-0.6,-55.2,-543.0,-75.9,0,444,0,51,0, 
0.2500,-42.3,-290.4,26.4,114.0,-59.1,-122.7,-316.5,75.9,-444.6,-338.7,132.9,75.6,-990.0,-1166.4,-505.2,122.1,-7.2,-6.0,-171.6,-1469.4,-0.6,-56.4,-541.8,-78.3,0,450,0,52,0, 
0.2533,-36.6,-281.4,38.1,131.7,-45.9,-111.6,-309.0,83.4,-518.7,-326.7,139.5,91.8,-981.3,-1153.2,-506.1,98.1,-6.6,-5.7,-161.7,-1451.7,-0.3,-43.2,-534.9,-63.6,0,456,0,53,0, 
0.2567,-40.8,-285.3,37.8,133.8,-43.5,-114.0,-309.0,85.8,-296.4,-327.9,137.7,87.6,-982.2,-1158.9,-508.2,90.9,-6.9,-5.4,-162.3,-1455.3,-1.2,-45.0,-536.1,-61.5,0,462,0,54,0, 
0.2600,-42.3,-289.8,31.8,128.7,-48.9,-116.1,-311.7,83.7,-222.3,-335.7,130.5,82.8,-990.9,-1164.3,-503.1,106.5,-6.6,-6.0,-167.4,-1457.7,-0.6,-49.2,-540.0,-61.8,0,468,0,55,0, 
0.2633,-39.6,-286.5,38.7,134.4,-40.5,-108.0,-310.2,90.3,-444.6,-335.1,137.1,91.8,-989.1,-1153.2,-491.4,116.1,-6.6,-6.0,-163.2,-1451.7,-0.6,-41.7,-533.4,-59.4,0,474,0,56,0, 
0.2667,-38.4,-284.7,44.1,141.6,-38.4,-105.9,-305.4,95.1,-592.8,-331.8,143.1,92.4,-986.7,-1151.7,-497.1,114.6,-6.6,-5.7,-161.1,-1453.2,-0.6,-42.6,-532.8,-54.9,0,480,0,57,0, 
0.2700,-39.0,-278.1,46.8,145.5,-35.1,-102.0,-301.8,98.7,-444.6,-319.5,151.8,99.9,-981.3,-1159.2,-513.9,107.4,-6.9,-5.7,-147.9,-1445.7,-0.6,-35.4,-531.9,-53.7,0,486,0,58,0, 
0.2733,-36.3,-278.7,45.6,144.0,-38.1,-107.7,-305.4,101.4,-518.7,-325.5,146.4,96.6,-981.9,-1155.0,-505.8,105.3,-6.6,-5.7,-151.5,-1446.6,-0.6,-38.7,-531.3,-57.6,0,492,0,59,0, 
0.2767,-36.0,-280.5,42.3,135.3,-48.0,-113.4,-307.2,94.8,-370.5,-334.2,139.2,84.9,-986.1,-1150.2,-496.5,114.6,-6.9,-5.4,-161.4,-1459.5,-0.9,-49.5,-542.4,-67.2,0,498,0,60,0, 
0.2800,-38.7,-281.7,36.6,131.7,-49.5,-115.5,-304.5,97.2,-518.7,-336.9,135.9,84.3,-990.6,-1162.5,-505.8,117.0,-6.6,-6.0,-159.9,-1458.0,-0.6,-49.2,-537.0,-68.7,0,504,0,61,0, 
0.2833,-41.1,-285.9,40.2,130.8,-51.0,-119.1,-301.8,97.5,-592.8,-337.8,136.8,84.6,-990.0,-1159.2,-500.4,123.6,-6.3,-6.3,-164.1,-1461.0,-0.9,-52.2,-527.1,-72.3,0,510,0,62,0, 
0.2867,-46.8,-289.2,30.3,130.2,-54.0,-124.5,-314.7,94.8,-518.7,-342.9,132.9,78.6,-991.5,-1149.3,-504.0,97.5,-6.6,-6.0,-169.2,-1468.2,-0.6,-52.2,-539.4,-76.5,0,516,0,63,0, 
0.2900,-45.9,-292.2,29.4,124.8,-57.9,-127.8,-309.3,87.0,-296.4,-346.2,132.6,75.0,-998.7,-1158.6,-497.4,122.4,-6.9,-6.3,-171.6,-1471.8,-0.6,-57.6,-538.8,-82.8,0,522,0,64,0, 
0.2933,-38.1,-294.3,28.5,123.6,-59.4,-132.9,-312.0,91.2,-444.6,-343.8,127.5,73.8,-991.2,-1140.6,-482.7,122.7,-6.9,-6.0,-174.3,-1475.4,-0.9,-59.7,-538.5,-85.5,0,528,0,65,0, 
0.2967,-37.5,-289.5,36.0,131.7,-54.9,-126.9,-305.4,95.4,-592.8,-332.7,134.4,81.0,-985.2,-1153.8,-489.9,114.6,-7.2,-6.0,-168.3,-1468.2,-0.3,-48.9,-534.3,-78.0,0,534,0,66,0, 
0.3000,-38.4,-284.1,42.0,136.2,-45.9,-120.6,-304.2,104.7,-444.6,-326.7,141.0,91.2,-981.6,-1157.7,-507.6,106.8,-6.9,-6.0,-163.8,-1455.9,-0.3,-35.4,-522.9,-70.8,0,540,0,67,0, 
0.3033,-42.6,-293.4,38.4,135.0,-48.6,-123.0,-302.1,103.5,-370.5,-331.8,135.0,87.6,-991.2,-1154.4,-499.5,122.4,-6.6,-6.3,-168.3,-1461.3,-0.6,-43.2,-528.0,-74.7,0,546,0,68,0, 
0.3067,-44.1,-299.4,35.1,132.3,-48.3,-124.8,-310.2,93.9,-370.5,-339.6,133.2,82.8,-991.8,-1158.9,-504.9,129.3,-6.9,-6.0,-169.8,-1467.9,-0.9,-45.9,-522.6,-78.0,0,552,0,69,0, 
0.3100,-42.6,-299.7,34.2,132.9,-47.1,-125.4,-306.3,96.6,-370.5,-340.8,129.3,81.6,-990.0,-1143.0,-502.2,123.3,-6.6,-6.0,-176.7,-1472.4,-0.3,-52.5,-525.3,-76.2,0,558,0,70,0, 
0.3133,-36.6,-296.4,33.3,133.2,-44.1,-122.1,-304.5,99.9,-518.7,-337.8,133.8,79.8,-983.7,-1138.8,-493.8,122.7,-6.9,-5.7,-170.1,-1471.8,-0.6,-46.2,-533.4,-81.0,0,564,0,71,0, 
0.3167,-31.5,-291.0,45.0,149.1,-28.5,-109.5,-297.3,109.2,-592.8,-320.4,149.4,96.6,-972.3,-1149.3,-501.0,118.5,-6.9,-6.6,-156.6,-1454.7,-0.6,-30.9,-525.3,-66.0,0,570,0,72,0, 
0.3200,-37.8,-301.8,29.1,127.8,-44.1,-118.8,-302.4,96.6,-444.6,-347.1,127.2,76.8,-982.5,-1131.0,-482.4,122.7,-6.9,-5.7,-177.9,-1477.8,-0.6,-51.3,-531.9,-80.1,0,576,0,73,0, 
0.3233,-35.1,-296.1,39.9,139.8,-28.2,-108.6,-300.3,103.5,-370.5,-322.8,141.0,93.0,-978.0,-1147.2,-501.9,101.1,-6.9,-5.7,-161.1,-1463.4,-0.6,-36.6,-529.8,-63.3,0,582,0,74,0, 
0.3267,-38.1,-297.9,42.3,140.1,-24.9,-107.1,-299.4,101.4,-518.7,-322.2,142.8,98.4,-975.3,-1148.7,-503.7,100.5,-6.9,-5.7,-160.5,-1455.9,-0.6,-29.4,-528.0,-60.3,0,588,0,75,0, 
0.3300,-42.0,-303.6,32.7,134.7,-31.5,-114.3,-308.4,94.2,-370.5,-332.1,143.7,92.7,-980.1,-1146.9,-501.0,99.3,-7.2,-6.0,-165.3,-1461.3,-0.3,-38.1,-535.5,-67.5,0,594,0,76,0, 
0.3333,-36.0,-295.5,48.9,143.7,-20.7,-106.8,-302.4,99.9,-444.6,-325.8,155.4,101.1,-974.1,-1142.4,-495.6,105.9,-6.9,-6.3,-151.2,-1455.9,-0.9,-29.1,-525.6,-57.9,0,600,0,77,0, 
0.3367,-38.1,-306.9,37.8,134.1,-33.6,-115.8,-309.9,91.5,-370.5,-342.9,137.7,91.5,-981.6,-1143.9,-487.2,109.5,-7.5,-6.0,-169.8,-1463.1,-0.3,-41.7,-538.5,-68.1,0,606,0,78,0, 
0.3400,-33.9,-307.8,35.4,131.1,-36.0,-117.0,-310.2,86.7,-370.5,-348.6,134.1,88.2,-983.4,-1138.5,-481.5,118.8,-6.6,-6.3,-170.4,-1467.0,-0.9,-42.6,-534.9,-70.5,0,612,0,79,0, 
0.3433,-36.0,-307.8,41.7,126.3,-35.7,-120.3,-312.6,87.3,-370.5,-337.8,136.5,88.8,-980.4,-1136.7,-488.7,108.3,-6.9,-5.4,-167.1,-1470.0,-0.3,-50.4,-543.3,-75.6,0,618,0,80,0, 
0.3467,-27.6,-292.8,57.6,146.7,-20.7,-111.9,-310.5,96.6,-444.6,-324.0,154.5,104.7,-970.5,-1133.1,-485.4,83.1,-6.9,-5.4,-147.6,-1455.0,-0.9,-33.9,-540.0,-67.2,0,624,0,81,0, 
0.3500,-30.6,-295.8,56.4,145.2,-24.3,-114.6,-307.5,94.8,-518.7,-327.6,150.9,101.1,-970.2,-1142.1,-495.3,91.2,-6.9,-6.0,-155.4,-1458.3,-0.6,-39.0,-542.4,-69.0,0,630,0,82,0, 
0.3533,-33.6,-300.0,52.2,145.2,-22.8,-116.7,-304.5,94.2,-370.5,-325.5,157.2,102.9,-972.3,-1162.8,-510.3,101.1,-6.9,-5.7,-150.6,-1458.6,-0.6,-39.0,-538.2,-67.8,0,636,0,83,0, 
0.3567,-33.0,-300.3,50.7,144.6,-22.2,-114.3,-303.6,95.7,-370.5,-328.8,156.6,101.4,-971.1,-1154.4,-504.3,93.3,-6.9,-5.7,-149.7,-1461.0,-0.3,-38.7,-541.8,-71.4,0,642,0,84,0, 
0.3600,-29.7,-299.4,55.2,141.9,-22.5,-116.4,-304.8,98.1,-370.5,-329.4,155.1,103.8,-972.0,-1146.0,-495.9,100.2,-6.9,-6.0,-152.4,-1461.0,-0.6,-36.6,-542.7,-72.9,0,648,0,85,0, 
0.3633,-37.2,-306.0,49.2,135.6,-28.2,-116.4,-310.2,90.6,-518.7,-338.7,148.2,99.6,-977.4,-1153.5,-498.3,92.4,-6.6,-6.0,-159.6,-1462.5,-0.6,-44.4,-541.5,-74.7,0,654,0,86,0, 
0.3667,-36.3,-308.7,46.5,130.2,-29.7,-117.6,-308.1,89.1,-592.8,-340.8,142.5,96.3,-977.4,-1142.7,-491.4,72.0,-6.6,-6.6,-163.2,-1472.4,-0.6,-43.8,-547.8,-76.2,0,660,0,87,0, 
0.3700,-41.7,-317.1,40.5,127.8,-34.8,-120.0,-312.9,84.3,-296.4,-353.7,132.9,88.2,-982.8,-1152.0,-488.1,94.2,-6.6,-5.7,-172.8,-1476.6,-0.6,-56.1,-545.1,-83.1,0,666,0,88,0, 
0.3733,-30.0,-306.6,54.0,140.4,-20.7,-110.1,-301.5,93.9,-370.5,-339.0,141.0,97.2,-972.3,-1143.0,-491.1,101.7,-6.6,-6.0,-161.7,-1467.9,-0.6,-43.2,-534.3,-73.5,0,672,0,89,0, 
0.3767,-30.3,-306.6,58.5,140.4,-20.1,-108.0,-299.1,93.6,-444.6,-329.7,148.2,103.5,-970.2,-1151.1,-501.3,85.8,-6.9,-5.4,-157.2,-1461.9,-0.3,-40.8,-528.0,-67.5,0,678,0,90,0, 
0.3800,-30.6,-302.7,59.1,141.6,-15.9,-103.8,-294.6,100.2,-370.5,-324.6,158.1,110.4,-970.5,-1159.8,-505.2,89.1,-6.6,-6.0,-148.8,-1459.2,-0.9,-32.7,-524.1,-64.8,0,684,0,91,0, 
0.3833,-30.9,-301.2,57.3,138.9,-23.1,-107.1,-304.5,99.3,-518.7,-328.5,158.1,105.9,-966.3,-1146.3,-501.6,82.2,-6.9,-6.0,-150.3,-1458.3,-0.3,-32.7,-524.4,-64.8,0,690,0,92,0, 
0.3867,-27.3,-300.3,60.9,140.1,-17.1,-103.2,-297.6,100.5,-444.6,-328.2,160.2,112.8,-966.0,-1146.6,-493.5,103.8,-7.2,-5.7,-148.5,-1449.3,-0.3,-28.8,-520.8,-60.9,0,696,0,93,0, 
0.3900,-30.9,-304.8,54.9,137.4,-22.8,-109.2,-306.6,91.5,-370.5,-330.3,155.4,106.5,-969.0,-1150.5,-499.8,95.1,-6.9,-5.7,-153.9,-1454.4,-0.9,-38.1,-525.0,-66.9,0,702,0,94,0, 
0.3933,-31.8,-310.2,48.3,131.7,-30.6,-121.5,-309.6,85.2,-222.3,-341.1,144.6,93.3,-972.3,-1147.8,-490.5,107.4,-6.9,-6.0,-160.5,-1471.8,-0.9,-48.0,-534.6,-78.9,0,708,0,95,0, 
0.3967,-30.9,-309.6,51.9,135.6,-27.9,-117.0,-312.3,91.2,-518.7,-339.6,148.8,99.3,-971.4,-1151.4,-494.4,91.2,-7.2,-6.0,-156.0,-1467.3,-0.3,-48.6,-537.0,-75.6,0,714,0,96,0, 
0.4000,-27.0,-304.5,51.0,137.4,-23.4,-112.5,-312.9,96.3,-444.6,-335.4,152.7,105.6,-965.1,-1142.7,-498.3,81.3,-6.9,-5.7,-153.3,-1460.4,-1.2,-41.7,-538.8,-72.6,0,720,0,97,0, 
0.4033,-29.1,-303.6,54.3,138.6,-21.6,-108.6,-306.0,99.6,-444.6,-331.2,157.2,107.1,-961.5,-1162.5,-506.7,99.3,-7.2,-6.0,-151.5,-1461.9,-0.6,-41.1,-536.7,-69.0,0,726,0,98,0, 
0.4067,-31.8,-307.5,52.8,133.2,-30.9,-117.3,-316.2,91.8,-370.5,-345.6,148.8,98.4,-964.2,-1153.2,-493.5,72.9,-6.9,-5.7,-158.7,-1473.9,-0.3,-45.9,-544.5,-76.8,0,732,0,99,0, 
0.4100,-39.6,-312.0,44.7,124.2,-37.2,-123.0,-318.0,81.3,-444.6,-346.2,142.5,95.1,-973.5,-1161.9,-503.1,75.6,-6.6,-6.6,-161.1,-1472.7,-0.6,-51.6,-551.4,-81.6,0,738,0,100,0, 
0.4133,-33.0,-307.2,50.7,130.8,-30.9,-118.2,-314.4,90.3,-518.7,-336.0,149.1,97.5,-969.9,-1162.5,-500.7,75.6,-6.6,-5.7,-156.6,-1469.4,-0.9,-45.0,-554.1,-80.4,0,744,0,101,0, 
0.4167,-28.2,-310.8,43.2,122.7,-37.8,-125.7,-321.9,85.2,-518.7,-344.1,141.3,87.9,-970.2,-1142.1,-485.4,75.3,-7.2,-6.3,-163.5,-1479.9,0.0,-52.2,-551.1,-83.1,0,750,0,102,0, 
0.4200,-27.6,-305.1,48.6,127.5,-36.9,-123.0,-317.1,88.5,-518.7,-345.0,138.6,93.0,-968.7,-1143.3,-477.3,78.3,-6.9,-5.7,-159.9,-1477.2,-0.3,-50.7,-552.3,-80.7,0,756,0,103,0, 
0.4233,-28.8,-300.6,56.1,138.3,-26.1,-110.4,-312.0,95.7,-296.4,-330.6,151.5,103.2,-964.5,-1166.7,-503.1,83.4,-6.9,-5.4,-147.6,-1468.5,-0.6,-35.4,-542.4,-70.5,0,762,0,104,0, 
0.4267,-38.7,-311.1,52.8,136.5,-28.5,-113.7,-308.4,94.5,-444.6,-335.4,152.7,100.8,-973.8,-1182.0,-522.9,102.6,-6.9,-5.4,-153.6,-1465.8,-0.9,-37.2,-539.7,-71.1,0,768,0,105,0, 
0.4300,-40.2,-308.4,54.3,141.9,-25.2,-111.9,-312.0,94.8,-370.5,-335.4,147.9,101.1,-969.6,-1172.4,-520.2,89.7,-6.6,-5.4,-154.8,-1461.9,-0.6,-40.8,-545.4,-71.1,0,774,0,106,0, 
0.4333,-33.9,-304.5,63.6,147.3,-21.3,-111.0,-310.2,97.2,-518.7,-327.6,153.9,104.7,-963.3,-1153.2,-505.5,71.7,-6.6,-6.0,-152.4,-1456.2,-0.6,-30.6,-543.3,-66.3,0,780,0,107,0, 
0.4367,-40.8,-315.6,43.2,129.3,-34.8,-125.4,-316.2,85.2,-296.4,-345.0,136.8,87.6,-979.5,-1160.4,-499.8,99.0,-6.9,-6.0,-168.9,-1473.6,-0.6,-50.7,-549.6,-80.4,0,786,0,108,0, 
0.4400,-38.1,-308.1,55.5,141.0,-23.7,-111.9,-306.9,97.2,-370.5,-329.4,149.4,104.4,-969.9,-1165.2,-509.4,91.8,-6.9,-5.7,-156.9,-1459.8,-0.6,-33.6,-533.1,-67.5,0,792,0,109,0, 
0.4433,-28.5,-294.0,70.5,153.0,-11.1,-100.8,-302.4,105.6,-370.5,-315.9,165.0,116.7,-956.7,-1150.2,-507.6,81.3,-7.2,-5.7,-141.3,-1449.3,-0.9,-24.9,-526.5,-59.1,0,798,0,110,0, 
0.4467,-31.8,-303.9,52.8,141.3,-27.0,-112.2,-303.9,98.1,-444.6,-331.2,148.8,92.4,-966.0,-1161.3,-500.4,99.9,-6.6,-5.4,-153.6,-1483.5,-0.9,-44.7,-530.7,-76.5,0,804,0,111,0, 
0.4500,-26.7,-300.3,50.1,138.9,-27.9,-115.5,-306.6,101.1,-518.7,-337.5,132.6,81.3,-963.0,-1150.2,-498.9,84.6,-6.6,-6.0,-169.2,-1488.0,-0.6,-46.5,-540.6,-80.4,0,810,0,112,0, 
0.4533,-31.5,-302.1,47.1,136.2,-30.3,-117.9,-309.0,100.2,-444.6,-340.5,138.0,93.0,-966.3,-1149.3,-497.1,92.4,-7.2,-5.7,-167.1,-1471.5,-0.3,-43.8,-543.0,-78.0,0,816,0,113,0, 
0.4567,-32.1,-300.3,48.9,135.9,-26.7,-117.0,-307.2,100.2,-444.6,-327.6,150.9,103.2,-963.0,-1150.8,-496.5,106.2,-6.9,-6.0,-157.2,-1457.1,-0.6,-35.1,-539.7,-76.2,0,822,0,114,0, 
0.4600,-39.9,-310.8,40.8,127.2,-34.8,-122.1,-311.4,91.5,-296.4,-334.8,135.6,96.0,-974.1,-1152.3,-498.0,115.8,-6.9,-6.0,-169.2,-1454.1,-0.9,-41.7,-541.5,-77.7,0,828,0,115,0, 
0.4633,-27.6,-293.7,48.6,141.6,-23.1,-106.5,-302.7,102.6,-518.7,-319.5,142.8,111.0,-954.6,-1134.3,-486.9,85.8,-6.9,-6.0,-160.2,-1427.4,-0.3,-15.9,-534.0,-61.2,0,834,0,116,0, 
0.4667,-39.6,-309.6,39.0,129.0,-34.8,-114.6,-308.1,94.2,-444.6,-331.5,133.5,101.1,-970.2,-1151.4,-489.0,105.0,-7.2,-6.0,-179.1,-1430.1,-0.9,-27.0,-540.0,-64.2,0,840,0,117,0, 
0.4700,-31.5,-300.3,41.1,132.3,-32.7,-110.4,-305.7,100.2,-518.7,-339.6,130.5,97.2,-963.3,-1135.5,-483.9,99.3,-6.9,-5.4,-189.0,-1434.0,-0.6,-33.0,-538.2,-64.5,0,846,0,118,0, 
0.4733,-32.4,-300.3,39.3,131.7,-24.9,-102.3,-303.6,107.7,-370.5,-328.5,129.6,98.1,-963.3,-1139.7,-485.1,81.0,-6.9,-5.7,-192.0,-1418.7,-0.9,-13.2,-533.4,-51.6,0,852,0,119,0, 
0.4767,-39.3,-308.4,33.6,129.6,-24.3,-104.7,-307.5,100.8,-370.5,-331.5,115.8,98.7,-975.3,-1159.8,-500.1,102.6,-6.9,-6.0,-200.4,-1415.1,-0.9,-17.4,-531.6,-53.7,0,858,0,120,0, 
0.4800,-37.8,-306.3,33.6,133.5,-19.2,-99.9,-302.4,103.5,-444.6,-336.6,114.0,93.9,-972.0,-1155.6,-492.9,95.4,-6.9,-5.7,-206.1,-1407.9,-0.9,-13.8,-531.6,-49.2,0,864,0,121,0, 
0.4833,-32.1,-300.0,41.7,139.2,-14.7,-91.2,-297.6,106.2,-592.8,-324.9,124.8,102.6,-966.9,-1152.3,-486.3,99.9,-6.6,-6.0,-199.5,-1394.4,-0.6,-4.8,-527.1,-42.6,0,870,0,122,0, 
0.4867,-38.4,-306.9,32.7,127.8,-21.0,-93.9,-302.7,103.5,-296.4,-334.5,110.1,90.9,-975.6,-1157.4,-490.2,107.1,-6.9,-6.0,-216.9,-1403.1,-0.9,-11.1,-529.5,-44.1,0,876,0,123,0, 
0.4900,-36.3,-303.6,35.7,133.5,-15.9,-90.9,-304.5,103.5,-296.4,-321.9,115.8,95.7,-972.6,-1154.7,-498.3,109.2,-6.9,-6.0,-208.8,-1395.6,-0.9,6.9,-524.4,-38.4,0,882,0,124,0, 
0.4933,-38.7,-311.4,26.1,123.3,-28.8,-102.0,-308.1,95.4,-518.7,-344.4,95.7,76.5,-978.9,-1148.7,-487.2,115.8,-7.2,-6.3,-229.2,-1413.6,-0.9,-15.9,-531.0,-49.8,0,888,0,125,0, 
0.4967,-34.2,-306.3,32.1,129.0,-23.4,-101.7,-310.2,95.7,-444.6,-338.1,100.5,78.0,-979.8,-1151.4,-477.6,118.2,-6.9,-5.7,-221.4,-1412.7,-0.6,-10.8,-521.7,-46.8,0,894,0,126,0, 
0.5000,-35.4,-306.3,32.4,128.1,-22.5,-102.0,-301.8,101.1,-518.7,-333.0,102.6,83.1,-977.7,-1161.3,-488.7,120.6,-6.9,-5.7,-222.9,-1408.2,-0.9,-3.9,-516.6,-42.0,0,900,0,127,0, 
0.5033,-41.4,-310.2,26.1,122.1,-28.5,-108.0,-308.7,92.4,-370.5,-342.0,95.1,80.4,-983.7,-1155.6,-492.9,102.0,-6.9,-5.7,-228.3,-1409.7,-0.9,-10.2,-527.4,-52.2,0,906,0,128,0, 
0.5067,-40.2,-313.5,24.9,122.1,-28.8,-111.6,-309.6,96.6,-370.5,-343.2,94.8,78.9,-981.9,-1157.7,-489.9,99.3,-6.6,-6.0,-229.5,-1409.4,-0.3,-10.2,-527.1,-52.5,0,912,0,129,0, 
0.5100,-42.9,-317.7,17.4,111.3,-38.4,-115.8,-316.8,86.7,-370.5,-354.0,82.2,67.5,-987.3,-1158.9,-482.1,128.7,-7.2,-6.6,-239.7,-1418.7,-0.6,-22.5,-525.6,-58.5,0,918,0,130,0, 
0.5133,-34.8,-303.0,32.7,129.3,-21.3,-105.6,-307.5,100.8,-370.5,-327.3,107.4,90.0,-969.3,-1152.9,-489.0,108.0,-6.6,-6.0,-214.2,-1398.9,-0.6,-2.4,-517.8,-46.2,0,924,0,131,0, 
0.5167,-31.8,-300.9,37.5,129.3,-19.2,-99.3,-306.3,104.1,-518.7,-321.6,111.6,93.0,-969.9,-1144.2,-488.7,90.3,-6.9,-6.0,-211.8,-1397.4,-0.6,11.7,-523.8,-41.1,0,930,0,132,0, 
0.5200,-36.9,-309.0,31.8,122.1,-26.7,-105.9,-306.3,99.6,-444.6,-331.5,96.3,82.5,-979.5,-1152.9,-484.8,116.4,-6.9,-6.0,-222.9,-1407.6,-0.3,-2.4,-519.3,-45.9,0,936,0,133,0, 
0.5233,-42.9,-310.8,26.4,123.3,-31.5,-105.3,-306.9,98.4,-370.5,-331.8,98.1,81.9,-982.8,-1148.7,-481.8,117.6,-6.9,-5.7,-225.9,-1405.2,-0.9,-9.6,-520.5,-48.3,0,942,0,134,0, 
0.5267,-50.1,-312.6,23.4,120.3,-30.6,-108.6,-309.6,93.0,-370.5,-333.6,99.3,78.3,-983.4,-1160.1,-481.5,110.7,-6.9,-5.7,-223.5,-1409.1,-0.9,-14.7,-526.8,-51.3,0,948,0,135,0, 
0.5300,-41.4,-305.1,44.4,133.5,-20.1,-99.3,-309.3,102.0,-592.8,-322.8,105.6,89.1,-979.2,-1148.7,-490.2,107.4,-6.6,-6.0,-213.6,-1398.3,-0.9,0.0,-521.1,-43.2,0,954,0,136,0, 
0.5333,-42.6,-310.8,38.1,128.7,-24.0,-99.6,-304.5,98.7,-444.6,-332.7,103.8,81.9,-983.1,-1156.5,-492.6,116.7,-6.6,-6.0,-217.8,-1403.7,-0.6,-2.1,-523.2,-40.5,0,960,0,137,0, 
0.5367,-40.2,-308.1,31.5,125.4,-25.5,-100.8,-304.8,94.5,-370.5,-331.8,96.6,80.1,-981.6,-1153.2,-494.7,117.0,-7.2,-5.7,-222.3,-1405.5,-0.6,-4.8,-522.9,-41.1,0,966,0,138,0, 
0.5400,-44.4,-311.4,24.9,118.8,-34.8,-105.6,-311.4,87.9,-518.7,-340.5,91.5,73.8,-983.7,-1162.5,-491.7,122.7,-6.9,-6.0,-229.2,-1411.2,-0.6,-10.8,-526.5,-47.4,0,972,0,139,0, 
0.5433,-43.8,-312.6,24.9,117.0,-35.4,-108.6,-307.2,88.2,-370.5,-341.4,92.4,74.1,-981.6,-1158.0,-489.9,129.6,-6.9,-6.0,-232.2,-1410.9,-0.6,-15.6,-529.2,-49.5,0,978,0,140,0, 
0.5467,-39.6,-308.4,27.0,120.6,-37.8,-106.5,-312.0,87.6,-444.6,-343.8,90.0,75.3,-980.1,-1146.9,-487.2,112.2,-7.2,-5.7,-231.9,-1411.2,-0.6,-9.6,-528.0,-47.7,0,984,0,141,0, 
0.5500,-30.9,-303.6,31.5,126.6,-30.6,-103.2,-315.3,92.1,-444.6,-336.6,95.4,79.8,-978.0,-1135.8,-480.0,103.2,-6.6,-5.4,-225.9,-1406.1,-1.2,-3.6,-525.9,-42.9,0,990,0,142,0, 
0.5533,-31.2,-304.2,35.4,127.2,-28.8,-98.7,-311.1,99.0,-518.7,-333.0,103.8,80.1,-974.1,-1142.7,-489.3,111.6,-7.2,-5.7,-219.9,-1401.6,-0.9,-4.2,-525.3,-41.7,0,996,0,143,0, 
0.5567,-27.9,-301.5,36.3,134.4,-25.2,-93.0,-305.1,104.4,-370.5,-324.3,104.7,84.6,-972.9,-1143.6,-486.3,93.9,-6.6,-5.7,-219.9,-1401.3,-0.3,3.3,-524.7,-38.1,0,1002,0,144,0, 
0.5600,-37.8,-311.7,27.3,125.4,-31.8,-101.4,-314.7,97.5,-444.6,-333.0,95.4,76.2,-987.3,-1152.3,-486.9,109.5,-6.9,-6.3,-226.2,-1408.5,-0.6,-5.1,-531.9,-48.0,0,1008,0,145,0, 
0.5633,-41.1,-318.6,16.8,117.6,-41.7,-110.4,-318.3,88.8,-666.9,-351.3,85.2,67.8,-996.6,-1153.2,-484.2,108.6,-6.6,-6.0,-239.1,-1414.5,-0.6,-19.5,-534.6,-54.3,0,1014,0,146,0, 
0.5667,-42.9,-321.3,16.2,116.1,-41.7,-108.6,-318.6,89.1,-518.7,-348.6,75.6,61.5,-998.7,-1166.1,-495.3,110.4,-6.9,-6.3,-244.2,-1420.2,-0.3,-21.0,-535.5,-54.0,0,1020,0,147,0, 
0.5700,-38.4,-322.8,9.3,114.9,-41.1,-111.6,-320.1,94.5,-518.7,-352.2,75.6,56.4,-1000.5,-1162.2,-491.4,93.9,-6.6,-6.0,-243.9,-1422.6,-0.6,-19.8,-537.0,-54.0,0,1026,0,148,0, 
0.5733,-40.8,-324.6,9.0,113.4,-44.1,-111.3,-311.7,90.6,-370.5,-356.4,72.0,57.9,-1005.6,-1167.3,-486.9,108.0,-7.2,-5.7,-248.4,-1421.4,-0.3,-23.7,-535.5,-57.0,0,1032,0,149,0, 
0.5767,-43.2,-324.3,11.1,117.6,-41.1,-112.2,-303.0,93.9,-296.4,-359.4,72.3,60.0,-1007.1,-1174.5,-489.6,112.5,-7.2,-5.7,-248.4,-1423.5,-0.6,-21.6,-536.1,-58.5,0,1038,0,150,0, 
0.5800,-40.2,-321.0,13.8,120.0,-40.2,-111.6,-305.7,93.3,-592.8,-352.5,73.8,59.1,-1002.6,-1171.8,-489.6,119.4,-7.2,-6.0,-245.7,-1422.3,-0.6,-16.8,-534.3,-54.3,0,1044,0,151,0, 
0.5833,-46.2,-332.1,3.9,108.6,-50.1,-117.3,-311.4,83.7,-444.6,-365.4,69.3,52.5,-1010.7,-1175.1,-496.2,130.8,-6.6,-6.3,-253.5,-1426.5,-0.9,-29.7,-528.6,-63.3,0,1050,0,152,0, 
0.5867,-39.0,-322.5,5.4,119.4,-37.8,-105.9,-304.5,91.5,-518.7,-347.7,85.5,67.8,-995.1,-1170.9,-498.6,117.6,-7.2,-6.0,-235.5,-1411.2,-0.6,-8.1,-520.5,-48.9,0,1056,0,153,0, 
0.5900,-35.7,-317.7,20.7,123.3,-36.0,-107.7,-311.7,96.6,-444.6,-343.5,86.1,71.1,-989.7,-1153.2,-494.1,99.0,-7.2,-5.7,-232.8,-1404.3,-0.6,-2.1,-523.2,-50.1,0,1062,0,154,0, 
0.5933,-30.9,-315.0,22.5,123.3,-36.3,-105.0,-306.0,99.0,-592.8,-337.2,91.5,72.3,-990.6,-1158.3,-486.0,120.0,-6.6,-6.3,-231.0,-1404.3,-0.3,-6.3,-520.5,-49.5,0,1068,0,155,0, 
0.5967,-35.1,-309.6,33.3,132.9,-27.0,-99.9,-309.6,103.5,-444.6,-326.7,105.3,86.1,-981.6,-1155.3,-497.7,108.0,-6.9,-6.3,-220.8,-1393.8,-1.2,8.1,-512.7,-42.3,0,1074,0,156,0, 
0.6000,-40.5,-313.5,23.7,126.6,-32.7,-105.6,-309.0,99.9,-592.8,-332.4,83.7,72.3,-988.2,-1160.1,-498.0,118.2,-6.9,-6.0,-232.5,-1406.1,-0.6,-2.7,-514.8,-46.8,0,1080,0,157,0, 
0.6033,-45.0,-318.3,21.9,123.0,-38.7,-108.6,-311.4,90.3,-592.8,-339.9,79.2,67.5,-991.2,-1165.8,-491.7,134.4,-6.9,-6.0,-235.8,-1409.7,-0.6,-6.6,-513.3,-47.4,0,1086,0,158,0, 
0.6067,-43.8,-316.5,24.0,128.1,-33.3,-107.1,-314.7,94.8,-444.6,-331.8,95.7,76.5,-984.3,-1155.6,-494.7,106.2,-6.9,-6.0,-227.7,-1400.4,-0.6,-2.1,-525.6,-47.7,0,1092,0,159,0, 
0.6100,-44.1,-313.8,20.7,124.8,-33.6,-107.1,-315.9,92.1,-444.6,-337.8,90.3,72.3,-986.4,-1152.3,-485.4,103.2,-6.9,-6.0,-231.3,-1405.5,-0.6,-4.5,-528.0,-48.6,0,1098,0,160,0, 
0.6133,-39.6,-308.7,25.8,130.5,-32.4,-99.3,-310.8,97.5,-592.8,-335.7,94.8,76.5,-983.4,-1148.7,-484.2,107.1,-7.2,-6.3,-226.5,-1404.3,-0.6,-3.6,-526.2,-45.6,0,1104,0,161,0, 
0.6167,-39.0,-309.0,30.6,132.0,-24.3,-96.9,-310.5,94.2,-592.8,-330.3,98.1,79.5,-985.2,-1167.0,-496.8,108.0,-6.6,-5.4,-222.0,-1398.9,-0.9,2.1,-527.1,-39.9,0,1110,0,162,0, 
0.6200,-40.8,-315.3,23.4,129.3,-29.1,-103.8,-313.2,94.2,-518.7,-347.1,90.0,69.6,-992.1,-1165.8,-491.7,116.4,-6.3,-5.7,-235.8,-1408.5,-0.6,-7.5,-527.7,-46.2,0,1116,0,163,0, 
0.6233,-36.3,-307.5,30.0,132.9,-24.0,-96.9,-307.8,98.1,-444.6,-336.9,89.7,72.3,-989.1,-1159.8,-488.1,99.0,-6.9,-5.7,-227.1,-1407.3,-0.6,-11.4,-528.0,-46.5,0,1122,0,164,0, 
0.6267,-34.2,-302.1,29.7,140.1,-20.1,-95.1,-310.2,106.8,-296.4,-338.1,89.4,73.8,-982.5,-1171.8,-493.2,110.7,-6.9,-5.7,-223.5,-1408.5,-0.3,-5.4,-523.2,-44.1,0,1128,0,165,0, 
0.6300,-37.5,-303.0,35.7,147.3,-15.3,-88.5,-302.1,114.0,-741.0,-331.2,99.6,78.6,-982.2,-1182.9,-511.5,105.0,-6.9,-6.0,-219.3,-1399.2,-0.9,-0.3,-517.5,-39.3,0,1134,0,166,0, 
0.6333,-37.2,-305.7,28.8,138.6,-21.6,-98.1,-304.5,115.8,-518.7,-342.0,91.8,70.5,-988.8,-1170.9,-499.8,108.3,-6.9,-5.7,-228.9,-1408.8,-0.9,-5.7,-524.7,-43.8,0,1140,0,167,0, 
0.6367,-43.8,-312.0,18.3,131.1,-29.4,-100.2,-305.4,108.0,-518.7,-353.7,81.0,60.3,-997.2,-1172.4,-500.7,110.7,-6.6,-6.3,-236.7,-1424.1,-0.6,-12.6,-530.1,-49.5,0,1146,0,168,0, 
0.6400,-47.4,-317.4,11.7,121.8,-40.8,-106.8,-304.8,105.0,-370.5,-363.0,72.0,54.0,-1005.6,-1182.9,-493.8,133.8,-6.6,-5.4,-245.4,-1428.6,-0.6,-24.6,-529.5,-56.4,0,1152,0,169,0, 
0.6433,-37.5,-302.7,28.2,141.6,-20.7,-92.1,-295.8,117.6,-518.7,-335.1,95.1,73.2,-986.4,-1169.7,-506.7,102.6,-6.9,-6.3,-220.8,-1404.3,-0.3,-4.8,-514.5,-41.7,0,1158,0,170,0, 
0.6467,-42.0,-309.0,24.0,130.5,-30.0,-99.0,-295.5,112.2,-592.8,-344.4,84.0,68.1,-990.6,-1165.2,-495.9,114.9,-7.5,-5.7,-230.7,-1411.5,-0.6,-8.7,-510.3,-43.2,0,1164,0,171,0, 
0.6500,-37.2,-307.2,21.0,129.9,-30.0,-100.2,-300.6,110.7,-370.5,-339.0,88.2,73.8,-987.0,-1157.1,-492.3,102.0,-7.2,-6.0,-225.0,-1405.2,-1.2,-7.2,-523.2,-44.1,0,1170,0,172,0, 
0.6533,-37.8,-306.9,24.3,122.1,-33.9,-105.0,-300.3,104.7,-444.6,-336.0,88.5,67.8,-987.6,-1157.1,-487.2,106.8,-6.9,-5.7,-227.1,-1409.7,-0.9,-8.4,-520.5,-48.6,0,1176,0,173,0, 
0.6567,-45.0,-316.5,16.8,117.6,-46.5,-114.6,-304.2,96.6,-296.4,-343.8,78.0,63.0,-996.9,-1167.6,-492.9,116.7,-6.9,-6.0,-234.6,-1417.8,-0.9,-15.3,-525.9,-60.0,0,1182,0,174,0, 
0.6600,-40.8,-312.3,14.1,115.2,-44.4,-113.7,-304.8,93.9,-444.6,-344.4,79.8,63.6,-991.8,-1159.5,-493.8,102.6,-6.6,-6.0,-235.5,-1413.9,-0.6,-15.3,-524.7,-56.4,0,1188,0,175,0, 
0.6633,-38.4,-315.3,12.9,113.7,-45.9,-115.2,-307.2,95.1,-592.8,-346.2,80.4,59.7,-992.4,-1162.5,-484.5,117.0,-6.9,-6.0,-236.7,-1417.8,-0.9,-18.6,-521.7,-61.8,0,1194,0,176,0, 
0.6667,-39.0,-309.9,16.5,119.4,-37.2,-108.3,-300.3,102.0,-518.7,-341.7,81.9,64.8,-990.6,-1160.1,-495.9,102.9,-6.9,-6.0,-233.1,-1408.5,-0.9,-10.2,-521.4,-50.7,0,1200,0,177,0, 
0.6700,-34.8,-307.2,20.4,120.9,-34.8,-106.5,-298.2,107.4,-592.8,-335.7,86.7,68.1,-986.7,-1161.3,-489.9,101.7,-6.9,-6.3,-230.4,-1407.6,-1.2,-6.6,-517.2,-48.6,0,1206,0,178,0, 
0.6733,-42.6,-316.5,12.6,112.8,-44.1,-112.2,-299.7,97.5,-370.5,-346.5,79.5,62.7,-994.2,-1172.4,-494.7,114.0,-6.9,-5.7,-236.1,-1417.5,-0.3,-11.7,-521.1,-53.7,0,1212,0,179,0, 
0.6767,-43.5,-316.2,9.3,112.8,-44.4,-113.7,-295.5,100.8,-444.6,-356.1,72.3,60.3,-1002.9,-1180.2,-495.6,129.9,-6.9,-6.0,-239.4,-1421.7,-1.2,-16.2,-521.1,-57.3,0,1218,0,180,0, 
0.6800,-39.9,-315.6,12.0,113.4,-39.9,-114.0,-300.9,95.7,-518.7,-354.0,74.7,60.0,-998.1,-1169.7,-499.8,107.7,-6.9,-6.0,-240.6,-1420.8,-0.3,-13.8,-525.9,-54.9,0,1224,0,181,0, 
0.6833,-31.8,-305.1,26.1,123.9,-31.8,-103.5,-298.8,104.7,-518.7,-341.7,84.9,71.1,-991.5,-1169.1,-499.8,88.2,-7.2,-6.3,-228.9,-1408.5,-0.6,-9.6,-522.9,-48.0,0,1230,0,182,0, 
0.6867,-39.9,-319.2,10.2,109.8,-43.2,-115.2,-300.6,97.5,-444.6,-362.1,69.9,55.5,-1008.6,-1181.4,-490.5,113.4,-6.6,-6.0,-246.6,-1418.4,-0.6,-27.3,-532.5,-59.1,0,1236,0,183,0, 
0.6900,-32.1,-311.4,20.1,122.1,-34.8,-106.5,-299.1,105.0,-518.7,-351.0,76.2,64.8,-997.5,-1167.3,-495.6,102.0,-6.6,-6.0,-236.4,-1413.3,-0.3,-20.4,-529.8,-54.0,0,1242,0,184,0, 
0.6933,-34.2,-312.3,17.1,120.0,-34.5,-109.8,-303.9,96.6,-370.5,-351.6,78.9,61.5,-996.0,-1164.3,-492.6,100.8,-7.2,-5.7,-238.2,-1415.7,-0.9,-16.2,-531.0,-53.7,0,1248,0,185,0, 
0.6967,-32.1,-309.3,19.8,120.3,-33.9,-108.6,-301.8,101.1,-518.7,-343.5,83.1,68.4,-992.4,-1159.8,-490.2,102.3,-6.9,-6.0,-232.2,-1409.7,-0.6,-12.9,-528.0,-52.2,0,1254,0,186,0, 
0.7000,-33.6,-310.5,18.6,115.5,-37.5,-112.8,-307.2,94.5,-518.7,-345.6,82.8,68.7,-992.1,-1154.7,-492.3,106.2,-6.9,-5.7,-232.8,-1407.6,-0.9,-20.1,-531.6,-55.5,0,1260,0,187,0, 
0.7033,-30.9,-317.1,9.3,106.8,-51.6,-116.7,-303.0,90.9,-444.6,-360.9,68.4,55.2,-997.2,-1152.9,-482.1,114.9,-6.9,-6.0,-246.3,-1419.3,-0.6,-27.3,-528.0,-59.4,0,1266,0,188,0, 
0.7067,-26.7,-309.0,15.9,110.1,-42.3,-114.6,-300.0,92.1,-370.5,-345.9,83.1,66.6,-992.7,-1152.6,-489.9,102.3,-6.6,-5.7,-234.0,-1409.4,-1.2,-20.1,-529.5,-57.0,0,1272,0,189,0, 
0.7100,-40.2,-316.8,10.5,109.8,-48.0,-113.7,-300.9,92.1,-518.7,-343.8,75.0,64.2,-1000.8,-1175.7,-513.0,123.6,-7.2,-5.4,-237.3,-1409.4,-0.9,-21.0,-522.9,-57.3,0,1278,0,190,0, 
0.7133,-40.5,-315.6,15.3,113.7,-42.9,-113.4,-303.9,93.9,-666.9,-334.8,85.5,71.7,-999.0,-1178.1,-514.8,107.4,-6.3,-5.7,-225.6,-1406.1,-1.2,-12.6,-527.4,-56.7,0,1284,0,191,0, 
0.7167,-30.3,-308.4,27.9,116.1,-37.2,-112.2,-297.3,99.0,-444.6,-331.2,93.9,76.2,-991.2,-1163.1,-503.1,104.1,-7.2,-5.7,-220.5,-1406.4,-0.9,-10.2,-521.4,-52.5,0,1290,0,192,0, 
0.7200,-36.3,-315.9,12.3,104.7,-49.5,-122.1,-304.8,88.5,-444.6,-347.7,83.7,63.0,-998.1,-1161.3,-491.4,113.4,-6.9,-6.0,-231.9,-1418.1,-0.6,-21.3,-529.5,-62.1,0,1296,0,193,0, 
0.7233,-30.9,-311.1,16.8,109.5,-43.8,-114.0,-298.5,95.1,-370.5,-337.2,93.9,72.9,-993.0,-1161.6,-503.4,99.6,-6.6,-5.4,-228.3,-1405.2,-1.2,-4.2,-522.0,-51.6,0,1302,0,194,0, 
0.7267,-28.8,-312.3,14.7,110.4,-45.0,-111.6,-296.1,92.7,-444.6,-344.7,86.1,71.1,-997.5,-1162.8,-493.8,121.2,-7.2,-6.0,-228.3,-1404.9,-0.3,-7.5,-522.0,-51.6,0,1308,0,195,0, 
0.7300,-33.0,-314.7,9.6,105.9,-47.1,-114.3,-301.2,87.6,-592.8,-347.1,81.3,65.7,-998.1,-1149.3,-482.7,118.2,-7.2,-6.0,-230.4,-1409.7,-0.9,-10.8,-522.6,-56.7,0,1314,0,196,0, 
0.7333,-32.4,-312.9,16.2,109.5,-46.5,-112.8,-294.3,90.3,-518.7,-339.6,85.8,72.3,-999.9,-1162.2,-489.0,128.4,-6.6,-5.7,-226.2,-1406.4,-0.9,-7.5,-512.7,-50.4,0,1320,0,197,0, 
0.7367,-30.3,-309.9,18.9,115.8,-40.5,-110.7,-294.0,93.3,-370.5,-334.2,90.3,72.3,-993.3,-1158.3,-495.0,116.7,-6.9,-6.0,-221.1,-1403.7,-0.9,-3.9,-512.7,-51.9,0,1326,0,198,0, 
0.7400,-32.1,-306.0,21.6,118.8,-42.6,-113.7,-299.4,97.8,-370.5,-339.9,87.6,67.8,-991.8,-1150.5,-485.1,106.8,-7.2,-5.7,-225.3,-1410.0,-0.6,-9.6,-520.2,-54.6,0,1332,0,199,0, 
0.7433,-38.4,-306.0,22.8,119.4,-37.5,-113.1,-294.6,97.8,-518.7,-342.0,93.3,72.0,-995.7,-1157.1,-501.9,109.8,-7.2,-6.3,-222.9,-1404.3,-0.9,-7.2,-512.4,-51.9,0,1338,0,200,0, 
0.7467,-40.2,-306.9,24.0,122.4,-36.6,-108.9,-295.8,96.3,-444.6,-339.9,94.5,73.2,-993.6,-1162.8,-502.8,118.2,-6.6,-6.0,-223.2,-1404.9,-0.9,-7.2,-518.1,-48.9,0,1344,0,201,0, 
0.7500,-37.8,-311.1,25.5,123.0,-36.3,-110.4,-298.5,98.4,-518.7,-346.2,90.6,73.8,-997.5,-1157.1,-493.2,126.3,-6.9,-6.0,-224.7,-1403.4,-0.6,-7.8,-511.8,-50.7,0,1350,0,202,0, 
0.7533,-38.4,-309.6,21.9,123.6,-36.9,-113.4,-307.2,95.1,-370.5,-345.9,89.4,75.0,-998.4,-1150.8,-486.3,117.6,-6.3,-6.0,-224.7,-1405.2,-0.9,-9.0,-516.0,-51.0,0,1356,0,203,0, 
0.7567,-29.7,-303.6,27.3,126.9,-37.8,-111.3,-302.1,97.8,-370.5,-340.2,92.7,75.3,-990.3,-1143.3,-486.0,106.5,-6.9,-6.3,-221.1,-1402.5,-0.3,-6.9,-508.2,-51.0,0,1362,0,204,0, 
0.7600,-36.6,-304.5,25.5,128.1,-35.1,-108.3,-302.1,94.5,-370.5,-341.4,91.8,73.8,-994.2,-1161.3,-491.1,120.0,-6.6,-6.0,-221.1,-1404.9,-0.6,-7.8,-513.9,-49.8,0,1368,0,205,0, 
0.7633,-31.2,-300.0,36.0,137.4,-28.5,-99.0,-291.9,108.6,-666.9,-328.2,104.4,88.5,-986.4,-1159.5,-499.8,117.6,-7.2,-6.3,-213.0,-1390.5,-0.9,2.1,-505.2,-38.7,0,1374,0,206,0, 
0.7667,-30.3,-301.8,28.2,129.9,-30.0,-104.4,-298.8,103.8,-666.9,-335.4,92.7,84.9,-992.7,-1159.2,-498.9,105.9,-6.6,-6.0,-215.4,-1395.3,-0.6,-0.6,-514.5,-45.0,0,1380,0,207,0, 
0.7700,-30.6,-306.3,25.8,123.0,-37.2,-107.1,-297.0,98.7,-518.7,-342.3,86.7,80.4,-996.6,-1161.3,-491.4,121.2,-7.2,-5.7,-224.4,-1399.2,-0.6,-11.1,-514.8,-51.3,0,1386,0,208,0, 
0.7733,-32.7,-306.0,18.6,123.0,-37.5,-109.2,-304.5,97.2,-370.5,-337.5,94.2,81.9,-996.3,-1158.6,-492.9,119.7,-6.9,-5.7,-219.9,-1394.4,-0.6,-11.1,-516.3,-49.8,0,1392,0,209,0, 
0.7767,-33.6,-305.7,18.3,118.2,-42.9,-112.8,-308.7,94.5,-592.8,-344.1,96.0,77.4,-998.4,-1164.3,-493.5,111.6,-6.9,-5.4,-223.5,-1398.6,-0.9,-16.5,-521.7,-53.1,0,1398,0,210,0, 
0.7800,-25.5,-300.0,29.4,124.8,-35.1,-105.3,-300.3,97.2,-592.8,-334.2,100.5,81.0,-989.7,-1156.5,-485.1,126.9,-6.9,-6.0,-219.6,-1395.0,-0.3,-12.6,-518.4,-47.7,0,1404,0,211,0, 
0.7833,-30.9,-299.4,27.0,128.1,-35.1,-105.0,-302.4,98.7,-444.6,-339.0,101.7,82.5,-992.7,-1159.5,-485.1,132.0,-6.9,-6.0,-215.7,-1393.5,-0.6,-15.3,-513.6,-51.6,0,1410,0,212,0, 
0.7867,-37.8,-304.8,24.3,124.2,-38.4,-105.9,-300.3,100.8,-518.7,-339.6,96.0,81.0,-1002.0,-1173.0,-482.1,153.9,-6.9,-5.7,-218.7,-1397.7,-1.2,-16.2,-511.2,-48.3,0,1416,0,213,0, 
0.7900,-31.8,-302.1,21.9,121.5,-41.1,-107.7,-303.3,96.9,-518.7,-346.5,91.5,73.8,-996.9,-1153.2,-478.8,125.4,-6.9,-6.0,-220.5,-1403.4,-0.9,-10.5,-508.8,-49.2,0,1422,0,214,0, 
0.7933,-12.0,-282.0,39.3,140.1,-21.3,-93.6,-297.6,111.6,-518.7,-320.7,114.6,93.3,-973.8,-1128.6,-470.1,104.7,-7.2,-6.3,-198.6,-1380.9,-0.9,10.5,-501.0,-32.1,0,1428,0,215,0, 
0.7967,-18.9,-280.8,42.0,144.6,-13.8,-91.8,-290.4,118.2,-444.6,-318.0,115.5,98.7,-973.5,-1152.3,-480.9,115.2,-6.6,-6.0,-195.9,-1376.1,-0.6,15.9,-506.4,-29.7,0,1434,0,216,0, 
0.8000,-26.1,-285.6,36.9,141.9,-19.5,-94.2,-291.0,109.8,-592.8,-324.6,111.6,90.6,-977.7,-1155.3,-482.1,126.6,-6.9,-6.3,-200.1,-1384.2,-0.6,6.0,-505.8,-33.9,0,1440,0,217,0, 
0.8033,-31.8,-293.7,32.7,134.7,-22.8,-97.8,-302.1,106.5,-444.6,-329.7,107.4,84.9,-984.6,-1156.2,-486.3,114.0,-6.9,-6.0,-206.1,-1389.0,-0.3,5.1,-505.8,-41.7,0,1446,0,218,0, 
0.8067,-34.2,-291.9,30.3,134.7,-24.6,-93.6,-300.0,107.4,-444.6,-331.2,110.4,90.6,-984.9,-1158.0,-488.4,133.8,-6.9,-5.4,-206.4,-1378.2,-0.9,8.1,-503.4,-39.9,0,1452,0,219,0, 
0.8100,-33.3,-294.9,28.5,131.1,-27.0,-99.3,-298.2,102.9,-518.7,-337.2,101.7,85.5,-982.5,-1152.3,-480.6,122.1,-6.6,-5.4,-213.6,-1385.4,-0.3,5.7,-509.7,-41.1,0,1458,0,220,0, 
0.8133,-35.1,-293.1,30.9,132.9,-26.1,-99.3,-304.5,101.7,-592.8,-334.8,98.7,81.9,-981.3,-1165.2,-495.0,118.5,-6.9,-5.7,-216.0,-1390.2,-0.6,1.2,-519.3,-43.2,0,1464,0,221,0, 
0.8167,-27.9,-289.2,28.2,137.1,-19.8,-94.2,-294.0,110.4,-518.7,-337.8,97.5,82.5,-976.8,-1149.0,-484.8,129.9,-7.2,-5.7,-216.6,-1385.7,-1.2,0.3,-507.6,-39.3,0,1470,0,222,0, 
0.8200,-26.1,-289.8,24.0,133.5,-26.4,-96.9,-297.3,106.8,-444.6,-328.2,105.6,86.4,-978.6,-1144.5,-478.5,126.6,-6.6,-6.0,-211.8,-1386.9,-0.3,-0.3,-509.7,-37.8,0,1476,0,223,0, 
0.8233,-31.5,-294.0,17.4,127.8,-31.8,-99.3,-303.6,102.6,-370.5,-335.1,97.5,84.3,-984.6,-1154.7,-483.0,122.1,-6.9,-5.7,-219.6,-1389.3,-0.9,-2.7,-513.0,-43.5,0,1482,0,224,0, 
0.8267,-26.7,-294.0,20.1,130.8,-30.9,-97.8,-303.3,108.6,-370.5,-332.1,99.3,86.7,-980.4,-1146.9,-483.9,115.5,-6.9,-6.0,-215.4,-1386.3,-0.6,-2.1,-510.3,-38.7,0,1488,0,225,0, 
0.8300,-32.7,-301.5,14.1,126.6,-31.5,-97.8,-306.9,107.4,-518.7,-337.2,99.3,84.6,-987.3,-1158.3,-486.6,119.1,-6.3,-6.3,-216.3,-1389.6,-0.3,-6.3,-515.7,-42.3,0,1494,0,226,0, 
0.8333,-30.3,-294.9,19.5,126.9,-31.2,-102.6,-305.4,108.0,-444.6,-339.6,99.3,86.4,-986.1,-1158.3,-481.8,115.2,-7.2,-6.0,-216.3,-1389.6,-0.9,-12.9,-523.2,-43.8,0,1500,0,227,0, 
0.8367,-36.0,-298.2,20.4,129.0,-31.8,-102.9,-307.2,103.8,-444.6,-336.3,98.1,85.2,-989.7,-1175.4,-500.1,117.6,-7.5,-6.0,-215.7,-1389.0,-0.6,-7.5,-529.5,-43.5,0,1506,0,228,0, 
0.8400,-35.4,-298.5,18.9,127.5,-37.8,-110.1,-300.6,102.3,-444.6,-342.9,92.1,79.2,-994.8,-1175.1,-498.0,141.9,-6.6,-6.0,-221.4,-1395.3,-0.6,-11.7,-525.3,-46.8,0,1512,0,229,0, 
0.8433,-25.8,-286.8,35.7,140.4,-24.3,-100.8,-300.0,112.8,-518.7,-326.1,108.3,96.0,-977.4,-1158.6,-492.3,95.7,-6.6,-6.3,-206.1,-1376.1,-0.6,9.0,-519.9,-33.6,0,1518,0,230,0, 
0.8467,-23.7,-287.4,19.2,128.4,-31.8,-109.8,-302.4,106.5,-518.7,-336.6,96.9,88.5,-987.9,-1161.3,-477.6,122.7,-6.6,-6.0,-214.2,-1380.9,-0.6,-7.5,-525.0,-40.2,0,1524,0,231,0, 
0.8500,-20.4,-280.5,31.8,139.5,-19.8,-100.2,-287.4,114.9,-518.7,-325.2,112.8,103.5,-977.4,-1148.7,-486.0,118.8,-6.9,-6.0,-202.5,-1366.8,-0.6,11.4,-513.6,-34.8,0,1530,0,232,0, 
0.8533,-25.2,-280.5,36.9,137.4,-18.9,-101.1,-294.6,114.9,-444.6,-322.5,111.3,100.8,-978.3,-1151.4,-492.3,119.4,-6.9,-6.0,-205.2,-1368.9,-0.6,9.9,-515.7,-30.6,0,1536,0,233,0, 
0.8567,-27.9,-287.1,27.6,135.3,-27.9,-105.6,-291.0,110.4,-444.6,-323.1,109.2,96.6,-978.9,-1165.2,-491.1,126.9,-6.9,-6.0,-205.2,-1371.6,-0.3,5.7,-518.1,-35.7,0,1542,0,234,0, 
0.8600,-32.7,-292.2,22.2,126.9,-37.5,-112.8,-301.5,102.3,-518.7,-335.7,101.7,85.5,-989.4,-1164.6,-485.1,136.5,-6.6,-6.0,-212.4,-1385.4,-0.3,-7.5,-518.4,-40.5,0,1548,0,235,0, 
0.8633,-24.9,-278.1,39.6,147.0,-16.5,-97.2,-303.0,113.4,-370.5,-306.9,119.1,103.5,-974.7,-1155.6,-496.8,86.4,-7.2,-6.0,-192.3,-1370.1,-0.6,13.8,-516.3,-27.9,0,1554,0,236,0, 
0.8667,-27.3,-282.6,29.1,138.9,-24.0,-100.8,-299.7,112.8,-518.7,-326.1,107.1,93.3,-984.6,-1158.9,-486.3,117.0,-6.9,-6.0,-203.1,-1383.9,-0.6,6.9,-514.8,-35.7,0,1560,0,237,0, 
0.8700,-26.4,-284.4,27.3,139.8,-22.2,-98.7,-300.9,111.3,-370.5,-321.9,110.7,94.2,-984.3,-1155.6,-488.7,119.4,-7.2,-6.0,-201.0,-1376.1,-0.3,10.5,-512.1,-28.8,0,1566,0,238,0, 
0.8733,-22.5,-276.9,30.3,147.6,-15.3,-92.4,-293.7,119.1,-370.5,-317.7,118.2,98.1,-973.8,-1135.8,-477.6,108.6,-6.6,-6.3,-197.7,-1373.4,-0.6,12.0,-509.1,-24.0,0,1572,0,239,0, 
0.8767,-26.4,-287.1,19.5,135.9,-22.5,-99.9,-302.7,111.3,-444.6,-326.1,105.6,86.4,-985.5,-1139.1,-471.0,115.5,-6.9,-5.4,-209.7,-1386.3,-0.6,1.5,-516.9,-30.3,0,1578,0,240,0, 
0.8800,-29.7,-287.7,22.5,140.7,-18.6,-93.9,-294.6,114.0,-518.7,-329.1,110.4,89.7,-987.6,-1156.8,-484.5,124.5,-6.6,-5.7,-204.6,-1379.7,-0.9,4.8,-512.4,-26.7,0,1584,0,241,0, 
0.8833,-33.6,-288.9,28.8,150.3,-6.3,-88.5,-295.5,117.3,-518.7,-317.7,116.4,100.8,-984.9,-1177.5,-502.8,126.3,-6.6,-5.7,-197.1,-1365.0,-1.2,15.6,-504.0,-20.1,0,1590,0,242,0, 
0.8867,-23.7,-282.0,28.8,145.5,-14.4,-91.2,-295.8,115.2,-444.6,-322.5,110.4,93.3,-981.3,-1157.1,-483.9,135.9,-6.9,-5.7,-201.6,-1374.3,-0.9,7.8,-504.6,-25.2,0,1596,0,243,0, 
0.8900,-33.0,-289.2,20.7,139.2,-24.9,-100.2,-303.0,106.8,-370.5,-331.5,103.8,88.2,-989.1,-1162.8,-490.8,129.0,-6.6,-6.3,-206.4,-1383.3,-0.6,2.1,-511.5,-34.2,0,1602,0,244,0, 
0.8933,-27.9,-289.5,23.1,144.3,-23.1,-97.5,-300.9,107.7,-444.6,-321.9,109.8,93.3,-988.2,-1160.7,-488.7,126.0,-6.6,-5.7,-202.2,-1377.0,-0.9,4.8,-514.2,-32.7,0,1608,0,245,0, 
0.8967,-28.8,-285.3,25.5,142.5,-26.7,-99.3,-300.3,110.4,-666.9,-329.4,105.9,91.2,-986.4,-1162.2,-481.5,134.1,-6.6,-5.7,-205.5,-1382.1,-0.3,-1.2,-508.5,-35.7,0,1614,0,246,0, 
0.9000,-29.4,-279.0,34.2,148.2,-21.9,-98.7,-291.3,112.8,-592.8,-321.3,115.5,95.7,-981.6,-1164.3,-493.5,136.8,-6.6,-6.0,-198.0,-1374.9,-0.6,4.2,-502.8,-32.4,0,1620,0,247,0, 
0.9033,-32.7,-288.0,20.1,130.5,-40.5,-114.3,-307.8,101.1,-518.7,-348.0,95.4,78.0,-991.5,-1156.2,-480.3,145.8,-6.9,-6.0,-216.0,-1394.1,-0.3,-10.8,-518.4,-49.2,0,1626,0,248,0, 
0.9067,-29.1,-276.3,30.9,140.1,-29.4,-104.4,-303.3,110.1,-222.3,-328.5,107.4,91.2,-981.0,-1151.1,-488.1,120.0,-6.6,-5.7,-204.0,-1382.7,-0.3,1.5,-510.9,-37.8,0,1632,0,249,0, 
0.9100,-33.9,-279.0,27.9,146.7,-21.3,-100.8,-304.8,111.0,-518.7,-319.8,116.4,100.2,-981.9,-1158.9,-495.0,106.8,-6.9,-6.0,-196.2,-1374.6,-0.3,16.5,-506.7,-33.9,0,1638,0,250,0, 
0.9133,-29.1,-272.7,32.7,150.6,-20.4,-98.7,-305.7,112.8,-518.7,-311.4,122.1,103.8,-977.1,-1151.7,-491.7,107.7,-6.9,-5.7,-192.6,-1369.8,-0.6,13.8,-509.4,-31.5,0,1644,0,251,0, 
0.9167,-26.4,-275.1,33.9,145.8,-27.3,-102.6,-304.8,111.9,-518.7,-318.6,118.2,98.4,-977.1,-1151.4,-483.6,134.1,-6.6,-6.0,-198.6,-1378.5,-0.3,5.1,-508.8,-36.3,0,1650,0,252,0, 
0.9200,-25.2,-274.8,29.4,145.2,-27.6,-100.5,-302.1,110.1,-444.6,-322.2,114.6,98.7,-975.9,-1146.6,-483.0,125.1,-6.6,-6.0,-201.3,-1381.2,-0.6,7.5,-504.3,-34.8,0,1656,0,253,0, 
0.9233,-20.1,-266.4,38.7,150.3,-18.6,-94.5,-298.5,118.5,-370.5,-306.6,126.0,104.4,-967.5,-1138.2,-471.0,116.7,-6.6,-5.7,-190.8,-1361.4,-1.2,15.9,-505.5,-25.8,0,1662,0,254,0, 
0.9267,-21.6,-269.4,35.4,150.9,-19.5,-96.0,-300.3,114.9,-370.5,-316.8,126.0,108.9,-975.3,-1137.6,-475.2,135.6,-7.2,-6.3,-196.5,-1362.0,-0.3,14.1,-510.6,-26.4,0,1668,0,255,0, 
0.9300,-25.2,-271.8,34.2,155.7,-14.1,-93.9,-300.3,114.0,-592.8,-321.0,122.1,103.8,-974.1,-1139.7,-475.5,136.8,-6.9,-6.0,-196.5,-1366.5,-0.6,11.7,-501.9,-27.0,0,1674,0,0,0, 
0.9333,-21.9,-270.3,33.9,159.3,-10.8,-93.3,-296.1,115.2,-370.5,-315.6,126.3,112.5,-973.2,-1128.3,-466.8,129.3,-7.2,-5.7,-192.0,-1357.8,-0.3,21.6,-506.1,-26.7,0,1680,0,1,0, 
0.9367,-24.6,-267.0,40.5,168.3,-1.8,-85.2,-293.1,123.6,-518.7,-303.3,136.5,123.3,-966.6,-1137.6,-485.4,125.4,-6.9,-6.0,-182.4,-1347.0,-0.6,26.7,-498.9,-16.8,0,1686,0,2,0, 
0.9400,-22.5,-274.5,33.6,160.8,-10.5,-87.9,-293.1,119.7,-296.4,-312.9,130.2,110.4,-975.9,-1142.1,-479.7,142.2,-6.9,-6.0,-189.6,-1356.6,-0.6,17.7,-495.6,-21.0,0,1692,0,3,0, 
0.9433,-32.4,-283.2,23.4,151.5,-18.6,-91.2,-295.5,111.9,-592.8,-324.0,114.0,99.6,-986.7,-1150.5,-488.4,143.7,-7.5,-6.0,-201.0,-1367.4,-0.6,11.1,-499.2,-29.4,0,1698,0,4,0, 
0.9467,-29.4,-287.1,19.2,144.9,-24.3,-99.6,-300.9,108.0,-444.6,-330.3,109.8,93.0,-987.0,-1135.8,-476.4,132.3,-6.9,-5.4,-208.2,-1374.6,-0.3,1.5,-504.3,-36.6,0,1704,0,5,0, 
0.9500,-33.0,-288.3,18.0,148.2,-21.9,-95.1,-303.6,110.1,-518.7,-332.1,110.4,94.2,-982.2,-1146.6,-484.5,141.3,-6.3,-6.0,-207.6,-1375.5,-0.6,-0.3,-505.8,-35.4,0,1710,0,6,0, 
0.9533,-38.1,-297.9,9.9,139.8,-32.1,-105.0,-304.8,100.8,-444.6,-340.5,98.4,82.5,-998.4,-1160.7,-483.0,152.1,-6.6,-5.4,-217.5,-1388.4,-0.9,-7.2,-513.0,-45.6,0,1716,0,7,0, 
0.9567,-28.8,-283.8,24.6,153.3,-18.9,-97.5,-300.3,114.0,-296.4,-327.0,113.4,98.7,-981.9,-1133.4,-476.7,125.7,-6.9,-5.7,-204.0,-1370.7,0.0,10.2,-507.0,-37.8,0,1722,0,8,0, 
0.9600,-27.9,-282.3,30.9,158.4,-13.8,-93.9,-301.5,116.4,-370.5,-317.4,124.5,105.3,-981.0,-1137.6,-491.7,123.0,-6.6,-6.0,-195.6,-1364.1,0.0,11.4,-501.0,-35.1,0,1728,0,9,0, 
0.9633,-29.1,-279.3,37.2,162.3,-9.3,-95.4,-303.0,119.1,-592.8,-305.7,129.9,110.4,-976.8,-1151.7,-507.0,98.7,-6.6,-5.7,-187.5,-1360.5,-0.3,18.3,-502.8,-31.5,0,1734,0,10,0, 
0.9667,-32.1,-284.1,33.3,156.3,-18.6,-99.6,-300.3,113.7,-518.7,-315.6,125.1,105.6,-981.3,-1154.1,-489.6,124.5,-6.6,-6.0,-196.2,-1366.5,-0.6,9.3,-506.4,-35.4,0,1740,0,11,0, 
0.9700,-33.3,-288.9,26.1,149.1,-24.3,-102.3,-302.4,111.9,-444.6,-317.4,122.1,99.0,-982.5,-1151.7,-497.1,118.5,-6.9,-6.0,-199.5,-1374.9,-0.6,7.8,-509.4,-41.7,0,1746,0,12,0, 
0.9733,-30.6,-294.6,25.5,144.6,-26.1,-109.5,-305.1,108.0,-370.5,-325.8,120.9,97.2,-982.5,-1142.1,-480.6,122.7,-6.9,-5.4,-201.6,-1377.6,-0.6,1.5,-510.6,-48.0,0,1752,0,13,0, 
0.9767,-30.6,-299.1,13.5,135.9,-32.1,-117.0,-302.1,102.6,-444.6,-336.3,109.2,85.8,-984.9,-1140.9,-465.3,139.2,-7.2,-5.4,-210.6,-1392.0,-0.3,-11.1,-510.6,-55.8,0,1758,0,14,0, 
0.9800,-24.0,-289.8,26.1,153.0,-23.1,-105.6,-289.5,113.1,-592.8,-323.1,122.7,97.8,-974.4,-1131.6,-471.6,126.9,-7.2,-6.3,-196.2,-1378.5,-0.6,6.9,-501.9,-41.4,0,1764,0,15,0, 
0.9833,-27.3,-286.2,33.3,157.8,-14.1,-99.6,-293.4,116.1,-518.7,-311.1,131.1,107.4,-969.0,-1146.3,-503.1,114.9,-6.9,-5.7,-187.2,-1369.8,-0.3,23.1,-507.9,-33.6,0,1770,0,16,0, 
0.9867,-29.4,-296.7,24.9,148.8,-21.3,-105.6,-297.0,111.3,-370.5,-321.3,120.3,99.3,-975.3,-1146.9,-484.5,128.1,-7.2,-5.7,-197.1,-1381.5,-0.3,10.5,-517.8,-41.1,0,1776,0,17,0, 
0.9900,-33.9,-298.8,16.8,140.4,-28.5,-111.0,-304.5,99.9,-370.5,-325.2,112.2,93.9,-975.0,-1130.4,-479.1,117.0,-6.9,-6.0,-205.5,-1383.9,-0.3,2.4,-524.4,-50.7,0,1782,0,18,0, 
0.9933,-34.5,-293.4,26.4,144.6,-13.5,-101.4,-300.9,104.4,-444.6,-312.9,123.0,107.1,-972.6,-1143.9,-498.9,108.6,-7.2,-6.0,-193.8,-1372.5,-0.9,14.7,-507.0,-39.3,0,1788,0,19,0, 
0.9967,-32.7,-293.1,27.6,146.4,-10.5,-102.9,-300.6,108.9,-444.6,-311.7,124.2,103.8,-965.4,-1143.9,-495.3,111.9,-6.3,-5.7,-196.5,-1371.0,-0.9,15.3,-511.5,-36.9,0,1794,0,20,0, 
1.0000,-28.5,-294.6,28.8,147.0,-6.6,-96.6,-299.1,108.3,-444.6,-315.6,123.6,110.4,-962.7,-1125.3,-485.4,124.2,-6.9,-5.7,-197.7,-1365.6,-0.6,15.0,-510.9,-33.6,0,1800,0,21,0, 
1.0033,-26.1,-297.0,29.1,146.7,-8.7,-94.8,-298.5,105.3,-370.5,-323.7,122.1,108.3,-966.6,-1124.7,-482.1,119.7,-6.6,-6.0,-202.2,-1365.9,-0.9,12.9,-510.6,-34.2,0,1806,0,22,0, 
1.0067,-32.7,-303.3,22.5,141.3,-14.1,-101.1,-300.6,99.6,-370.5,-327.9,115.2,100.2,-976.5,-1138.2,-482.7,127.5,-6.9,-6.0,-213.0,-1378.5,-0.9,5.1,-521.7,-41.7,0,1812,0,23,0, 
1.0100,-36.9,-305.7,19.8,135.9,-16.5,-103.5,-303.3,94.8,-370.5,-329.7,109.8,94.5,-975.9,-1137.0,-490.5,123.3,-7.2,-6.0,-215.7,-1386.3,-0.9,-6.0,-518.1,-47.4,0,1818,0,24,0, 
1.0133,-33.0,-297.6,29.7,147.9,-3.9,-93.0,-296.1,109.5,-592.8,-318.3,123.6,109.2,-965.7,-1137.6,-495.3,107.7,-6.6,-6.0,-201.6,-1370.7,-1.2,8.7,-513.9,-36.0,0,1824,0,25,0, 
1.0167,-27.9,-293.1,37.5,152.4,0.3,-89.7,-301.2,106.8,-518.7,-310.5,127.2,110.1,-957.3,-1129.8,-494.7,85.8,-6.9,-6.0,-196.8,-1371.9,-0.6,18.3,-522.6,-33.6,0,1830,0,26,0, 
1.0200,-30.0,-301.2,27.0,138.0,-11.7,-98.4,-304.2,99.9,-518.7,-326.7,114.0,96.3,-966.3,-1131.0,-483.0,111.3,-6.6,-6.0,-211.2,-1388.1,-0.6,4.5,-525.0,-44.4,0,1836,0,27,0, 
1.0233,-27.0,-292.8,36.3,146.4,-2.1,-93.0,-296.7,107.7,-518.7,-313.2,124.2,110.1,-954.6,-1119.0,-484.2,95.7,-6.9,-5.4,-196.5,-1372.2,-0.9,16.8,-519.3,-38.4,0,1842,0,28,0, 
1.0267,-24.6,-304.2,27.6,136.5,-12.3,-101.1,-301.8,100.5,-444.6,-328.5,113.7,96.9,-964.5,-1123.5,-479.1,100.8,-7.2,-6.0,-208.2,-1386.3,-0.9,2.7,-522.0,-49.5,0,1848,0,29,0, 
1.0300,-27.0,-303.6,34.5,138.9,-10.5,-98.7,-291.6,101.1,-518.7,-318.6,119.4,99.3,-961.8,-1125.0,-489.3,100.2,-6.9,-6.0,-204.6,-1382.4,-0.3,11.1,-525.6,-41.4,0,1854,0,30,0, 
1.0333,-24.0,-306.9,23.1,133.8,-19.2,-102.0,-296.4,99.0,-444.6,-326.4,114.0,94.8,-966.0,-1125.3,-481.2,109.8,-6.9,-6.3,-211.8,-1387.5,-0.6,3.6,-523.5,-44.4,0,1860,0,31,0, 
1.0367,-22.8,-304.2,28.5,138.0,-13.8,-102.6,-298.5,100.8,-518.7,-326.1,119.7,99.0,-964.2,-1124.7,-479.7,86.1,-6.6,-6.0,-205.2,-1383.9,-0.9,10.8,-524.7,-41.4,0,1866,0,32,0, 
1.0400,-29.7,-310.5,22.5,129.3,-23.7,-111.9,-302.1,95.4,-444.6,-330.6,115.5,90.9,-965.7,-1130.4,-473.7,97.8,-6.9,-5.7,-215.7,-1395.0,-0.9,2.4,-525.0,-50.4,0,1872,0,33,0, 
1.0433,-26.4,-303.9,25.8,138.9,-12.9,-100.8,-296.1,105.9,-444.6,-321.0,116.1,97.8,-960.3,-1134.6,-484.2,98.4,-6.9,-5.7,-207.0,-1388.4,-1.2,2.4,-518.4,-41.7,0,1878,0,34,0, 
1.0467,-29.4,-303.6,36.0,144.3,-8.1,-93.9,-297.3,106.2,-592.8,-317.4,122.1,105.3,-962.7,-1148.7,-506.1,92.7,-6.9,-6.6,-200.1,-1377.6,-0.6,13.5,-514.5,-35.7,0,1884,0,35,0, 
1.0500,-33.6,-312.3,24.3,130.5,-12.3,-101.7,-297.0,100.2,-518.7,-327.9,112.8,96.0,-973.2,-1149.0,-492.9,93.9,-6.6,-6.0,-210.6,-1383.6,-0.6,9.9,-519.9,-39.6,0,1890,0,36,0, 
1.0533,-36.0,-318.6,17.4,126.3,-24.6,-110.1,-300.3,91.2,-518.7,-337.5,106.5,85.8,-981.0,-1142.7,-492.3,98.1,-6.9,-6.0,-219.3,-1395.0,-0.6,-3.6,-526.2,-47.4,0,1896,0,37,0, 
1.0567,-41.1,-320.7,15.3,122.4,-24.3,-113.4,-302.4,91.2,-444.6,-336.9,100.8,83.4,-984.3,-1160.4,-500.1,100.5,-6.6,-5.4,-220.2,-1396.8,-0.6,2.4,-522.9,-47.1,0,1902,0,38,0, 
1.0600,-34.5,-317.1,16.5,123.9,-24.9,-114.6,-306.6,93.0,-370.5,-341.7,101.7,81.6,-976.8,-1138.2,-490.5,90.3,-7.2,-5.7,-221.1,-1398.9,-0.6,-3.3,-527.7,-48.6,0,1908,0,39,0, 
1.0633,-40.5,-317.7,17.1,126.6,-21.0,-111.6,-311.1,94.2,-518.7,-338.1,103.2,81.3,-986.1,-1162.8,-507.3,101.4,-7.2,-5.7,-219.9,-1396.2,-0.9,0.0,-522.0,-45.0,0,1914,0,40,0, 
1.0667,-37.5,-313.8,19.2,127.8,-19.8,-109.8,-307.8,94.2,-518.7,-333.0,106.8,84.0,-980.7,-1153.8,-510.0,93.6,-7.2,-5.7,-215.7,-1397.1,-0.6,3.9,-523.2,-42.6,0,1920,0,41,0, 
1.0700,-42.6,-317.1,15.9,128.7,-19.5,-110.1,-312.0,95.4,-444.6,-336.9,97.5,83.7,-985.8,-1158.9,-514.2,82.2,-6.9,-6.0,-219.9,-1393.5,-0.6,5.1,-520.8,-42.9,0,1926,0,42,0, 
1.0733,-48.0,-324.6,7.2,121.5,-30.3,-112.5,-313.5,90.6,-444.6,-350.1,93.6,73.8,-993.6,-1162.5,-501.0,120.0,-6.9,-6.3,-231.6,-1403.1,-0.6,-14.1,-521.1,-50.7,0,1932,0,43,0, 
1.0767,-37.5,-313.5,20.1,130.8,-16.8,-106.8,-306.9,101.7,-444.6,-341.4,104.1,86.7,-985.8,-1156.5,-500.1,99.6,-6.9,-5.7,-219.0,-1386.9,-0.3,0.0,-515.4,-40.2,0,1938,0,44,0, 
1.0800,-32.7,-306.0,28.8,139.2,-5.4,-98.1,-308.4,110.1,-518.7,-326.1,118.5,100.8,-973.2,-1152.6,-496.2,88.8,-6.9,-6.0,-206.7,-1377.3,-0.6,9.3,-520.2,-36.9,0,1944,0,45,0, 
1.0833,-27.9,-303.6,32.1,143.7,-1.8,-94.5,-305.7,111.9,-444.6,-321.0,121.5,103.2,-969.9,-1152.3,-503.4,91.8,-6.9,-6.0,-201.9,-1375.5,-0.3,15.9,-520.2,-30.6,0,1950,0,46,0, 
1.0867,-33.9,-309.0,28.8,140.1,-6.9,-99.3,-305.7,105.6,-444.6,-326.1,117.3,97.8,-972.0,-1146.9,-496.2,93.3,-6.6,-5.4,-207.6,-1381.5,-0.6,14.4,-518.7,-38.4,0,1956,0,47,0, 
1.0900,-38.4,-322.2,12.6,128.7,-17.7,-107.1,-311.4,95.1,-444.6,-345.3,105.9,89.7,-979.5,-1155.6,-493.8,98.4,-6.9,-6.0,-218.7,-1386.9,-0.6,8.1,-516.6,-44.4,0,1962,0,48,0, 
1.0933,-38.7,-318.3,21.0,129.9,-11.7,-103.2,-313.8,96.9,-370.5,-338.4,104.4,92.7,-974.1,-1143.6,-493.2,90.0,-6.3,-5.7,-216.9,-1383.6,-0.9,6.0,-512.7,-41.4,0,1968,0,49,0, 
1.0967,-34.2,-321.6,14.4,120.9,-20.4,-115.2,-317.4,93.3,-666.9,-339.3,99.6,83.7,-975.0,-1128.3,-480.3,93.0,-6.9,-6.0,-220.8,-1394.4,-0.9,-2.4,-532.8,-54.6,0,1974,0,50,0, 
1.1000,-41.4,-323.7,14.1,123.0,-19.8,-116.1,-316.2,95.4,-666.9,-345.0,102.3,83.7,-983.7,-1146.3,-489.9,102.0,-6.9,-5.7,-223.2,-1394.4,-0.6,-0.3,-533.1,-51.0,0,1980,0,51,0, 
1.1033,-41.7,-322.5,15.0,126.6,-17.7,-111.6,-312.3,96.0,-370.5,-341.1,103.2,87.9,-987.0,-1164.0,-502.2,114.0,-6.9,-6.0,-222.9,-1389.6,-0.6,-4.5,-526.8,-48.9,0,1986,0,52,0, 
1.1067,-32.7,-310.2,29.7,141.3,-3.6,-101.4,-309.0,108.9,-296.4,-324.9,116.7,106.5,-968.4,-1148.4,-501.6,83.1,-6.6,-5.7,-202.8,-1370.4,-0.6,20.7,-517.8,-36.6,0,1992,0,53,0, 
1.1100,-32.7,-312.3,25.5,137.1,-7.8,-107.1,-309.9,104.4,-444.6,-323.7,118.5,102.9,-968.7,-1151.7,-494.1,90.3,-7.2,-6.0,-202.5,-1377.9,-0.6,9.3,-525.0,-41.7,0,1998,0,54,0, 
1.1133,-35.4,-318.0,23.7,129.9,-16.8,-115.5,-318.0,100.2,-592.8,-337.8,101.4,87.9,-976.2,-1158.9,-503.1,92.4,-6.3,-6.0,-219.6,-1391.7,-1.2,-0.6,-535.2,-50.1,0,2004,0,55,0, 
1.1167,-33.9,-318.0,17.4,126.9,-20.1,-116.7,-322.8,93.9,-518.7,-336.3,102.3,90.9,-973.8,-1156.8,-499.5,96.3,-7.2,-6.0,-215.1,-1387.2,-0.6,0.3,-540.3,-50.1,0,2010,0,56,0, 
1.1200,-40.8,-323.4,13.2,120.6,-27.0,-120.6,-322.2,84.0,-518.7,-340.5,100.2,85.8,-983.7,-1164.0,-505.2,91.2,-6.9,-5.4,-215.1,-1387.8,-0.6,-3.0,-539.7,-54.9,0,2016,0,57,0, 
1.1233,-42.0,-329.1,2.1,108.3,-41.1,-129.6,-327.3,77.1,-370.5,-359.1,83.1,66.0,-990.6,-1162.2,-495.3,101.4,-6.9,-6.0,-234.3,-1407.6,-0.6,-21.9,-539.7,-65.7,0,2022,0,58,0, 
1.1267,-41.4,-330.9,-2.7,101.4,-48.3,-133.8,-329.1,80.4,-518.7,-364.5,74.1,62.7,-991.2,-1159.2,-490.8,100.8,-6.9,-6.0,-242.1,-1411.2,-0.9,-25.2,-540.3,-69.3,0,2028,0,59,0, 
1.1300,-44.7,-329.1,3.6,107.4,-40.2,-125.4,-320.7,83.7,-444.6,-348.9,87.3,74.7,-993.6,-1173.0,-509.7,101.4,-7.2,-6.0,-230.1,-1400.1,-0.9,-14.1,-534.9,-60.6,0,2034,0,60,0, 
1.1333,-47.7,-336.9,0.9,104.7,-42.3,-126.0,-324.9,80.7,-592.8,-348.3,88.8,69.3,-997.8,-1189.2,-516.9,100.8,-6.9,-6.0,-229.2,-1404.3,-0.6,-15.9,-536.7,-63.0,0,2040,0,61,0, 
1.1367,-46.2,-333.0,0.0,103.5,-43.5,-127.5,-324.3,78.6,-518.7,-351.6,87.6,67.2,-998.7,-1170.0,-501.9,81.6,-6.9,-6.0,-231.9,-1409.4,-0.6,-19.2,-539.4,-68.4,0,2046,0,62,0, 
1.1400,-53.1,-338.4,-5.4,101.4,-45.0,-132.9,-323.4,72.6,-518.7,-363.9,80.7,61.8,-1001.4,-1176.9,-506.1,89.7,-6.9,-6.0,-241.2,-1412.1,-0.6,-22.8,-543.6,-72.6,0,2052,0,63,0, 
1.1433,-49.2,-329.1,0.9,109.8,-36.9,-123.9,-318.0,83.7,-444.6,-357.0,90.0,69.6,-996.9,-1174.8,-516.3,98.4,-6.3,-6.0,-234.3,-1407.0,-0.9,-15.0,-539.4,-63.3,0,2058,0,64,0, 
1.1467,-44.7,-324.6,8.1,121.5,-25.5,-118.8,-310.2,89.7,-518.7,-350.1,95.7,81.0,-989.1,-1178.1,-520.5,102.0,-6.9,-5.7,-228.6,-1398.9,-0.6,-9.0,-532.5,-54.6,0,2064,0,65,0, 
1.1500,-42.6,-319.5,9.6,122.7,-24.0,-117.6,-315.0,90.0,-518.7,-350.7,98.1,79.8,-985.8,-1166.7,-505.2,94.2,-6.9,-5.7,-226.2,-1394.7,-0.3,-8.4,-534.6,-54.0,0,2070,0,66,0, 
1.1533,-42.6,-324.3,8.7,121.8,-26.1,-116.4,-314.4,90.9,-370.5,-352.8,98.1,84.9,-989.1,-1171.5,-503.1,103.2,-7.2,-5.7,-225.0,-1391.7,-0.9,-12.0,-533.7,-57.3,0,2076,0,67,0, 
1.1567,-39.3,-321.0,17.4,128.1,-22.8,-116.1,-318.6,91.8,-444.6,-349.5,102.3,84.0,-990.3,-1162.8,-499.2,103.8,-7.2,-6.3,-219.3,-1391.7,-0.6,-13.2,-537.9,-57.9,0,2082,0,68,0, 
1.1600,-37.8,-319.5,17.1,128.7,-23.7,-117.3,-316.2,97.2,-444.6,-349.8,99.6,85.2,-990.0,-1158.0,-498.0,101.7,-6.6,-6.0,-222.3,-1392.3,-0.6,-15.3,-533.7,-56.7,0,2088,0,69,0, 
1.1633,-35.7,-314.1,24.9,135.9,-15.6,-114.6,-315.3,102.0,-592.8,-342.9,106.2,89.4,-985.2,-1166.1,-495.3,102.9,-6.9,-6.0,-212.1,-1387.2,-0.3,-6.3,-535.2,-53.4,0,2094,0,70,0, 
1.1667,-33.0,-312.3,23.1,137.7,-16.8,-112.5,-315.3,102.6,-444.6,-340.5,108.3,95.1,-982.5,-1162.2,-504.0,108.9,-6.6,-5.7,-213.3,-1385.7,-0.3,-5.1,-531.3,-48.3,0,2100,0,71,0, 
1.1700,-31.2,-310.2,29.1,139.5,-12.9,-111.0,-314.1,105.3,-592.8,-337.5,112.2,96.3,-982.5,-1161.0,-502.5,92.4,-6.9,-5.4,-207.6,-1379.7,-0.6,1.2,-529.8,-49.8,0,2106,0,72,0, 
1.1733,-36.3,-312.9,20.4,129.6,-24.0,-111.9,-317.4,106.2,-370.5,-348.3,107.1,90.9,-988.8,-1164.9,-496.5,110.1,-6.6,-6.3,-213.0,-1386.0,-0.3,-7.2,-527.1,-51.0,0,2112,0,73,0, 
1.1767,-36.6,-314.1,18.6,131.4,-26.7,-116.1,-321.0,101.1,-444.6,-350.4,106.2,84.3,-991.5,-1168.2,-501.9,102.0,-7.2,-5.7,-218.1,-1387.5,-0.6,-12.0,-534.6,-54.0,0,2118,0,74,0, 
1.1800,-44.7,-326.4,9.3,116.1,-37.2,-122.4,-333.6,91.2,-518.7,-369.3,81.3,72.3,-1000.8,-1173.6,-498.6,122.7,-6.6,-6.0,-239.4,-1399.5,-0.6,-28.5,-545.4,-64.2,0,2124,0,75,0, 
1.1833,-45.9,-324.3,9.0,117.0,-33.9,-120.0,-330.0,93.3,-592.8,-362.7,82.2,74.4,-1000.5,-1184.7,-507.6,104.4,-6.6,-5.7,-235.2,-1396.5,-0.6,-21.9,-537.9,-57.6,0,2130,0,76,0, 
1.1867,-35.1,-318.3,12.6,124.5,-30.0,-111.6,-321.3,102.0,-370.5,-360.0,84.0,76.5,-992.4,-1184.1,-500.7,99.3,-6.9,-5.7,-240.3,-1396.5,-0.6,-14.4,-533.1,-53.7,0,2136,0,77,0, 
1.1900,-38.4,-325.5,4.8,120.9,-34.8,-113.4,-318.9,103.5,-518.7,-372.0,67.2,56.4,-998.1,-1184.1,-503.7,108.6,-7.2,-5.7,-258.9,-1414.8,-0.9,-26.4,-526.2,-58.2,0,2142,0,78,0, 
1.1933,-34.2,-317.7,12.6,126.6,-32.4,-114.3,-317.4,101.7,-444.6,-356.4,81.9,60.0,-992.7,-1178.7,-500.4,113.7,-6.6,-6.0,-235.2,-1414.5,-0.9,-20.7,-527.7,-56.7,0,2148,0,79,0, 
1.1967,-39.3,-322.5,12.3,122.7,-39.6,-119.4,-327.9,95.7,-444.6,-357.6,94.8,66.0,-992.4,-1171.2,-486.9,113.1,-6.6,-6.0,-218.4,-1411.2,-0.6,-31.8,-538.5,-67.5,0,2154,0,80,0, 
1.2000,-38.4,-313.2,22.8,126.9,-31.8,-117.9,-329.1,97.8,-518.7,-342.3,113.7,84.9,-989.4,-1185.0,-506.7,93.6,-6.9,-6.0,-201.9,-1399.8,-0.6,-17.7,-537.0,-61.5,0,2160,0,81,0, 
1.2033,-39.0,-321.0,12.9,117.0,-47.1,-126.6,-330.6,96.9,-370.5,-364.5,96.0,64.5,-997.2,-1178.4,-494.7,107.4,-6.9,-5.7,-219.6,-1426.8,-0.9,-36.0,-550.5,-74.7,0,2166,0,82,0, 
1.2067,-36.6,-315.9,16.8,119.4,-43.2,-124.5,-327.6,101.4,-370.5,-355.2,97.5,65.1,-990.9,-1176.0,-499.8,106.5,-6.6,-6.6,-211.5,-1431.9,-0.6,-33.9,-549.3,-73.2,0,2172,0,83,0, 
1.2100,-39.0,-318.9,11.4,117.0,-45.3,-125.4,-331.5,97.2,-444.6,-353.7,103.8,66.9,-994.5,-1181.1,-495.6,104.4,-6.9,-6.0,-205.2,-1433.4,-0.9,-33.3,-545.7,-75.0,0,2178,0,84,0, 
1.2133,-38.1,-312.6,18.9,126.6,-38.7,-120.0,-323.7,103.8,-444.6,-339.3,117.9,80.1,-989.4,-1181.4,-503.7,121.2,-6.6,-5.7,-191.4,-1428.0,-0.9,-22.8,-539.7,-64.8,0,2184,0,85,0, 
1.2167,-32.7,-303.6,28.5,132.3,-30.9,-117.0,-324.3,107.4,-518.7,-327.0,132.3,82.5,-976.2,-1166.1,-491.4,113.1,-6.9,-5.7,-175.2,-1428.6,-0.3,-21.0,-534.9,-62.7,0,2190,0,86,0, 
1.2200,-34.2,-302.4,30.9,130.5,-27.9,-116.4,-324.9,106.8,-444.6,-323.4,141.3,90.3,-978.3,-1176.3,-509.7,126.9,-6.9,-6.0,-166.8,-1428.3,-0.9,-12.0,-527.4,-56.4,0,2196,0,87,0, 
1.2233,-32.4,-308.1,24.3,123.6,-38.4,-122.4,-333.3,94.5,-518.7,-333.6,126.9,72.9,-982.5,-1158.0,-487.5,119.1,-6.6,-6.0,-178.5,-1446.9,-0.6,-27.9,-533.7,-69.6,0,2202,0,88,0, 
1.2267,-32.7,-303.0,32.4,128.4,-33.6,-118.2,-330.6,103.5,-444.6,-325.5,138.9,85.2,-979.8,-1155.6,-492.9,112.8,-6.6,-5.7,-165.0,-1436.4,-0.9,-20.7,-532.8,-65.1,0,2208,0,89,0, 
1.2300,-37.5,-306.6,30.3,127.8,-34.2,-115.5,-323.4,104.1,-444.6,-329.7,141.6,87.0,-984.3,-1173.0,-494.4,117.0,-7.2,-6.0,-162.6,-1436.1,-0.9,-18.9,-529.2,-63.9,0,2214,0,90,0, 
1.2333,-35.4,-301.2,29.4,125.7,-34.5,-114.0,-325.5,107.4,-592.8,-330.0,131.7,82.5,-979.2,-1166.7,-499.5,114.6,-6.9,-5.7,-169.5,-1445.4,0.0,-19.2,-526.8,-62.4,0,2220,0,91,0, 
1.2367,-39.9,-313.2,19.5,118.8,-43.8,-122.1,-325.8,96.0,-444.6,-338.7,121.8,73.5,-987.6,-1173.0,-500.4,118.5,-6.9,-5.7,-177.3,-1454.1,-0.6,-30.0,-532.8,-69.3,0,2226,0,92,0, 
1.2400,-41.1,-312.3,22.5,119.7,-41.1,-114.9,-320.4,99.9,-444.6,-332.1,132.3,83.1,-985.2,-1179.9,-507.0,127.2,-7.2,-5.7,-167.4,-1445.7,-0.6,-20.7,-527.7,-60.3,0,2232,0,93,0, 
1.2433,-39.3,-318.6,14.7,113.1,-50.7,-121.8,-325.8,91.8,-592.8,-340.5,126.0,71.1,-990.9,-1175.4,-496.8,130.2,-6.6,-6.0,-172.8,-1457.1,-0.6,-25.8,-528.6,-67.2,0,2238,0,94,0, 
1.2467,-48.3,-326.7,9.6,101.7,-61.5,-130.8,-327.0,83.7,-592.8,-355.5,107.4,56.4,-1002.0,-1185.3,-492.6,159.6,-6.6,-6.3,-188.4,-1470.6,-0.3,-52.2,-534.3,-83.7,0,2244,0,95,0, 
1.2500,-41.4,-321.9,11.1,105.3,-55.5,-129.3,-332.7,86.4,-592.8,-341.7,115.5,66.3,-990.9,-1172.1,-505.2,131.7,-6.9,-5.7,-179.4,-1460.1,-1.2,-36.0,-537.3,-79.8,0,2250,0,96,0, 
1.2533,-32.4,-311.7,18.3,110.1,-49.5,-126.9,-329.4,90.6,-444.6,-334.2,125.1,74.4,-979.5,-1163.7,-495.3,102.3,-6.9,-5.7,-171.6,-1456.5,-0.3,-28.2,-537.6,-74.7,0,2256,0,97,0, 
1.2567,-30.6,-310.5,16.2,111.3,-47.4,-127.2,-323.1,93.9,-370.5,-331.5,127.8,70.5,-980.7,-1167.0,-502.8,104.7,-7.2,-6.0,-168.3,-1458.3,-0.9,-24.9,-532.5,-71.7,0,2262,0,98,0, 
1.2600,-29.4,-308.7,15.0,110.4,-48.0,-129.9,-327.3,95.4,-518.7,-337.2,127.5,70.2,-981.0,-1165.2,-499.2,114.0,-7.2,-6.3,-171.0,-1459.8,-0.6,-28.2,-532.2,-74.4,0,2268,0,99,0, 
1.2633,-23.7,-299.1,23.1,121.5,-40.8,-123.0,-317.1,101.7,-518.7,-328.8,134.7,77.1,-971.4,-1153.5,-499.2,108.0,-7.2,-5.7,-164.4,-1452.9,-0.9,-25.5,-530.7,-71.7,0,2274,0,100,0, 
1.2667,-19.2,-296.7,30.6,129.3,-38.1,-117.9,-316.5,105.0,-518.7,-324.9,135.6,81.6,-968.1,-1150.5,-489.0,123.3,-6.9,-5.7,-162.3,-1451.4,-0.9,-21.3,-533.7,-72.3,0,2280,0,101,0, 
1.2700,-21.3,-298.8,33.0,128.7,-35.1,-117.9,-324.0,108.6,-370.5,-322.8,137.4,78.9,-966.3,-1154.7,-495.0,114.6,-7.2,-6.0,-157.2,-1452.6,-0.6,-21.3,-537.0,-72.3,0,2286,0,102,0, 
1.2733,-17.1,-290.7,43.5,139.5,-22.2,-113.4,-321.6,111.3,-370.5,-317.1,141.9,87.3,-961.8,-1149.6,-491.7,108.9,-6.6,-5.7,-153.6,-1444.8,-1.2,-18.3,-530.7,-63.3,0,2292,0,103,0, 
1.2767,-23.1,-300.9,32.4,133.5,-29.4,-118.5,-326.4,105.0,-518.7,-327.9,138.3,83.7,-968.1,-1163.1,-490.5,123.6,-6.6,-5.7,-162.6,-1449.0,-0.3,-25.8,-530.1,-67.8,0,2298,0,104,0, 
1.2800,-19.2,-297.3,33.0,132.9,-31.2,-118.2,-324.6,105.3,-518.7,-329.4,136.5,81.0,-962.1,-1150.2,-481.8,132.0,-6.9,-6.0,-160.2,-1448.1,-0.3,-27.3,-528.3,-70.5,0,2304,0,105,0, 
1.2833,-18.9,-294.6,39.3,139.8,-25.5,-113.4,-327.3,112.5,-444.6,-320.7,144.9,90.6,-960.6,-1144.2,-493.2,105.3,-7.2,-6.0,-152.4,-1441.2,-0.6,-16.2,-525.3,-62.7,0,2310,0,106,0, 
1.2867,-18.6,-297.6,36.9,136.2,-30.3,-115.5,-325.8,104.7,-518.7,-326.7,137.7,80.1,-964.5,-1144.2,-479.1,120.0,-6.9,-5.7,-161.1,-1447.5,-0.9,-22.8,-531.0,-62.7,0,2316,0,107,0, 
1.2900,-20.7,-298.5,35.4,130.2,-33.0,-114.0,-328.8,103.2,-296.4,-323.1,140.1,80.7,-966.3,-1142.1,-483.0,119.1,-7.2,-5.7,-159.9,-1446.6,-0.9,-21.3,-527.4,-62.7,0,2322,0,108,0, 
1.2933,-23.1,-299.7,27.6,126.9,-31.5,-115.8,-330.3,102.6,-444.6,-327.3,132.0,78.0,-973.5,-1151.7,-483.9,122.7,-6.6,-5.7,-161.1,-1449.3,-0.6,-25.2,-530.4,-62.4,0,2328,0,109,0, 
1.2967,-28.8,-310.2,12.0,109.2,-40.8,-124.5,-335.7,95.1,-518.7,-347.4,111.9,59.4,-988.2,-1156.8,-481.8,127.8,-6.6,-6.0,-183.0,-1467.3,-0.6,-42.9,-533.4,-73.2,0,2334,0,110,0, 
1.3000,-27.6,-304.5,13.5,114.3,-41.4,-122.7,-332.4,99.9,-444.6,-340.8,117.3,66.0,-983.1,-1148.7,-492.6,106.5,-6.9,-6.0,-177.9,-1461.0,-0.9,-34.2,-538.8,-67.2,0,2340,0,111,0, 
1.3033,-33.3,-310.8,19.5,113.4,-44.7,-121.2,-332.7,94.2,-518.7,-339.0,118.2,64.8,-986.4,-1173.3,-504.6,123.0,-6.9,-6.0,-176.7,-1463.4,-0.9,-32.1,-537.0,-69.9,0,2346,0,112,0, 
1.3067,-33.3,-312.6,11.4,108.6,-53.1,-128.7,-336.3,90.6,-296.4,-345.0,110.4,56.4,-993.0,-1175.7,-501.0,120.6,-6.9,-5.7,-182.4,-1472.4,-0.9,-43.2,-540.3,-76.2,0,2352,0,113,0, 
1.3100,-40.2,-319.8,6.3,101.7,-57.9,-135.3,-336.3,87.0,-518.7,-346.5,101.1,50.1,-998.4,-1186.8,-513.9,100.2,-7.5,-6.0,-191.1,-1476.3,-0.3,-43.8,-547.2,-78.9,0,2358,0,114,0, 
1.3133,-35.1,-320.1,-1.8,95.7,-66.0,-141.9,-342.9,83.7,-518.7,-357.0,96.3,44.7,-997.8,-1166.1,-489.6,103.2,-6.6,-5.4,-197.1,-1482.6,-0.6,-52.5,-552.9,-86.7,0,2364,0,115,0, 
1.3167,-36.9,-321.9,-3.0,94.5,-67.2,-143.7,-341.1,83.7,-666.9,-360.9,97.5,42.3,-999.3,-1182.6,-501.3,108.6,-7.2,-6.0,-198.0,-1485.6,0.0,-51.3,-548.4,-90.0,0,2370,0,116,0, 
1.3200,-39.0,-323.4,-6.3,91.5,-67.5,-139.5,-331.5,87.0,-444.6,-355.8,99.0,43.8,-999.9,-1201.8,-512.1,138.9,-6.3,-5.7,-195.3,-1484.4,-0.3,-52.8,-535.8,-87.0,0,2376,0,117,0, 
1.3233,-44.7,-326.1,-7.8,87.0,-77.7,-148.2,-340.5,76.2,-444.6,-357.6,94.8,41.1,-1002.3,-1191.6,-513.9,110.1,-6.9,-6.3,-200.7,-1483.5,-0.6,-55.8,-539.1,-93.3,0,2382,0,118,0, 
1.3267,-39.6,-324.6,-2.7,91.8,-70.8,-145.5,-338.4,80.4,-592.8,-351.9,101.4,45.3,-1000.2,-1182.3,-509.7,105.3,-6.9,-5.7,-194.4,-1478.1,-0.6,-47.7,-542.7,-89.4,0,2388,0,119,0, 
1.3300,-35.7,-325.2,-8.4,82.2,-79.5,-153.6,-341.7,78.3,-592.8,-360.0,91.5,35.7,-1001.7,-1171.5,-493.2,109.2,-6.9,-6.0,-201.9,-1489.5,-0.3,-57.6,-544.8,-94.5,0,2394,0,120,0, 
1.3333,-31.8,-320.1,-3.0,89.1,-67.8,-148.5,-334.5,80.4,-518.7,-347.7,97.8,44.1,-997.2,-1167.6,-497.4,105.9,-6.9,-5.7,-194.7,-1479.3,-0.3,-45.6,-545.4,-88.5,0,2400,0,121,0, 
1.3367,-32.4,-317.4,1.8,95.1,-62.7,-147.3,-331.8,79.8,-444.6,-344.1,104.1,49.5,-991.8,-1154.1,-494.7,98.7,-6.9,-5.7,-187.8,-1477.5,-0.9,-47.4,-540.0,-87.3,0,2406,0,122,0, 
1.3400,-25.2,-316.5,4.8,97.2,-60.9,-141.3,-327.3,79.8,-370.5,-345.9,105.0,51.9,-989.1,-1148.7,-485.4,120.6,-6.6,-5.7,-184.8,-1472.4,-0.6,-46.5,-535.2,-84.3,0,2412,0,123,0, 
1.3433,-29.1,-311.1,12.3,102.6,-53.7,-138.9,-328.8,89.4,-444.6,-336.3,113.1,56.7,-985.2,-1157.7,-504.9,117.0,-6.9,-5.7,-178.8,-1467.9,-0.6,-35.7,-529.8,-77.1,0,2418,0,124,0, 
1.3467,-25.8,-308.4,17.1,109.2,-50.1,-132.0,-327.0,90.3,-592.8,-332.4,122.1,63.6,-980.4,-1158.0,-500.4,112.8,-6.6,-6.0,-170.7,-1462.2,-1.2,-27.6,-528.0,-73.2,0,2424,0,125,0, 
1.3500,-32.1,-311.4,10.8,103.5,-58.5,-138.9,-326.4,87.6,-444.6,-341.4,118.8,57.0,-984.9,-1155.0,-498.3,112.8,-6.6,-5.7,-175.8,-1471.5,-0.6,-38.1,-537.6,-80.7,0,2430,0,126,0, 
1.3533,-32.1,-313.2,8.1,101.7,-58.5,-138.0,-333.3,84.3,-370.5,-335.7,118.5,60.3,-984.9,-1163.1,-509.1,100.8,-6.9,-6.3,-174.9,-1468.2,-0.6,-33.9,-529.8,-79.8,0,2436,0,127,0, 
1.3567,-34.5,-322.2,-8.4,90.0,-68.7,-150.9,-332.7,75.9,-444.6,-358.8,98.4,42.9,-993.6,-1152.3,-490.8,117.0,-6.3,-5.7,-193.2,-1483.2,-0.6,-56.1,-544.5,-91.2,0,2442,0,128,0, 
1.3600,-27.0,-317.1,-8.4,92.7,-69.3,-153.0,-334.2,79.5,-444.6,-359.4,94.8,45.0,-985.5,-1139.1,-478.5,113.1,-7.2,-6.0,-197.7,-1477.5,-0.6,-56.7,-544.8,-93.6,0,2448,0,129,0, 
1.3633,-28.5,-311.4,9.9,101.1,-57.9,-141.9,-327.3,89.1,-741.0,-345.0,110.4,57.9,-983.4,-1164.3,-503.4,105.0,-6.6,-6.0,-187.5,-1467.6,-0.6,-47.1,-537.3,-83.4,0,2454,0,130,0, 
1.3667,-37.8,-312.6,4.5,101.1,-59.1,-142.5,-327.6,86.1,-518.7,-345.0,104.7,54.6,-990.6,-1173.0,-517.2,111.0,-6.9,-5.7,-190.2,-1472.7,-0.9,-49.5,-535.2,-85.8,0,2460,0,131,0, 
1.3700,-37.5,-315.9,0.3,101.4,-60.0,-140.7,-324.6,85.2,-444.6,-346.2,104.1,56.1,-994.8,-1184.1,-523.2,109.5,-6.9,-5.7,-187.2,-1470.6,-0.9,-52.5,-534.0,-80.7,0,2466,0,132,0, 
1.3733,-37.5,-319.8,-2.7,97.2,-61.5,-143.4,-328.8,84.3,-370.5,-350.1,106.2,55.2,-995.4,-1178.1,-511.2,111.3,-6.6,-5.4,-186.6,-1473.0,-0.9,-47.4,-541.2,-84.9,0,2472,0,133,0, 
1.3767,-43.2,-324.3,-7.5,92.7,-67.2,-148.2,-325.5,79.8,-444.6,-361.5,106.2,51.0,-1003.2,-1188.6,-516.0,119.4,-6.9,-5.7,-194.4,-1475.7,-0.9,-58.2,-543.6,-90.0,0,2478,0,134,0, 
1.3800,-38.4,-321.6,-2.4,95.1,-60.9,-146.4,-332.1,80.4,-518.7,-350.4,109.2,53.4,-999.9,-1174.8,-507.0,102.0,-6.9,-6.0,-189.9,-1474.8,-0.9,-51.3,-543.6,-88.2,0,2484,0,135,0, 
1.3833,-43.5,-324.6,-10.2,90.0,-66.3,-147.9,-333.0,73.5,-518.7,-363.3,95.4,46.8,-1002.9,-1170.3,-506.4,111.3,-6.6,-6.0,-200.4,-1481.7,-0.6,-61.2,-541.2,-89.7,0,2490,0,136,0, 
1.3867,-40.2,-318.9,4.8,104.1,-52.8,-139.2,-331.2,84.6,-444.6,-346.2,107.1,62.4,-996.3,-1185.0,-524.7,107.4,-7.2,-5.4,-192.0,-1473.3,-0.9,-43.5,-530.7,-79.8,0,2496,0,137,0, 
1.3900,-40.5,-321.9,0.9,99.9,-57.0,-144.0,-329.4,81.6,-370.5,-353.7,107.1,57.6,-1000.2,-1179.9,-514.2,105.9,-6.6,-6.0,-197.7,-1476.6,-0.6,-54.0,-534.9,-82.5,0,2502,0,138,0, 
1.3933,-42.3,-329.4,-3.9,93.9,-62.4,-145.5,-324.3,81.6,-444.6,-359.4,101.1,53.1,-1008.0,-1192.2,-514.8,137.4,-6.9,-5.7,-198.0,-1482.0,-0.6,-58.8,-541.5,-88.2,0,2508,0,139,0, 
1.3967,-32.4,-314.1,4.5,109.2,-50.1,-136.8,-324.6,89.7,-518.7,-345.3,112.2,65.1,-992.7,-1175.7,-511.2,99.3,-6.3,-5.7,-186.6,-1466.4,-0.6,-40.2,-529.5,-74.1,0,2514,0,140,0, 
1.4000,-27.9,-315.6,5.1,108.0,-51.9,-140.1,-318.3,86.1,-666.9,-348.3,112.5,60.9,-990.9,-1170.3,-501.6,113.4,-7.2,-5.7,-186.6,-1466.7,-0.9,-46.5,-534.0,-77.7,0,2520,0,141,0, 
1.4033,-28.8,-319.2,5.7,105.6,-50.1,-136.8,-318.6,87.6,-370.5,-351.3,113.1,63.9,-997.2,-1174.8,-510.0,107.1,-6.9,-6.3,-186.6,-1465.5,-0.6,-41.1,-533.1,-75.9,0,2526,0,142,0, 
1.4067,-41.1,-330.0,-10.5,92.7,-65.4,-146.1,-329.1,76.2,-518.7,-371.4,95.4,45.6,-1011.0,-1179.6,-509.4,115.5,-6.9,-6.0,-203.7,-1481.4,-0.9,-57.9,-543.3,-89.7,0,2532,0,143,0, 
1.4100,-41.4,-329.4,-9.0,96.0,-60.3,-141.9,-323.1,82.8,-444.6,-364.2,95.1,48.6,-1010.4,-1194.9,-520.2,120.0,-7.2,-6.3,-201.0,-1479.9,-0.6,-56.4,-538.2,-84.9,0,2538,0,144,0, 
1.4133,-37.8,-323.1,-0.3,96.6,-61.5,-144.0,-326.7,80.7,-518.7,-369.0,88.5,44.1,-1007.1,-1182.3,-509.4,102.0,-6.6,-5.7,-206.1,-1484.4,-0.9,-57.3,-540.9,-85.5,0,2544,0,145,0, 
1.4167,-30.0,-318.9,-0.3,103.8,-56.7,-137.7,-322.8,87.3,-592.8,-358.5,97.5,49.5,-1002.6,-1170.6,-507.6,101.7,-6.6,-6.0,-198.3,-1479.6,-0.6,-51.6,-546.0,-84.6,0,2550,0,146,0, 
1.4200,-31.2,-318.6,-1.2,100.2,-56.7,-137.7,-321.0,84.0,-444.6,-361.2,101.7,51.9,-1001.7,-1164.9,-510.0,99.6,-6.9,-5.7,-195.6,-1475.4,-0.9,-53.4,-538.8,-81.3,0,2556,0,147,0, 
1.4233,-42.6,-326.7,-6.9,97.5,-61.8,-137.1,-318.3,83.1,-370.5,-363.6,96.0,48.3,-1008.9,-1187.7,-515.1,111.6,-6.9,-6.3,-201.0,-1479.9,-0.6,-55.5,-536.7,-83.1,0,2562,0,148,0, 
1.4267,-37.5,-325.5,-1.8,101.1,-57.0,-134.1,-317.1,86.4,-444.6,-357.3,103.8,51.3,-1007.7,-1188.0,-517.2,115.5,-6.6,-5.7,-192.6,-1473.9,-0.6,-51.3,-535.8,-79.2,0,2568,0,149,0, 
1.4300,-35.7,-324.6,-6.6,100.5,-60.3,-133.5,-319.8,87.9,-666.9,-359.1,102.3,51.3,-1011.6,-1182.6,-509.1,128.1,-7.2,-6.0,-191.7,-1479.0,-0.9,-52.2,-528.3,-79.2,0,2574,0,150,0, 
1.4333,-39.9,-324.0,-4.2,100.2,-59.7,-137.1,-320.1,81.3,-444.6,-362.4,100.8,52.2,-1013.4,-1185.3,-515.7,109.2,-6.9,-5.7,-195.6,-1472.1,-0.6,-53.7,-530.7,-81.9,0,2580,0,151,0, 
1.4367,-37.5,-318.6,1.2,107.4,-51.3,-132.3,-318.3,89.4,-444.6,-351.0,110.4,63.6,-1006.8,-1184.4,-515.1,104.7,-6.6,-5.4,-189.6,-1464.6,-0.3,-46.8,-526.8,-75.0,0,2586,0,152,0, 
1.4400,-39.6,-323.7,-7.2,99.3,-60.0,-136.8,-322.8,83.1,-444.6,-358.5,96.9,52.2,-1005.6,-1175.4,-511.8,116.4,-6.6,-6.0,-199.5,-1473.6,-0.9,-56.7,-528.9,-80.1,0,2592,0,153,0, 
1.4433,-41.1,-325.5,-12.3,93.3,-62.1,-140.4,-324.0,75.6,-444.6,-366.9,91.2,49.8,-1012.5,-1181.4,-502.2,133.2,-6.9,-6.0,-203.7,-1476.3,-0.3,-57.0,-530.4,-80.7,0,2598,0,154,0, 
1.4467,-27.0,-312.9,-3.0,105.0,-52.5,-132.9,-315.0,83.1,-444.6,-356.1,107.1,61.8,-995.1,-1150.8,-482.7,120.0,-6.6,-6.0,-193.8,-1461.6,-0.6,-49.8,-532.5,-76.2,0,2604,0,155,0, 
1.4500,-31.8,-315.0,2.7,111.9,-45.6,-128.4,-312.9,84.6,-666.9,-347.4,114.0,67.5,-994.8,-1166.1,-507.6,128.1,-6.9,-6.0,-183.9,-1456.2,-0.6,-40.8,-523.8,-69.3,0,2610,0,156,0, 
1.4533,-29.1,-309.6,8.4,115.8,-42.3,-123.3,-313.5,85.8,-444.6,-332.4,121.5,75.3,-991.2,-1169.4,-501.6,121.5,-6.9,-5.7,-175.2,-1445.4,-0.9,-28.2,-525.0,-62.4,0,2616,0,157,0, 
1.4567,-32.7,-313.2,1.2,108.6,-48.0,-131.4,-319.8,84.9,-444.6,-341.1,116.1,70.2,-997.8,-1164.3,-495.0,133.5,-6.9,-6.0,-179.1,-1454.1,-0.3,-37.5,-525.9,-68.1,0,2622,0,158,0, 
1.4600,-30.3,-306.3,10.8,116.1,-40.2,-129.9,-314.1,84.6,-444.6,-332.1,126.6,75.6,-987.6,-1164.6,-505.2,123.0,-6.9,-5.7,-166.8,-1446.3,-0.9,-33.3,-521.7,-63.6,0,2628,0,159,0, 
1.4633,-26.4,-300.9,15.6,121.8,-37.5,-125.1,-309.0,88.5,-592.8,-327.9,124.5,78.3,-981.9,-1157.4,-499.8,128.4,-6.9,-5.4,-163.5,-1445.4,-0.6,-27.9,-516.3,-59.1,0,2634,0,160,0, 
1.4667,-36.0,-307.5,9.0,117.6,-42.6,-129.9,-317.1,85.8,-518.7,-342.0,112.8,69.6,-994.5,-1161.6,-494.4,149.4,-7.2,-5.7,-176.7,-1454.4,-0.6,-43.2,-520.8,-63.6,0,2640,0,161,0, 
1.4700,-31.8,-303.9,17.4,125.4,-35.1,-125.7,-317.4,89.4,-370.5,-328.2,126.6,76.5,-986.7,-1160.1,-507.0,120.3,-6.3,-6.0,-164.1,-1447.8,-0.6,-33.3,-523.2,-60.3,0,2646,0,162,0, 
1.4733,-31.8,-304.5,17.7,127.2,-34.2,-123.3,-313.2,85.8,-370.5,-330.0,132.9,80.1,-988.5,-1170.0,-507.9,124.5,-6.6,-5.7,-159.6,-1446.0,-0.6,-30.0,-521.1,-65.4,0,2652,0,163,0, 
1.4767,-25.2,-299.4,20.4,126.6,-32.1,-122.7,-318.6,93.0,-444.6,-329.4,130.5,80.7,-975.0,-1143.6,-497.1,105.9,-7.2,-5.4,-163.5,-1441.2,-0.9,-31.5,-516.3,-61.5,0,2658,0,164,0, 
1.4800,-35.1,-310.5,2.1,117.0,-46.8,-133.5,-318.3,79.8,-444.6,-339.0,117.6,65.1,-984.9,-1165.2,-493.5,130.8,-6.9,-5.7,-175.2,-1451.4,-0.9,-47.1,-525.0,-69.0,0,2664,0,165,0, 
1.4833,-28.5,-305.1,15.9,117.9,-44.1,-126.0,-315.6,87.6,-444.6,-335.7,124.8,70.2,-982.8,-1151.1,-488.4,129.9,-7.2,-6.0,-173.1,-1452.0,-0.6,-39.0,-523.5,-62.7,0,2670,0,166,0, 
1.4867,-31.2,-300.0,19.5,122.1,-35.7,-120.3,-312.9,94.5,-444.6,-329.4,129.9,79.2,-982.5,-1169.4,-503.7,136.8,-6.6,-5.7,-166.5,-1440.6,-1.2,-29.1,-520.8,-56.7,0,2676,0,167,0, 
1.4900,-28.2,-303.9,9.6,117.9,-46.2,-128.4,-317.1,87.3,-444.6,-341.7,117.6,65.7,-986.4,-1158.9,-491.1,136.8,-6.6,-6.0,-175.2,-1451.7,-0.9,-38.7,-524.1,-64.8,0,2682,0,168,0, 
1.4933,-33.6,-301.5,13.8,120.0,-40.8,-126.6,-316.2,90.0,-444.6,-330.0,123.9,72.9,-982.8,-1166.1,-504.6,120.3,-7.2,-5.7,-170.1,-1447.2,-0.6,-34.2,-526.8,-65.4,0,2688,0,169,0, 
1.4967,-29.4,-301.8,9.0,114.3,-44.4,-129.9,-314.1,85.2,-592.8,-346.2,117.9,67.8,-990.3,-1167.3,-492.9,132.9,-7.2,-6.3,-177.0,-1450.2,-0.6,-35.7,-520.8,-65.1,0,2694,0,170,0, 
1.5000,-33.0,-308.1,3.9,108.9,-46.8,-129.9,-312.9,85.5,-444.6,-352.5,111.9,66.9,-990.6,-1161.3,-498.0,139.2,-6.9,-6.0,-182.4,-1453.2,-0.3,-39.6,-530.4,-70.5,0,2700,0,171,0, 
1.5033,-27.9,-301.2,12.3,117.3,-39.3,-126.3,-313.2,88.5,-518.7,-340.2,124.5,74.7,-982.5,-1164.3,-498.6,129.9,-6.6,-6.0,-172.2,-1446.9,-0.9,-30.3,-527.4,-63.3,0,2706,0,172,0, 
1.5067,-29.1,-299.4,12.3,116.7,-39.3,-126.9,-314.4,92.1,-370.5,-339.0,121.2,77.4,-979.8,-1158.0,-499.2,108.3,-6.9,-6.0,-172.8,-1441.8,-0.9,-24.0,-528.0,-60.6,0,2712,0,173,0, 
1.5100,-34.2,-308.7,2.4,108.3,-48.0,-132.0,-316.2,81.9,-370.5,-351.6,110.1,69.9,-992.1,-1170.9,-497.4,137.1,-7.2,-6.0,-182.7,-1449.9,-0.6,-37.8,-525.0,-67.8,0,2718,0,174,0, 
1.5133,-36.6,-309.3,1.5,105.0,-53.1,-135.3,-321.6,75.6,-518.7,-354.6,108.3,67.8,-993.6,-1168.2,-492.3,129.3,-6.6,-5.7,-184.2,-1447.5,-0.3,-39.9,-529.8,-72.3,0,2724,0,175,0, 
1.5167,-28.5,-307.2,-0.9,104.1,-52.5,-135.9,-322.5,75.9,-518.7,-352.5,113.4,69.9,-987.6,-1159.2,-487.5,126.0,-7.2,-6.0,-181.5,-1447.5,-0.9,-45.9,-536.4,-72.6,0,2730,0,176,0, 
1.5200,-34.5,-310.5,-2.1,102.6,-53.7,-136.2,-318.0,75.0,-370.5,-348.6,111.9,66.0,-993.3,-1181.1,-507.9,132.9,-6.9,-6.0,-187.8,-1450.8,-0.3,-50.1,-543.3,-77.1,0,2736,0,177,0, 
1.5233,-35.1,-312.6,-0.6,102.6,-54.6,-138.6,-318.0,75.6,-444.6,-352.5,112.5,62.7,-998.1,-1182.3,-501.6,125.4,-6.6,-6.0,-187.2,-1457.1,-0.9,-55.8,-535.8,-76.5,0,2742,0,178,0, 
1.5267,-34.2,-311.1,-0.3,104.7,-52.5,-138.9,-316.5,78.3,-444.6,-348.6,113.4,63.6,-991.5,-1167.0,-496.8,113.7,-6.9,-6.0,-182.1,-1454.1,-0.3,-51.0,-540.3,-75.6,0,2748,0,179,0, 
1.5300,-33.3,-309.6,6.3,112.2,-44.1,-128.7,-309.0,85.8,-518.7,-343.5,116.4,68.7,-994.8,-1181.4,-505.8,126.3,-6.6,-6.3,-178.2,-1449.9,-0.9,-45.9,-530.4,-68.1,0,2754,0,180,0, 
1.5333,-31.8,-302.7,7.5,116.1,-38.4,-126.3,-312.3,85.2,-518.7,-336.3,119.4,74.4,-989.4,-1188.3,-518.4,117.6,-6.9,-6.3,-179.4,-1442.1,-0.9,-34.5,-529.2,-63.3,0,2760,0,181,0, 
1.5367,-36.6,-311.7,-0.9,111.6,-45.0,-129.0,-318.3,84.3,-592.8,-341.1,116.4,69.6,-995.4,-1201.8,-509.1,123.0,-6.9,-6.3,-182.4,-1446.9,-0.6,-43.2,-531.0,-67.8,0,2766,0,182,0, 
1.5400,-33.6,-307.2,-1.2,108.6,-47.7,-132.3,-320.7,82.8,-444.6,-342.3,113.7,69.3,-993.3,-1189.2,-497.1,122.7,-7.2,-6.0,-183.0,-1449.6,-0.9,-43.5,-533.7,-66.9,0,2772,0,183,0, 
1.5433,-38.1,-309.6,-5.4,110.1,-44.4,-132.3,-321.9,84.3,-444.6,-344.7,115.8,69.9,-992.7,-1183.8,-500.4,113.4,-6.9,-5.7,-181.8,-1451.7,-1.2,-44.1,-525.3,-67.5,0,2778,0,184,0, 
1.5467,-40.8,-317.1,-4.2,107.4,-48.6,-135.3,-324.3,76.5,-518.7,-346.5,115.2,69.3,-998.7,-1193.1,-508.2,127.8,-6.9,-5.7,-185.4,-1454.4,-0.3,-40.8,-531.3,-66.3,0,2784,0,185,0, 
1.5500,-42.0,-317.7,-3.9,104.4,-50.1,-134.7,-323.7,73.2,-518.7,-350.1,112.8,63.9,-1003.2,-1199.1,-512.1,144.9,-6.6,-5.7,-190.5,-1455.3,-0.6,-47.4,-531.0,-69.0,0,2790,0,186,0, 
1.5533,-36.3,-312.3,-10.2,100.8,-56.1,-139.5,-327.3,72.6,-444.6,-345.6,108.0,60.0,-995.4,-1181.7,-500.1,104.7,-6.9,-5.7,-187.2,-1457.4,-0.6,-49.8,-541.8,-73.5,0,2796,0,187,0, 
1.5567,-37.8,-307.8,-0.3,107.7,-54.3,-132.3,-321.6,78.9,-296.4,-333.9,114.9,61.8,-991.8,-1189.5,-513.6,110.7,-7.2,-5.7,-179.7,-1462.8,-0.9,-43.8,-527.7,-70.5,0,2802,0,188,0, 
1.5600,-42.3,-312.6,-6.0,100.8,-57.0,-138.3,-324.0,76.5,-592.8,-343.8,97.8,51.6,-996.9,-1194.6,-516.3,112.5,-6.6,-6.0,-194.4,-1469.1,-0.9,-53.1,-536.1,-74.1,0,2808,0,189,0, 
1.5633,-42.9,-308.4,-2.1,109.2,-48.3,-129.3,-318.0,82.5,-444.6,-334.8,114.6,72.3,-994.2,-1195.5,-520.2,126.3,-6.6,-5.4,-184.2,-1441.2,-0.9,-35.1,-526.2,-66.9,0,2814,0,190,0, 
1.5667,-38.7,-306.0,3.9,116.4,-43.8,-125.4,-316.2,80.1,-666.9,-333.6,121.5,80.7,-991.8,-1195.2,-513.0,123.6,-6.9,-6.0,-178.2,-1432.5,-0.9,-35.4,-525.6,-58.8,0,2820,0,191,0, 
1.5700,-38.7,-304.8,0.3,111.6,-46.5,-129.6,-317.4,77.1,-370.5,-334.5,114.6,78.3,-989.7,-1188.6,-504.9,129.6,-6.9,-5.7,-182.1,-1428.3,-0.3,-39.6,-521.7,-61.2,0,2826,0,192,0, 
1.5733,-46.8,-312.6,-7.5,107.1,-51.0,-133.2,-320.7,72.0,-518.7,-344.4,108.0,73.5,-1001.7,-1198.2,-506.7,136.2,-6.6,-5.7,-192.9,-1431.3,-0.6,-41.7,-526.8,-65.4,0,2832,0,193,0, 
1.5767,-45.9,-315.6,-9.6,104.4,-49.5,-137.7,-327.6,70.2,-518.7,-352.5,98.1,68.7,-1002.9,-1193.7,-501.0,138.3,-6.9,-5.7,-204.0,-1430.4,-0.3,-48.3,-531.6,-69.9,0,2838,0,194,0, 
1.5800,-37.2,-308.7,-1.2,113.7,-42.9,-135.0,-324.0,79.2,-592.8,-353.4,109.2,76.2,-997.5,-1182.3,-490.8,130.5,-6.9,-6.0,-201.0,-1420.8,-0.3,-48.3,-524.4,-63.9,0,2844,0,195,0, 
1.5833,-34.8,-297.9,9.3,132.6,-25.5,-117.6,-316.8,91.2,-592.8,-326.1,125.4,98.1,-985.8,-1205.7,-517.2,111.3,-6.6,-6.0,-185.7,-1396.2,-0.6,-24.3,-526.2,-48.0,0,2850,0,196,0, 
1.5867,-42.6,-306.9,0.9,123.3,-31.2,-120.0,-314.7,81.9,-370.5,-335.4,121.2,94.2,-998.1,-1208.4,-516.0,121.8,-7.2,-6.3,-193.8,-1394.7,-0.6,-24.0,-524.7,-51.3,0,2856,0,197,0, 
1.5900,-45.6,-319.5,-14.4,112.5,-45.3,-129.6,-318.0,69.0,-444.6,-352.2,93.6,77.7,-1004.4,-1214.4,-503.7,141.3,-6.9,-6.3,-217.2,-1407.3,-1.2,-43.5,-523.5,-61.8,0,2862,0,198,0, 
1.5933,-42.3,-317.1,-10.8,109.8,-43.5,-129.9,-322.2,71.1,-370.5,-352.8,95.1,75.0,-1001.1,-1197.9,-505.5,113.4,-6.9,-6.0,-218.1,-1403.4,-0.3,-37.8,-535.5,-63.6,0,2868,0,199,0, 
1.5967,-37.8,-312.9,-8.7,117.6,-40.2,-126.0,-315.3,78.6,-666.9,-355.8,98.4,81.0,-995.7,-1185.0,-495.0,120.9,-6.9,-6.0,-216.9,-1395.9,-0.9,-33.0,-524.4,-57.3,0,2874,0,200,0, 
1.6000,-42.9,-316.8,-11.1,116.1,-42.0,-126.3,-315.9,75.6,-444.6,-350.1,94.5,77.7,-1003.5,-1204.2,-503.1,136.5,-6.9,-6.3,-221.1,-1397.4,-0.6,-33.6,-528.3,-57.3,0,2880,0,201,0, 
1.6033,-29.4,-306.0,-2.4,123.6,-32.7,-121.2,-314.4,84.6,-518.7,-338.4,105.0,84.3,-982.5,-1174.2,-492.3,102.3,-6.6,-5.7,-209.1,-1393.8,-1.2,-24.9,-524.1,-52.5,0,2886,0,202,0, 
1.6067,-33.0,-303.6,2.1,129.0,-29.4,-120.6,-313.2,87.3,-444.6,-336.0,107.7,85.2,-987.6,-1188.6,-494.7,126.9,-7.5,-5.7,-206.7,-1391.1,-0.3,-24.6,-522.0,-52.5,0,2892,0,203,0, 
1.6100,-34.2,-302.1,1.5,129.9,-31.2,-122.1,-310.2,86.4,-444.6,-332.1,108.9,83.1,-984.6,-1185.9,-503.1,129.0,-6.6,-5.7,-206.7,-1392.9,-0.6,-25.2,-523.5,-51.3,0,2898,0,204,0, 
1.6133,-38.7,-312.9,-10.8,122.7,-39.9,-129.3,-318.0,80.7,-741.0,-344.1,98.4,74.7,-998.4,-1207.8,-501.3,138.6,-7.2,-5.7,-216.0,-1399.5,-0.3,-32.1,-527.4,-58.5,0,2904,0,205,0, 
1.6167,-34.8,-304.8,-8.4,124.2,-37.8,-133.2,-319.8,80.4,-518.7,-340.5,104.1,80.7,-990.3,-1188.9,-494.4,124.2,-7.2,-5.7,-211.2,-1397.7,-0.3,-29.4,-528.0,-62.1,0,2910,0,206,0, 
1.6200,-38.7,-304.8,1.5,125.1,-31.2,-130.5,-318.9,85.5,-518.7,-331.5,107.4,85.5,-987.3,-1199.1,-514.8,121.5,-6.9,-5.7,-206.4,-1391.4,-0.6,-22.5,-529.5,-56.7,0,2916,0,207,0, 
1.6233,-40.2,-308.1,-8.4,122.7,-39.0,-134.1,-319.2,81.3,-296.4,-336.6,101.1,79.8,-993.0,-1201.2,-508.2,113.7,-6.6,-6.0,-213.3,-1396.5,-0.3,-22.5,-528.3,-55.5,0,2922,0,208,0, 
1.6267,-38.1,-309.3,-9.0,120.0,-39.6,-132.9,-318.9,82.5,-518.7,-339.6,101.1,76.8,-991.5,-1186.8,-495.3,119.7,-6.9,-6.0,-214.2,-1401.9,-0.9,-26.4,-527.4,-57.6,0,2928,0,209,0, 
1.6300,-35.7,-305.4,-3.3,127.2,-37.5,-129.3,-315.3,84.6,-370.5,-329.4,106.8,81.9,-993.6,-1187.4,-493.2,115.8,-6.3,-5.7,-205.2,-1396.8,-0.3,-23.4,-528.9,-58.2,0,2934,0,210,0, 
1.6333,-35.1,-308.4,-8.1,121.2,-46.8,-131.7,-320.7,81.6,-592.8,-337.8,98.4,75.0,-1001.4,-1182.6,-493.8,125.4,-6.6,-6.0,-215.1,-1402.5,-1.2,-29.7,-525.9,-60.0,0,2940,0,211,0, 
1.6367,-37.8,-312.3,-10.2,116.4,-48.3,-132.3,-321.3,80.7,-592.8,-343.2,96.6,76.8,-1006.8,-1191.0,-496.8,128.4,-7.2,-6.0,-216.0,-1401.0,-0.6,-29.4,-526.5,-63.9,0,2946,0,212,0, 
1.6400,-34.5,-314.4,-12.6,114.0,-50.1,-137.1,-320.4,78.3,-370.5,-347.4,89.7,72.0,-1002.3,-1184.7,-482.7,133.2,-6.6,-6.0,-222.0,-1406.4,-0.3,-40.5,-527.4,-66.9,0,2952,0,213,0, 
1.6433,-29.4,-307.2,-6.9,120.3,-42.6,-129.6,-310.2,83.1,-518.7,-345.3,100.5,74.7,-999.3,-1190.4,-480.0,138.0,-6.9,-6.3,-219.9,-1401.9,-0.9,-32.4,-521.1,-58.5,0,2958,0,214,0, 
1.6467,-32.1,-306.6,-4.5,123.9,-31.8,-119.7,-306.9,85.5,-741.0,-339.0,108.9,80.1,-1003.5,-1214.4,-508.2,139.8,-7.2,-6.3,-211.2,-1394.4,-0.6,-17.1,-511.8,-45.3,0,2964,0,215,0, 
1.6500,-30.3,-304.8,-4.2,124.5,-35.7,-122.4,-314.1,82.8,-518.7,-342.0,99.3,79.2,-1000.5,-1186.2,-499.8,135.6,-6.9,-5.7,-215.4,-1399.5,-0.6,-30.9,-521.1,-53.7,0,2970,0,216,0, 
1.6533,-30.3,-304.5,-1.2,128.7,-30.0,-117.6,-312.6,85.5,-444.6,-341.1,98.4,79.5,-997.2,-1180.2,-497.7,128.7,-6.3,-5.7,-217.8,-1397.4,-0.6,-26.1,-520.8,-52.2,0,2976,0,217,0, 
1.6567,-26.1,-300.0,5.1,134.1,-23.7,-111.3,-308.1,93.3,-370.5,-328.8,108.6,92.7,-993.3,-1186.8,-503.4,122.1,-7.2,-5.7,-208.8,-1384.8,-1.2,-16.5,-514.2,-44.1,0,2982,0,218,0, 
1.6600,-21.6,-302.1,9.6,135.0,-17.4,-110.7,-307.2,93.9,-518.7,-337.8,111.3,91.2,-994.8,-1185.6,-491.4,123.6,-7.2,-5.7,-212.1,-1384.2,-0.3,-18.0,-513.9,-46.2,0,2988,0,219,0, 
1.6633,-25.5,-305.1,3.9,131.7,-23.7,-115.5,-312.6,93.9,-592.8,-338.1,104.4,86.1,-999.0,-1186.5,-495.0,121.8,-6.9,-5.7,-213.6,-1388.7,-0.9,-24.9,-528.0,-51.6,0,2994,0,220,0, 
1.6667,-24.9,-304.2,6.3,129.0,-24.0,-116.4,-313.8,91.5,-592.8,-334.8,107.7,89.1,-997.8,-1189.2,-495.6,115.5,-6.9,-5.7,-209.7,-1391.4,-0.6,-24.9,-527.1,-53.7,0,3000,0,221,0, 
1.6700,-27.0,-312.6,-5.1,117.0,-36.3,-124.8,-311.4,84.3,-518.7,-345.0,93.9,75.3,-1004.4,-1190.1,-498.9,126.0,-6.6,-5.7,-222.3,-1406.4,-0.6,-37.5,-531.3,-64.8,0,3006,0,222,0, 
1.6733,-34.8,-318.6,-10.5,111.0,-40.2,-129.3,-313.5,80.7,-370.5,-355.5,89.7,66.9,-1005.6,-1196.7,-507.0,117.3,-6.9,-5.4,-228.0,-1414.2,-0.6,-42.3,-536.4,-72.0,0,3012,0,223,0, 
1.6767,-35.7,-319.2,-9.6,114.6,-39.0,-129.0,-315.3,78.3,-444.6,-352.8,96.6,68.7,-1001.1,-1203.9,-510.3,116.1,-6.9,-6.0,-223.2,-1411.2,-0.6,-39.6,-529.5,-68.7,0,3018,0,224,0, 
1.6800,-24.6,-313.5,-3.3,115.5,-37.5,-126.3,-314.4,81.9,-518.7,-345.6,96.0,70.5,-996.0,-1182.6,-497.7,118.8,-7.2,-6.0,-222.3,-1410.3,-0.3,-36.6,-531.0,-67.8,0,3024,0,225,0, 
1.6833,-27.9,-317.7,-8.7,113.4,-37.5,-130.8,-317.4,81.6,-592.8,-347.4,91.8,68.7,-999.9,-1188.3,-499.8,122.1,-6.9,-6.0,-224.7,-1412.1,-1.2,-38.1,-526.5,-69.0,0,3030,0,226,0, 
1.6867,-30.6,-321.9,-12.9,106.5,-42.0,-133.2,-320.4,74.7,-444.6,-350.4,87.9,66.3,-1002.9,-1194.3,-492.6,126.0,-6.9,-6.0,-228.3,-1414.8,-0.9,-39.3,-529.5,-73.2,0,3036,0,227,0, 
1.6900,-30.3,-317.4,-4.8,106.8,-36.9,-128.7,-317.7,75.0,-444.6,-341.4,95.1,71.7,-993.6,-1177.8,-495.6,113.1,-6.6,-5.7,-220.2,-1410.3,-0.6,-30.6,-524.1,-68.4,0,3042,0,228,0, 
1.6933,-28.5,-322.8,-16.5,102.0,-36.0,-127.8,-318.6,77.1,-666.9,-348.0,91.2,70.2,-997.8,-1177.8,-489.9,123.6,-6.9,-5.7,-225.9,-1413.0,-0.9,-28.2,-522.6,-64.8,0,3048,0,229,0, 
1.6967,-27.9,-320.1,-5.1,107.4,-32.7,-127.5,-317.4,76.5,-592.8,-344.7,90.6,68.7,-994.8,-1174.8,-488.4,126.3,-7.2,-6.0,-226.2,-1412.1,-0.9,-27.6,-526.8,-67.2,0,3054,0,230,0, 
1.7000,-29.7,-323.7,-6.3,108.0,-31.8,-129.6,-320.1,74.7,-518.7,-339.6,96.9,74.1,-988.2,-1168.8,-495.0,115.2,-6.6,-6.0,-221.1,-1410.6,-0.9,-22.5,-525.9,-64.2,0,3060,0,231,0, 
1.7033,-27.0,-323.7,-6.6,112.5,-34.5,-129.0,-312.6,78.0,-518.7,-338.7,95.7,74.1,-991.2,-1164.0,-495.3,108.3,-6.9,-5.7,-224.7,-1416.3,-0.6,-27.6,-525.0,-62.4,0,3066,0,232,0, 
1.7067,-25.5,-323.1,-3.3,114.6,-33.6,-127.2,-312.3,75.9,-296.4,-343.5,98.1,74.1,-991.2,-1166.1,-493.2,120.9,-6.6,-5.4,-224.4,-1411.2,-0.9,-24.0,-524.4,-57.0,0,3072,0,233,0, 
1.7100,-21.9,-318.9,4.2,117.9,-24.9,-121.2,-312.6,83.1,-592.8,-332.1,102.9,81.6,-984.6,-1167.6,-491.4,116.7,-6.6,-6.0,-215.4,-1402.5,-0.9,-21.9,-525.0,-54.0,0,3078,0,234,0, 
1.7133,-20.1,-314.4,9.3,122.1,-20.7,-115.8,-314.1,84.0,-370.5,-331.8,110.7,86.4,-982.5,-1165.8,-490.2,112.5,-6.9,-6.3,-212.4,-1399.8,-0.9,-14.7,-518.4,-48.6,0,3084,0,235,0, 
1.7167,-24.9,-319.8,7.5,120.3,-22.2,-118.5,-315.6,81.3,-518.7,-338.1,105.6,83.1,-986.4,-1170.9,-488.7,117.9,-7.5,-6.0,-222.3,-1402.5,-0.6,-18.3,-515.7,-49.2,0,3090,0,236,0, 
1.7200,-29.4,-327.9,4.2,115.2,-28.2,-124.8,-320.4,75.0,-444.6,-349.5,94.5,76.2,-995.7,-1180.8,-496.5,115.8,-6.9,-6.0,-226.2,-1407.3,-0.6,-23.7,-516.6,-54.0,0,3096,0,237,0, 
1.7233,-36.3,-329.7,2.7,115.5,-27.3,-125.4,-318.9,76.2,-370.5,-342.0,98.1,78.0,-996.0,-1198.5,-507.0,115.2,-6.9,-5.7,-224.4,-1406.4,-0.9,-27.0,-520.2,-54.9,0,3102,0,238,0, 
1.7267,-36.0,-330.9,1.2,119.1,-27.0,-126.3,-315.0,72.3,-444.6,-341.4,101.1,79.2,-996.0,-1200.3,-508.5,116.1,-6.9,-6.0,-221.1,-1406.1,-0.9,-23.4,-533.7,-55.5,0,3108,0,239,0, 
1.7300,-36.6,-331.8,-4.2,114.0,-24.9,-125.1,-316.5,74.1,-592.8,-342.6,101.1,78.0,-992.4,-1195.2,-495.3,118.5,-7.2,-6.0,-222.0,-1405.8,-1.2,-23.1,-530.1,-54.9,0,3114,0,240,0, 
1.7333,-34.2,-327.3,-4.2,111.9,-27.6,-125.4,-310.5,78.3,-666.9,-340.8,99.3,79.2,-986.4,-1187.1,-496.5,108.0,-6.6,-6.0,-217.5,-1400.4,-0.9,-15.9,-528.9,-55.5,0,3120,0,241,0, 
1.7367,-29.1,-319.8,4.5,118.8,-21.3,-121.8,-311.4,82.5,-444.6,-333.6,107.1,80.4,-978.3,-1185.0,-500.7,78.9,-6.6,-6.0,-214.2,-1400.7,-0.6,-10.5,-525.3,-52.5,0,3126,0,242,0, 
1.7400,-36.3,-334.5,-8.7,107.7,-32.7,-130.8,-318.6,77.7,-370.5,-344.4,90.0,70.8,-986.7,-1207.2,-499.2,107.4,-6.9,-5.4,-228.6,-1411.8,-0.9,-28.8,-532.2,-61.5,0,3132,0,243,0, 
1.7433,-36.0,-331.2,-5.1,109.5,-28.2,-130.5,-317.4,76.2,-370.5,-341.7,95.4,72.0,-985.2,-1191.6,-504.0,94.8,-7.2,-5.7,-225.3,-1411.2,-0.3,-24.9,-531.3,-58.5,0,3138,0,244,0, 
1.7467,-35.1,-329.4,0.3,114.6,-26.7,-131.7,-319.8,77.7,-666.9,-339.3,89.1,69.6,-984.9,-1188.0,-501.6,86.7,-6.9,-5.7,-222.9,-1415.7,-0.6,-20.4,-533.7,-60.9,0,3144,0,245,0, 
1.7500,-33.3,-334.8,-12.3,103.2,-34.2,-135.6,-325.2,73.5,-518.7,-348.0,87.6,66.0,-991.8,-1186.8,-496.2,96.0,-6.9,-6.0,-225.6,-1417.8,-0.9,-31.8,-536.7,-63.3,0,3150,0,246,0, 
1.7533,-37.5,-330.6,0.3,109.5,-26.4,-123.0,-314.7,77.7,-444.6,-336.3,95.1,75.0,-990.3,-1197.6,-514.2,105.3,-6.9,-5.7,-219.9,-1408.5,-1.2,-18.6,-523.2,-54.3,0,3156,0,247,0, 
1.7567,-33.3,-330.6,0.0,107.7,-30.0,-122.7,-310.2,79.5,-370.5,-338.7,96.0,73.2,-992.7,-1192.2,-501.0,110.7,-6.9,-5.7,-221.4,-1408.8,-0.6,-14.4,-521.7,-52.5,0,3162,0,248,0, 
1.7600,-26.1,-324.0,4.8,114.9,-27.6,-120.0,-315.6,85.5,-444.6,-339.3,101.1,77.4,-986.7,-1188.6,-494.7,106.5,-6.9,-5.7,-215.4,-1404.0,-0.6,-15.6,-516.0,-51.3,0,3168,0,249,0, 
1.7633,-31.2,-332.4,-0.9,107.7,-32.4,-126.9,-309.6,79.8,-592.8,-346.2,100.2,74.7,-990.9,-1197.3,-498.0,132.3,-6.3,-6.0,-219.9,-1404.9,-0.9,-21.9,-516.3,-54.0,0,3174,0,250,0, 
1.7667,-26.4,-315.0,17.4,126.9,-10.5,-109.2,-305.1,96.6,-518.7,-321.6,121.2,95.1,-975.6,-1185.6,-510.0,100.2,-6.6,-5.4,-197.4,-1384.8,-1.2,3.9,-507.6,-35.4,0,3180,0,251,0, 
1.7700,-26.1,-324.6,6.9,120.0,-18.3,-117.0,-311.4,88.8,-444.6,-332.4,108.6,84.3,-980.1,-1183.2,-502.2,91.2,-6.9,-5.7,-207.0,-1394.4,-0.9,-9.0,-516.0,-43.5,0,3186,0,252,0, 
1.7733,-28.8,-324.9,8.4,121.5,-17.4,-113.4,-305.1,91.5,-518.7,-331.8,107.7,88.8,-981.9,-1188.0,-504.0,107.4,-6.9,-6.0,-207.0,-1392.0,-1.2,-2.1,-512.1,-41.4,0,3192,0,253,0, 
1.7767,-27.6,-326.7,4.8,119.1,-18.3,-116.4,-304.5,85.8,-444.6,-333.3,108.0,84.6,-984.6,-1201.2,-498.6,118.2,-6.6,-6.0,-212.7,-1396.8,-0.6,-9.6,-511.8,-42.6,0,3198,0,254,0, 
1.7800,-25.5,-329.4,-0.3,115.2,-19.5,-117.9,-303.0,86.7,-518.7,-339.9,100.5,80.4,-984.0,-1195.2,-495.0,117.6,-7.2,-5.4,-221.1,-1400.4,-0.9,-10.2,-515.4,-47.7,0,3204,0,255,0, 
1.7833,-38.4,-340.2,-12.0,98.4,-32.7,-128.1,-319.2,72.9,-518.7,-357.0,84.9,65.7,-998.4,-1195.5,-494.7,119.4,-6.9,-6.0,-237.0,-1413.3,-0.6,-24.9,-525.0,-59.7,0,3210,0,0,0, 
1.7867,-39.0,-343.5,-16.5,93.0,-37.2,-133.5,-317.1,67.5,-666.9,-363.0,76.5,60.6,-1003.8,-1199.1,-497.7,130.5,-7.2,-6.0,-241.2,-1419.0,-0.9,-34.8,-534.9,-65.1,0,3216,0,1,0, 
1.7900,-35.7,-334.2,-3.9,102.3,-30.9,-128.7,-321.6,72.0,-370.5,-353.7,82.5,66.6,-998.1,-1196.4,-505.8,111.0,-7.2,-6.0,-235.2,-1412.1,-0.9,-30.0,-538.5,-61.2,0,3222,0,2,0, 
1.7933,-26.7,-326.1,8.1,118.5,-12.3,-117.3,-308.7,81.0,-518.7,-336.6,106.5,85.8,-983.1,-1189.8,-501.9,112.8,-6.9,-5.7,-212.4,-1393.8,-0.6,-13.2,-525.6,-51.9,0,3228,0,3,0, 
1.7967,-27.0,-327.9,6.0,115.5,-19.8,-123.0,-315.0,74.4,-370.5,-350.4,104.7,80.7,-988.5,-1192.5,-494.4,113.7,-6.9,-5.7,-218.1,-1403.4,-0.6,-23.4,-540.3,-62.1,0,3234,0,4,0, 
1.8000,-30.6,-335.7,0.6,111.0,-24.9,-129.0,-311.7,73.5,-666.9,-352.5,99.6,74.4,-990.9,-1199.7,-496.2,126.9,-6.9,-5.7,-225.9,-1407.3,-0.6,-31.2,-536.7,-65.1,0,3240,0,5,0, 
1.8033,-24.6,-326.7,11.4,122.4,-12.3,-117.3,-318.0,79.8,-370.5,-335.7,114.3,91.5,-985.8,-1194.3,-506.4,103.8,-6.6,-6.3,-207.6,-1385.4,-1.2,-11.1,-526.2,-49.8,0,3246,0,6,0, 
1.8067,-25.8,-326.1,9.0,120.9,-9.6,-114.6,-315.0,88.2,-296.4,-333.3,118.2,94.5,-984.0,-1194.9,-499.8,104.7,-6.9,-6.0,-205.2,-1386.0,-0.3,-11.4,-528.6,-46.8,0,3252,0,7,0, 
1.8100,-18.0,-323.1,15.9,126.0,-9.9,-111.6,-308.1,88.8,-444.6,-336.0,113.4,93.0,-979.5,-1189.5,-493.2,111.0,-7.2,-5.7,-207.9,-1386.3,-0.9,-9.9,-520.8,-42.0,0,3258,0,8,0, 
1.8133,-24.0,-329.4,3.3,111.3,-19.2,-122.7,-318.3,84.6,-592.8,-344.4,104.7,81.3,-990.0,-1187.4,-489.9,118.2,-6.6,-6.0,-219.6,-1401.0,-0.6,-25.2,-533.1,-54.3,0,3264,0,9,0, 
1.8167,-22.5,-330.9,0.6,111.0,-20.1,-124.5,-320.7,79.8,-518.7,-344.4,106.2,80.1,-985.5,-1179.9,-486.9,115.5,-6.9,-5.7,-223.2,-1402.8,-0.9,-28.2,-532.5,-55.2,0,3270,0,10,0, 
1.8200,-24.0,-327.0,2.7,118.5,-10.8,-115.5,-302.4,87.9,-444.6,-336.9,108.6,87.3,-986.4,-1186.2,-497.7,136.5,-6.3,-5.1,-214.2,-1395.6,-0.6,-19.2,-521.1,-47.1,0,3276,0,11,0, 
1.8233,-21.9,-324.6,3.3,119.7,-9.6,-114.0,-302.1,87.9,-444.6,-335.1,110.4,85.8,-983.4,-1190.1,-502.8,132.0,-6.9,-5.7,-210.9,-1396.8,-0.3,-15.3,-520.2,-43.8,0,3282,0,12,0, 
1.8267,-15.6,-317.1,4.8,120.3,-12.6,-115.2,-306.6,88.8,-444.6,-337.2,105.6,81.0,-980.4,-1170.6,-488.7,117.9,-6.6,-6.0,-219.0,-1405.5,-0.3,-11.1,-519.0,-46.8,0,3288,0,13,0, 
1.8300,-16.8,-323.1,-0.3,112.5,-23.7,-123.3,-308.7,83.7,-666.9,-350.7,84.9,66.9,-982.2,-1157.4,-467.7,132.9,-6.9,-5.7,-233.7,-1417.8,-0.3,-25.8,-525.9,-54.6,0,3294,0,14,0, 
1.8333,-21.9,-315.6,9.6,124.8,-8.1,-106.5,-304.2,96.0,-592.8,-321.9,114.6,97.8,-974.1,-1170.6,-480.6,141.6,-6.9,-6.0,-204.9,-1379.4,-0.6,1.5,-510.6,-37.2,0,3300,0,15,0, 
1.8367,-19.5,-310.8,20.7,135.3,-1.5,-97.5,-291.0,102.9,-518.7,-303.3,123.0,100.2,-964.5,-1187.4,-506.1,149.1,-7.2,-5.7,-192.3,-1378.2,-0.3,18.3,-500.1,-24.3,0,3306,0,16,0, 
1.8400,-24.3,-312.6,18.3,129.6,-3.0,-98.4,-295.8,99.9,-296.4,-298.2,113.1,96.3,-966.6,-1182.0,-494.1,148.8,-6.9,-6.0,-197.1,-1374.9,-0.9,21.3,-501.3,-22.8,0,3312,0,17,0, 
1.8433,-26.1,-315.6,13.8,127.2,-10.8,-106.2,-296.4,96.6,-370.5,-306.6,109.5,85.8,-971.1,-1182.6,-486.9,151.2,-6.9,-6.3,-201.6,-1383.3,0.0,21.3,-499.8,-30.6,0,3318,0,18,0, 
1.8467,-26.1,-319.8,0.6,117.6,-19.8,-111.0,-304.2,92.7,-666.9,-317.4,75.6,54.9,-978.0,-1194.0,-493.2,144.9,-7.2,-6.0,-231.6,-1411.5,-0.6,3.6,-511.5,-36.6,0,3324,0,19,0, 
1.8500,-18.6,-315.0,9.6,124.2,-14.1,-107.4,-301.2,98.1,-518.7,-309.9,80.1,61.2,-971.4,-1171.5,-475.2,151.2,-6.9,-5.4,-222.6,-1403.7,-0.9,20.4,-502.8,-30.3,0,3330,0,20,0, 
1.8533,-14.1,-311.7,10.8,124.2,-10.2,-107.4,-304.5,94.8,-518.7,-303.0,90.3,69.6,-967.5,-1160.7,-468.9,146.4,-6.6,-5.7,-215.1,-1390.2,-0.6,29.1,-501.9,-22.5,0,3336,0,21,0, 
1.8567,-21.9,-316.8,5.7,117.6,-20.1,-110.4,-303.0,89.7,-370.5,-307.8,75.6,58.2,-974.1,-1177.5,-487.2,159.0,-7.2,-6.0,-224.7,-1401.0,-0.9,21.6,-497.4,-30.9,0,3342,0,22,0, 
1.8600,-18.0,-306.9,12.3,124.8,-17.7,-103.2,-300.9,96.6,-296.4,-293.7,71.1,57.6,-966.6,-1179.6,-500.1,136.8,-6.6,-5.4,-223.2,-1398.6,-0.6,31.5,-502.8,-19.2,0,3348,0,23,0, 
1.8633,-9.9,-300.6,14.1,131.4,-11.4,-101.4,-301.5,99.6,-518.7,-288.0,88.5,67.8,-954.9,-1153.5,-480.0,123.6,-6.6,-5.7,-206.1,-1386.3,-0.9,44.7,-493.8,-12.3,0,3354,0,24,0, 
1.8667,-20.4,-312.9,7.5,116.4,-26.4,-112.5,-306.3,85.5,-518.7,-305.7,67.8,54.9,-971.4,-1165.5,-478.5,156.0,-6.6,-5.7,-224.7,-1396.2,-0.6,18.0,-500.4,-26.1,0,3360,0,25,0, 
1.8700,-15.6,-307.2,13.2,124.2,-21.9,-108.3,-304.2,93.6,-444.6,-296.1,74.7,57.0,-964.5,-1164.9,-489.0,145.2,-6.6,-6.0,-216.6,-1397.1,-0.6,24.6,-503.7,-24.9,0,3366,0,26,0, 
1.8733,-14.1,-309.6,5.7,117.9,-28.2,-112.5,-305.1,91.2,-370.5,-303.9,72.0,53.1,-965.4,-1155.9,-481.8,138.6,-6.6,-6.3,-223.2,-1402.5,-0.6,18.6,-498.6,-27.9,0,3372,0,27,0, 
1.8767,-18.0,-313.5,3.0,116.1,-28.8,-113.7,-308.7,91.2,-518.7,-304.5,69.6,51.0,-974.4,-1180.8,-489.0,140.4,-7.5,-6.0,-222.3,-1400.7,-0.3,23.1,-508.2,-29.7,0,3378,0,28,0, 
1.8800,-15.6,-316.8,-3.6,108.9,-35.7,-121.2,-316.2,85.8,-592.8,-318.3,60.3,40.8,-978.3,-1166.4,-476.1,151.2,-6.9,-6.3,-234.6,-1413.0,-0.6,2.4,-514.8,-40.5,0,3384,0,29,0, 
1.8833,-13.8,-312.0,4.8,118.5,-27.0,-114.0,-317.1,86.7,-518.7,-314.1,65.1,45.3,-975.3,-1167.9,-482.4,138.0,-6.6,-6.0,-229.8,-1412.1,-0.6,13.5,-515.1,-34.2,0,3390,0,30,0, 
1.8867,-19.2,-315.6,-0.9,112.8,-34.2,-117.6,-313.5,84.3,-592.8,-320.7,57.3,39.3,-984.0,-1173.3,-485.7,161.7,-6.9,-5.4,-240.0,-1414.2,-0.3,2.1,-515.4,-39.0,0,3396,0,31,0, 
1.8900,-10.5,-307.8,12.3,128.4,-20.1,-106.2,-305.7,96.6,-518.7,-302.7,76.8,54.9,-973.5,-1168.2,-489.0,143.1,-6.9,-5.4,-222.3,-1398.9,-0.9,21.0,-505.5,-27.3,0,3402,0,32,0, 
1.8933,-6.6,-308.1,9.3,124.8,-21.3,-111.0,-309.6,91.5,-518.7,-310.5,70.2,48.0,-971.4,-1146.0,-475.5,141.3,-6.9,-6.0,-226.5,-1405.8,-0.9,11.1,-504.6,-32.1,0,3408,0,33,0, 
1.8967,-8.1,-308.4,12.0,127.2,-18.0,-110.1,-311.7,93.0,-518.7,-309.6,69.0,48.3,-974.4,-1152.6,-471.3,148.8,-6.6,-6.0,-228.0,-1407.9,-0.6,15.0,-502.2,-32.4,0,3414,0,34,0, 
1.9000,-12.6,-303.3,13.8,130.2,-15.0,-101.4,-310.8,94.8,-518.7,-306.9,73.2,57.0,-970.8,-1168.2,-486.6,143.4,-6.9,-6.0,-222.9,-1401.0,-0.3,15.6,-504.3,-24.6,0,3420,0,35,0, 
1.9033,-17.7,-304.2,18.9,129.6,-10.5,-99.9,-306.3,97.8,-444.6,-302.7,78.6,58.8,-971.1,-1183.2,-495.0,150.9,-6.9,-6.0,-218.7,-1392.0,-0.3,19.2,-498.6,-22.5,0,3426,0,36,0, 
1.9067,-10.5,-300.6,23.7,139.5,-5.7,-93.6,-300.9,104.1,-444.6,-293.4,87.9,65.4,-965.4,-1175.1,-485.1,157.8,-6.6,-6.0,-210.6,-1387.8,-0.9,21.3,-499.2,-21.0,0,3432,0,37,0, 
1.9100,-14.1,-302.1,18.6,137.1,-8.7,-99.3,-308.1,101.4,-518.7,-301.8,76.2,61.8,-966.3,-1177.2,-481.5,161.1,-6.9,-6.0,-216.3,-1395.0,-0.6,17.1,-493.2,-23.4,0,3438,0,38,0, 
1.9133,-10.2,-301.5,27.6,142.8,-6.6,-97.5,-306.9,105.0,-518.7,-305.1,78.6,63.0,-966.0,-1179.3,-476.7,159.6,-6.6,-6.0,-217.8,-1392.3,-0.6,15.9,-503.7,-25.8,0,3444,0,39,0, 
1.9167,-13.8,-306.6,21.0,139.5,-8.7,-99.6,-305.4,102.6,-518.7,-310.2,75.6,62.7,-969.9,-1181.4,-478.5,177.3,-6.9,-6.0,-219.9,-1393.2,-0.3,14.1,-499.5,-29.1,0,3450,0,40,0, 
1.9200,-0.6,-295.5,32.1,150.9,1.8,-88.2,-294.0,114.9,-592.8,-299.1,87.6,74.1,-959.7,-1162.2,-470.4,156.3,-7.2,-6.0,-210.0,-1382.7,-0.6,29.1,-497.4,-17.1,0,3456,0,41,0, 
1.9233,-10.5,-302.4,20.1,144.0,-7.8,-98.1,-300.3,108.6,-370.5,-305.7,78.6,64.2,-973.2,-1166.4,-476.7,160.2,-7.2,-6.3,-218.1,-1392.0,-0.3,17.1,-498.6,-25.5,0,3462,0,42,0, 
1.9267,-6.3,-302.4,20.7,139.2,-8.1,-100.8,-301.8,103.8,-518.7,-308.1,74.1,63.0,-972.6,-1158.6,-470.4,166.5,-6.9,-5.7,-221.7,-1394.7,-0.6,15.6,-501.0,-27.6,0,3468,0,43,0, 
1.9300,-9.6,-301.2,22.2,143.7,-5.7,-99.9,-312.0,102.9,-666.9,-303.0,80.1,65.1,-969.3,-1156.8,-485.7,125.4,-7.2,-6.0,-215.7,-1389.3,-0.3,21.3,-503.4,-25.8,0,3474,0,44,0, 
1.9333,-12.0,-307.2,15.6,137.1,-15.3,-104.4,-314.1,98.1,-666.9,-309.0,68.4,53.1,-976.2,-1165.5,-480.6,132.6,-6.6,-5.4,-225.9,-1401.6,-0.9,5.4,-512.1,-36.9,0,3480,0,45,0, 
1.9367,-18.0,-315.6,9.9,127.8,-25.5,-114.6,-318.9,91.2,-518.7,-319.5,59.7,42.3,-986.7,-1180.2,-489.0,147.6,-6.9,-5.4,-234.0,-1412.4,-0.9,2.7,-513.9,-42.3,0,3486,0,46,0, 
1.9400,-11.7,-311.7,11.4,128.7,-21.0,-108.6,-309.6,99.3,-518.7,-318.0,60.6,45.0,-982.2,-1169.7,-482.4,132.0,-6.9,-5.7,-232.2,-1411.2,-0.3,6.6,-515.7,-37.5,0,3492,0,47,0, 
1.9433,-14.7,-320.1,0.3,118.8,-30.0,-120.0,-318.9,92.1,-518.7,-325.2,52.2,33.0,-989.7,-1168.2,-471.9,130.2,-6.6,-5.7,-241.5,-1419.3,-0.6,-9.0,-521.1,-47.1,0,3498,0,48,0, 
1.9467,-19.2,-323.4,-1.8,119.1,-27.0,-117.9,-312.9,90.6,-444.6,-329.7,46.2,30.0,-994.2,-1185.3,-483.9,140.7,-7.2,-6.0,-243.9,-1422.0,0.0,-8.4,-519.0,-46.5,0,3504,0,49,0, 
1.9500,-22.2,-323.1,3.6,121.5,-25.2,-118.5,-314.7,90.9,-518.7,-326.4,52.5,32.1,-994.2,-1187.1,-495.3,145.2,-6.9,-6.0,-238.8,-1423.2,-0.6,-6.6,-517.8,-42.9,0,3510,0,50,0, 
1.9533,-20.7,-321.3,6.6,120.6,-23.7,-117.9,-310.5,91.5,-518.7,-324.6,59.1,33.0,-990.6,-1171.8,-485.4,130.8,-6.6,-6.0,-239.4,-1423.2,-0.6,-6.6,-524.4,-43.8,0,3516,0,51,0, 
1.9567,-16.2,-320.4,-0.3,122.4,-20.1,-114.3,-308.4,95.7,-370.5,-321.0,60.0,36.6,-985.5,-1165.5,-479.7,147.6,-6.9,-6.0,-239.1,-1418.1,-1.2,-2.7,-517.5,-43.8,0,3522,0,52,0, 
1.9600,-18.3,-320.7,2.1,117.9,-28.2,-117.6,-312.9,91.2,-518.7,-327.6,51.6,28.2,-987.3,-1167.3,-470.7,159.6,-7.2,-6.0,-246.6,-1426.2,-0.9,-11.7,-522.0,-49.8,0,3528,0,53,0, 
1.9633,-13.5,-310.8,11.7,126.9,-13.8,-108.9,-309.3,94.8,-592.8,-314.1,63.3,42.9,-970.5,-1158.6,-474.9,138.6,-6.9,-5.7,-236.7,-1411.2,-0.9,3.0,-519.0,-40.8,0,3534,0,54,0, 
1.9667,-13.8,-306.3,12.6,134.1,-8.1,-101.4,-309.6,100.8,-518.7,-304.8,71.7,52.2,-973.5,-1167.0,-487.8,142.5,-7.2,-6.0,-227.1,-1402.5,-0.6,9.6,-511.2,-36.3,0,3540,0,55,0, 
1.9700,-17.7,-312.3,4.8,129.0,-15.9,-105.3,-306.6,96.6,-592.8,-309.0,66.9,47.7,-982.2,-1172.7,-497.4,156.9,-6.9,-5.7,-234.0,-1410.3,-0.3,2.7,-506.4,-39.0,0,3546,0,56,0, 
1.9733,-12.3,-310.2,7.8,128.7,-14.7,-106.5,-310.5,96.0,-296.4,-308.4,69.0,51.0,-978.9,-1157.7,-479.7,146.1,-6.9,-6.0,-230.7,-1405.8,-0.3,10.8,-506.4,-39.0,0,3552,0,57,0, 
1.9767,-18.6,-314.4,4.5,124.8,-16.5,-108.9,-301.2,94.8,-444.6,-319.2,60.6,42.6,-986.4,-1173.9,-487.2,151.2,-6.6,-5.7,-237.0,-1410.6,-0.3,7.5,-510.0,-41.1,0,3558,0,58,0, 
1.9800,-13.8,-313.5,6.0,126.0,-15.6,-109.2,-311.7,96.3,-666.9,-312.9,60.6,43.5,-986.4,-1163.1,-489.3,134.1,-6.6,-6.0,-233.4,-1411.2,-0.9,3.6,-513.0,-39.0,0,3564,0,59,0, 
1.9833,-16.2,-310.8,8.4,127.5,-11.1,-108.3,-307.5,99.0,-592.8,-314.1,66.0,48.9,-988.5,-1170.9,-492.9,137.1,-6.6,-5.7,-231.3,-1405.8,-1.2,5.4,-509.1,-40.2,0,3570,0,60,0, 
1.9867,-27.0,-321.9,4.2,120.6,-18.0,-114.6,-303.9,91.5,-518.7,-323.1,59.4,39.0,-999.6,-1191.3,-498.6,156.9,-6.6,-6.0,-240.3,-1418.4,0.0,-3.0,-509.4,-44.1,0,3576,0,61,0, 
1.9900,-30.3,-325.2,3.6,117.3,-25.5,-118.8,-311.1,87.9,-444.6,-327.6,54.3,33.6,-1000.8,-1191.0,-502.5,147.6,-6.9,-5.7,-247.8,-1422.0,-0.6,-4.8,-511.2,-46.8,0,3582,0,62,0, 
1.9933,-19.2,-316.5,9.3,126.9,-17.7,-110.1,-309.6,95.7,-444.6,-315.3,61.5,42.3,-988.8,-1171.2,-485.7,131.4,-6.9,-6.0,-239.1,-1412.4,-0.6,-0.6,-507.9,-39.9,0,3588,0,63,0, 
1.9967,-18.3,-315.9,7.8,124.2,-21.6,-116.7,-312.6,93.9,-666.9,-316.2,61.8,38.1,-993.3,-1174.2,-489.9,130.5,-6.9,-5.7,-240.3,-1417.5,-0.6,-3.3,-510.3,-44.7,0,3594,0,64,0, 
2.0000,-10.8,-308.4,16.8,135.0,-15.0,-107.7,-309.3,104.1,-444.6,-306.0,68.4,48.6,-981.9,-1169.7,-488.1,123.3,-6.9,-6.3,-234.3,-1408.8,-0.9,4.5,-508.2,-35.4,0,3600,0,65,0, 
2.0033,-18.3,-318.3,8.4,125.4,-18.3,-115.5,-316.8,92.1,-296.4,-315.0,60.9,39.3,-986.4,-1172.1,-496.8,119.1,-6.6,-6.3,-241.5,-1419.3,-0.6,-4.2,-510.6,-41.7,0,3606,0,66,0, 
2.0067,-23.7,-318.3,10.5,125.7,-18.9,-110.1,-316.5,95.4,-444.6,-316.2,59.4,42.9,-987.9,-1185.6,-502.2,125.1,-6.9,-6.0,-239.1,-1415.7,-0.6,1.2,-505.8,-40.2,0,3612,0,67,0, 
2.0100,-23.1,-319.5,4.5,117.3,-24.0,-119.4,-320.1,92.4,-518.7,-326.1,49.5,33.0,-991.5,-1177.5,-488.4,138.3,-6.9,-6.3,-249.0,-1420.5,-0.3,-9.6,-516.9,-49.2,0,3618,0,68,0, 
2.0133,-21.9,-318.3,10.2,125.7,-16.8,-112.8,-316.2,98.1,-815.1,-314.7,66.3,43.5,-989.4,-1185.3,-494.1,133.5,-6.9,-6.3,-236.1,-1409.4,-0.6,3.6,-510.9,-42.3,0,3624,0,69,0, 
2.0167,-19.5,-318.3,10.5,120.9,-21.0,-114.6,-314.7,90.6,-592.8,-324.3,61.5,39.3,-992.7,-1187.7,-486.3,144.0,-7.2,-5.7,-238.5,-1416.9,0.0,-3.3,-511.5,-46.2,0,3630,0,70,0, 
2.0200,-16.8,-314.7,15.0,122.1,-22.5,-117.6,-313.5,93.9,-592.8,-318.0,60.6,41.1,-990.9,-1179.9,-487.5,133.5,-6.9,-6.3,-240.3,-1415.1,-0.3,-1.2,-510.6,-43.5,0,3636,0,71,0, 
2.0233,-18.3,-319.8,8.4,119.7,-28.2,-124.5,-315.6,86.1,-444.6,-325.5,57.3,35.1,-995.7,-1180.8,-488.4,130.5,-6.9,-5.7,-243.9,-1422.6,-0.9,-8.7,-519.9,-52.5,0,3642,0,72,0, 
2.0267,-15.9,-317.4,7.2,117.3,-28.5,-123.6,-313.8,88.5,-518.7,-325.5,50.1,30.6,-993.6,-1176.0,-480.6,135.0,-6.9,-5.7,-247.2,-1426.2,-0.6,-9.0,-520.2,-51.9,0,3648,0,73,0, 
2.0300,-16.8,-323.4,1.5,110.7,-32.7,-126.9,-315.0,83.1,-592.8,-332.1,46.2,24.3,-999.3,-1182.0,-482.7,141.9,-6.6,-5.4,-254.7,-1425.3,-0.3,-14.1,-523.2,-53.1,0,3654,0,74,0, 
2.0333,-18.3,-318.6,9.3,117.3,-27.9,-117.3,-311.7,86.1,-666.9,-318.0,54.3,39.0,-990.9,-1178.1,-484.8,132.9,-6.6,-6.0,-242.4,-1415.1,-0.9,-3.9,-517.5,-48.0,0,3660,0,75,0, 
2.0367,-17.1,-318.6,5.1,111.3,-30.9,-120.9,-312.9,86.1,-592.8,-330.6,46.2,28.8,-997.2,-1178.1,-478.5,155.4,-6.9,-5.4,-249.6,-1425.0,-0.6,-15.3,-513.0,-51.9,0,3666,0,76,0, 
2.0400,-14.7,-311.1,13.5,120.6,-19.2,-108.9,-306.6,91.2,-370.5,-312.6,60.3,45.9,-985.8,-1184.4,-484.2,138.9,-6.6,-6.0,-237.9,-1406.4,-0.9,5.4,-505.8,-38.7,0,3672,0,77,0, 
2.0433,-17.1,-317.7,2.4,112.2,-26.1,-116.4,-311.4,89.4,-444.6,-318.6,52.8,34.8,-988.2,-1182.0,-486.0,138.3,-6.6,-6.0,-243.6,-1419.6,-0.3,-5.7,-511.8,-43.2,0,3678,0,78,0, 
2.0467,-14.4,-318.6,3.0,116.4,-24.3,-114.9,-310.5,92.1,-518.7,-322.8,52.8,37.5,-985.8,-1168.2,-477.0,145.8,-6.6,-6.0,-245.7,-1416.0,-0.6,0.0,-509.4,-43.5,0,3684,0,79,0, 
2.0500,-19.8,-317.4,8.1,124.5,-18.3,-110.7,-306.9,91.5,-592.8,-310.8,61.8,41.4,-984.9,-1185.3,-495.0,148.8,-6.9,-5.7,-238.8,-1413.6,-0.6,8.7,-501.9,-37.2,0,3690,0,80,0, 
2.0533,-22.5,-324.6,-0.9,113.1,-27.0,-124.5,-318.3,79.8,-444.6,-324.0,53.1,32.4,-995.1,-1183.5,-483.9,142.2,-6.9,-6.0,-247.2,-1423.2,-1.2,-4.8,-509.1,-43.2,0,3696,0,81,0, 
2.0567,-23.1,-325.5,-0.6,111.9,-29.1,-122.7,-312.9,80.4,-518.7,-320.7,50.4,32.1,-997.5,-1194.9,-495.9,160.2,-6.9,-5.7,-248.1,-1422.6,-0.9,-5.4,-505.2,-45.0,0,3702,0,82,0, 
2.0600,-25.8,-319.5,5.7,113.4,-28.5,-122.4,-310.8,83.4,-518.7,-311.4,56.7,35.1,-993.9,-1185.3,-495.6,136.8,-6.9,-6.0,-240.9,-1419.9,-0.6,3.6,-505.5,-46.5,0,3708,0,83,0, 
2.0633,-21.3,-319.5,9.3,116.7,-24.9,-123.6,-304.8,84.9,-592.8,-309.3,57.3,36.9,-996.9,-1186.2,-495.3,136.5,-6.9,-6.0,-240.3,-1417.5,-0.6,-0.9,-510.0,-42.0,0,3714,0,84,0, 
2.0667,-27.6,-332.4,-6.9,105.0,-39.6,-135.9,-320.4,75.9,-666.9,-328.5,42.6,23.1,-1005.0,-1186.8,-476.4,162.9,-7.2,-5.7,-255.3,-1431.9,-0.6,-18.0,-510.3,-56.1,0,3720,0,85,0, 
2.0700,-25.8,-326.1,-5.1,105.9,-36.3,-132.0,-312.0,81.9,-592.8,-326.7,42.6,20.1,-998.4,-1175.4,-479.4,162.9,-6.6,-6.0,-255.9,-1436.4,-0.3,-15.9,-505.5,-52.2,0,3726,0,86,0, 
2.0733,-19.5,-321.3,1.8,109.5,-28.5,-124.5,-312.9,81.9,-370.5,-310.5,54.9,34.2,-990.0,-1173.3,-490.2,132.0,-7.2,-5.7,-242.7,-1422.3,-0.9,5.4,-501.3,-42.6,0,3732,0,87,0, 
2.0767,-24.6,-324.6,-11.4,100.5,-34.8,-129.3,-309.3,75.3,-518.7,-320.4,49.2,28.5,-996.0,-1176.6,-485.1,159.6,-6.9,-6.0,-247.5,-1425.3,-0.9,-6.0,-499.8,-45.3,0,3738,0,88,0, 
2.0800,-25.2,-327.3,-9.6,95.4,-39.9,-136.8,-321.3,69.6,-666.9,-327.3,38.7,20.7,-998.4,-1177.8,-484.8,134.7,-6.9,-5.7,-255.3,-1431.6,-0.6,-8.4,-513.6,-51.3,0,3744,0,89,0, 
2.0833,-20.7,-323.1,-2.7,105.9,-31.2,-122.1,-308.7,81.3,-592.8,-321.3,41.7,32.4,-996.3,-1178.7,-487.5,135.3,-6.9,-6.0,-249.3,-1420.2,-0.9,1.8,-499.2,-40.2,0,3750,0,90,0, 
2.0867,-22.5,-325.8,-3.3,107.4,-32.1,-124.8,-308.4,80.1,-444.6,-319.5,48.3,31.2,-999.3,-1189.5,-496.5,141.3,-7.2,-6.0,-243.9,-1422.0,-0.3,-0.9,-496.8,-42.3,0,3756,0,91,0, 
2.0900,-21.6,-322.8,-4.2,108.3,-28.5,-126.0,-311.4,74.7,-296.4,-320.4,51.9,33.0,-997.2,-1187.1,-479.7,150.6,-6.9,-5.7,-242.1,-1422.9,-0.6,-1.5,-502.2,-45.9,0,3762,0,92,0, 
2.0933,-24.6,-325.8,-6.0,109.5,-31.2,-125.1,-312.9,75.6,-518.7,-322.5,51.3,30.3,-1005.3,-1198.8,-494.4,153.6,-6.9,-6.3,-246.6,-1425.0,-0.6,-6.9,-496.8,-44.7,0,3768,0,93,0, 
2.0967,-29.7,-328.8,-3.9,107.7,-30.9,-129.6,-315.9,73.2,-592.8,-321.3,50.4,29.4,-1007.1,-1200.3,-495.9,158.4,-7.5,-6.0,-248.4,-1425.9,-0.6,-5.1,-498.3,-45.6,0,3774,0,94,0, 
2.1000,-30.3,-330.3,-9.9,105.6,-33.9,-132.6,-310.8,69.3,-518.7,-333.9,47.1,29.4,-1008.0,-1199.7,-489.9,156.0,-6.9,-5.7,-253.2,-1423.8,-0.6,-9.9,-503.4,-52.5,0,3780,0,95,0, 
2.1033,-29.4,-323.7,-0.6,111.9,-28.8,-125.7,-307.8,71.4,-518.7,-321.0,53.4,36.3,-999.6,-1200.9,-494.1,151.5,-6.6,-5.7,-244.5,-1419.6,-0.6,-4.2,-495.3,-43.2,0,3786,0,96,0, 
2.1067,-26.1,-322.8,-0.6,113.7,-28.5,-125.4,-310.2,73.5,-444.6,-317.1,55.5,37.8,-998.4,-1190.7,-488.4,144.3,-7.2,-5.7,-241.8,-1416.0,-0.9,-0.3,-500.1,-42.6,0,3792,0,97,0, 
2.1100,-24.3,-322.2,2.1,115.2,-27.6,-122.1,-307.2,74.4,-370.5,-318.9,60.3,41.7,-999.3,-1191.6,-486.0,154.8,-6.9,-6.0,-239.7,-1415.1,-0.6,1.2,-497.4,-36.9,0,3798,0,98,0, 
2.1133,-27.6,-326.1,-3.9,114.9,-26.4,-123.0,-307.2,72.3,-518.7,-318.6,57.3,42.0,-999.6,-1184.1,-486.0,147.3,-7.2,-6.3,-243.0,-1416.0,-0.6,3.0,-500.7,-37.2,0,3804,0,99,0, 
2.1167,-24.0,-325.5,-3.6,114.9,-33.0,-126.6,-306.3,73.2,-666.9,-324.0,52.5,33.9,-1001.7,-1188.9,-489.9,145.5,-6.9,-6.3,-247.8,-1424.1,-0.6,-1.8,-503.1,-39.9,0,3810,0,100,0, 
2.1200,-28.5,-330.6,-12.9,105.0,-42.9,-133.8,-316.5,69.0,-444.6,-335.1,36.3,17.1,-1010.4,-1191.9,-487.2,155.7,-6.9,-5.7,-261.0,-1441.5,-0.9,-16.2,-509.4,-52.8,0,3816,0,101,0, 
2.1233,-21.0,-321.6,2.1,119.1,-25.5,-118.5,-307.2,79.2,-296.4,-320.4,49.2,34.8,-996.6,-1190.1,-494.4,145.5,-6.9,-6.0,-250.8,-1417.2,-0.6,-2.1,-500.4,-40.8,0,3822,0,102,0, 
2.1267,-27.0,-320.7,2.7,121.2,-20.1,-115.5,-314.7,78.0,-518.7,-325.2,52.2,45.0,-1002.0,-1193.1,-497.4,134.7,-6.9,-5.7,-247.5,-1402.8,-0.3,6.9,-502.8,-37.5,0,3828,0,103,0, 
2.1300,-32.1,-324.6,1.2,120.9,-18.0,-118.2,-306.3,76.2,-666.9,-327.3,59.7,53.1,-1008.9,-1202.7,-498.0,147.6,-6.6,-6.0,-244.2,-1390.5,-0.3,1.5,-503.7,-39.6,0,3834,0,104,0, 
2.1333,-37.2,-330.6,-3.6,114.9,-23.1,-124.8,-310.8,72.3,-666.9,-332.4,56.4,48.3,-1011.3,-1203.6,-498.3,130.8,-6.6,-6.0,-246.9,-1397.1,-0.9,-6.6,-512.7,-42.0,0,3840,0,105,0, 
2.1367,-40.2,-332.4,-4.8,114.6,-23.7,-123.0,-306.0,72.9,-296.4,-340.5,44.7,37.5,-1015.2,-1216.8,-505.5,146.1,-6.9,-6.0,-262.8,-1407.6,-0.6,-13.2,-510.6,-45.6,0,3846,0,106,0, 
2.1400,-30.0,-322.8,-1.5,119.7,-17.7,-116.4,-307.8,77.7,-444.6,-334.2,51.0,52.5,-1002.3,-1192.8,-498.9,127.2,-6.6,-6.0,-256.5,-1386.3,-0.9,4.5,-503.4,-35.4,0,3852,0,107,0, 
2.1433,-31.5,-329.1,-5.7,116.1,-22.8,-125.7,-308.4,73.5,-370.5,-334.2,48.9,46.2,-1006.5,-1200.6,-494.7,135.0,-6.6,-6.0,-258.3,-1392.9,0.0,-7.2,-507.9,-41.1,0,3858,0,108,0, 
2.1467,-28.5,-332.4,-11.1,110.7,-29.1,-128.7,-317.1,66.6,-666.9,-340.8,40.5,31.2,-1005.6,-1191.3,-485.1,141.0,-6.9,-5.7,-264.9,-1404.3,-0.9,-13.8,-515.4,-46.8,0,3864,0,109,0, 
2.1500,-33.3,-327.9,-8.7,111.3,-27.3,-124.5,-314.4,69.9,-518.7,-336.3,45.0,44.1,-1002.3,-1200.9,-507.0,142.2,-6.9,-5.7,-263.1,-1393.5,-0.9,-1.5,-503.4,-37.2,0,3870,0,110,0, 
2.1533,-29.4,-323.7,-3.0,114.3,-24.9,-126.6,-316.5,74.1,-444.6,-326.4,54.0,47.7,-996.9,-1198.2,-501.3,119.1,-7.2,-5.7,-256.2,-1390.5,-0.6,1.2,-508.2,-40.5,0,3876,0,111,0, 
2.1567,-29.1,-323.1,-12.0,108.0,-32.7,-133.2,-319.8,71.1,-370.5,-334.8,47.4,38.4,-1000.2,-1188.3,-491.4,127.5,-6.9,-5.7,-261.9,-1399.8,-0.6,-3.3,-512.4,-43.8,0,3882,0,112,0, 
2.1600,-29.7,-328.5,-10.5,106.2,-35.1,-131.7,-319.5,71.4,-518.7,-331.5,43.2,37.8,-1002.3,-1190.4,-491.4,137.4,-6.6,-5.7,-265.2,-1400.1,-0.9,-5.4,-510.0,-43.8,0,3888,0,113,0, 
2.1633,-28.8,-326.7,-13.5,102.0,-42.3,-137.4,-319.5,74.4,-518.7,-341.4,36.3,29.4,-1002.3,-1183.8,-486.0,136.2,-7.2,-6.0,-269.4,-1410.6,-0.6,-14.7,-518.7,-50.4,0,3894,0,114,0, 
2.1667,-21.6,-320.1,-6.9,110.7,-31.8,-126.6,-313.2,82.8,-518.7,-333.3,43.8,38.1,-995.1,-1176.3,-486.6,145.2,-6.6,-6.0,-261.3,-1402.8,-0.6,-9.6,-507.0,-42.3,0,3900,0,115,0, 
2.1700,-30.6,-319.8,-4.5,117.6,-27.0,-122.1,-311.4,83.1,-518.7,-327.9,53.7,43.8,-994.8,-1193.7,-497.1,145.5,-7.2,-5.7,-256.5,-1399.2,-0.3,-0.3,-501.6,-39.0,0,3906,0,116,0, 
2.1733,-26.7,-322.5,-8.1,115.5,-25.8,-121.5,-314.4,81.0,-444.6,-328.2,50.1,45.3,-994.5,-1182.9,-484.5,146.4,-6.9,-5.4,-256.2,-1396.2,-0.6,0.3,-504.9,-41.1,0,3912,0,117,0, 
2.1767,-36.0,-334.5,-24.0,102.3,-43.2,-140.4,-322.5,68.4,-444.6,-350.1,29.7,26.7,-1009.8,-1178.4,-470.4,147.9,-7.2,-6.0,-278.1,-1413.9,-0.3,-20.1,-515.7,-56.4,0,3918,0,118,0, 
2.1800,-42.9,-330.9,-16.2,109.8,-35.1,-133.8,-319.5,71.7,-592.8,-335.4,44.4,35.4,-1006.5,-1206.9,-511.5,168.9,-6.6,-6.3,-263.4,-1403.4,-0.9,-14.4,-507.6,-48.3,0,3924,0,119,0, 
2.1833,-32.4,-319.5,-4.8,119.1,-23.4,-122.4,-310.2,78.6,-592.8,-322.5,52.8,44.7,-996.6,-1195.8,-511.8,140.4,-7.2,-6.0,-250.8,-1394.7,-0.9,7.8,-496.8,-34.5,0,3930,0,120,0, 
2.1867,-27.6,-313.5,-0.3,120.3,-23.1,-120.6,-312.0,84.3,-518.7,-308.1,59.7,49.8,-990.9,-1189.2,-498.9,119.4,-6.6,-6.0,-240.0,-1386.6,-1.2,11.1,-498.3,-33.9,0,3936,0,121,0, 
2.1900,-31.5,-320.1,-7.5,113.4,-25.5,-122.1,-312.0,76.2,-518.7,-316.8,54.3,48.6,-996.0,-1187.1,-496.8,132.3,-6.9,-6.3,-248.7,-1389.9,-0.6,9.9,-497.1,-33.6,0,3942,0,122,0, 
2.1933,-39.6,-332.4,-22.2,97.2,-41.1,-132.3,-321.9,64.2,-518.7,-332.1,39.3,29.1,-1009.8,-1200.9,-497.1,144.9,-6.6,-5.4,-258.6,-1405.5,-0.9,-3.3,-505.2,-45.0,0,3948,0,123,0, 
2.1967,-31.8,-318.6,-7.8,108.9,-31.8,-119.7,-314.4,74.7,-741.0,-315.9,46.2,39.3,-996.6,-1188.3,-500.1,138.6,-6.9,-5.7,-252.0,-1397.1,-0.9,7.5,-497.4,-35.1,0,3954,0,124,0, 
2.2000,-32.7,-320.1,-15.6,104.1,-36.9,-127.5,-316.2,71.7,-666.9,-320.4,43.2,35.4,-997.5,-1179.0,-494.1,132.6,-6.9,-6.0,-254.4,-1405.2,-0.9,2.4,-501.0,-39.9,0,3960,0,125,0, 
2.2033,-30.3,-323.7,-13.8,98.7,-43.8,-131.7,-318.6,66.6,-518.7,-328.8,33.9,26.4,-997.2,-1175.4,-483.0,149.7,-7.2,-6.0,-264.6,-1412.1,-0.6,-8.7,-503.7,-44.4,0,3966,0,126,0, 
2.2067,-33.3,-327.0,-16.2,100.2,-44.7,-132.6,-313.8,70.8,-370.5,-322.5,39.3,28.2,-997.5,-1183.8,-486.3,150.9,-6.6,-6.0,-260.1,-1407.0,-0.3,-11.7,-498.6,-44.1,0,3972,0,127,0, 
2.2100,-29.7,-323.4,-10.2,103.2,-36.9,-127.5,-317.7,74.4,-444.6,-317.4,42.6,32.1,-996.3,-1193.7,-496.5,131.7,-6.9,-6.0,-256.2,-1401.9,-0.9,0.3,-503.1,-39.3,0,3978,0,128,0, 
2.2133,-30.3,-329.7,-20.4,100.2,-41.4,-134.7,-321.0,69.9,-666.9,-328.5,33.0,19.8,-1004.1,-1189.5,-485.4,141.3,-6.6,-5.7,-267.0,-1413.6,-0.6,-9.0,-507.0,-47.7,0,3984,0,129,0, 
2.2167,-27.3,-323.7,-14.1,106.8,-38.1,-132.6,-312.3,73.5,-518.7,-327.6,36.9,25.5,-1004.1,-1189.8,-485.1,154.8,-6.9,-6.0,-263.1,-1412.1,-1.2,-2.7,-507.0,-42.9,0,3990,0,130,0, 
2.2200,-21.6,-312.0,-1.5,115.8,-26.1,-121.2,-312.6,77.4,-592.8,-316.2,51.0,36.0,-995.1,-1182.0,-489.0,141.6,-6.6,-6.0,-251.1,-1396.8,-0.6,14.7,-499.2,-32.7,0,3996,0,131,0, 
2.2233,-29.4,-325.8,-13.5,105.6,-37.5,-130.2,-314.4,73.8,-518.7,-327.9,39.0,30.0,-1002.0,-1179.9,-482.1,147.9,-7.2,-5.7,-262.8,-1400.7,-0.9,6.3,-504.3,-41.4,0,4002,0,132,0, 
2.2267,-27.3,-321.6,-9.3,108.6,-32.7,-125.4,-305.7,75.3,-518.7,-327.9,43.5,32.4,-998.7,-1172.1,-485.4,154.2,-7.5,-6.3,-256.5,-1397.4,-0.9,8.7,-496.5,-32.1,0,4008,0,133,0, 
2.2300,-29.1,-318.3,-8.4,114.6,-27.6,-122.1,-305.1,75.6,-666.9,-320.4,49.2,37.5,-999.6,-1185.9,-494.1,155.4,-6.9,-6.0,-252.0,-1391.7,-0.6,17.7,-495.9,-28.5,0,4014,0,134,0, 
2.2333,-29.7,-321.6,-11.1,108.0,-30.9,-121.5,-299.4,75.9,-592.8,-326.1,49.8,34.2,-999.9,-1182.9,-489.6,168.9,-7.2,-6.0,-253.5,-1397.7,-0.6,17.4,-492.3,-29.7,0,4020,0,135,0, 
2.2367,-29.4,-320.1,-11.4,114.3,-27.9,-120.3,-298.8,76.8,-592.8,-317.4,43.8,37.8,-996.3,-1184.4,-489.6,154.5,-7.2,-6.0,-254.4,-1392.3,-0.9,24.3,-497.4,-24.6,0,4026,0,136,0, 
2.2400,-28.2,-321.3,-7.8,111.6,-28.5,-125.1,-297.0,77.1,-296.4,-314.7,45.3,36.3,-994.2,-1173.3,-481.5,154.2,-6.6,-6.3,-252.3,-1394.4,-0.6,20.4,-494.7,-29.1,0,4032,0,137,0, 
2.2433,-22.5,-319.8,-13.2,110.4,-33.6,-129.0,-304.5,75.0,-444.6,-322.2,43.8,33.0,-990.6,-1163.1,-472.8,169.2,-7.2,-5.4,-257.7,-1400.7,-0.9,9.9,-498.3,-33.9,0,4038,0,138,0, 
2.2467,-30.6,-330.3,-20.7,99.9,-42.3,-138.3,-308.4,65.1,-518.7,-332.4,32.7,23.4,-1003.8,-1179.6,-490.5,174.3,-6.9,-5.7,-265.2,-1412.1,-0.9,3.3,-504.6,-41.7,0,4044,0,139,0, 
2.2500,-18.0,-317.1,-1.5,120.3,-24.9,-124.5,-300.6,74.4,-592.8,-308.1,52.8,42.3,-994.2,-1176.9,-500.1,141.0,-6.9,-5.7,-245.1,-1390.8,-0.6,27.3,-489.3,-24.0,0,4050,0,140,0, 
2.2533,-21.9,-317.7,-9.3,114.6,-32.7,-128.1,-300.0,74.7,-444.6,-317.7,47.1,35.4,-996.3,-1176.6,-489.0,149.7,-6.6,-6.3,-251.1,-1396.2,-1.2,15.6,-498.6,-35.7,0,4056,0,141,0, 
2.2567,-20.1,-320.4,-17.7,110.4,-33.0,-130.2,-302.4,71.1,-518.7,-323.7,43.5,34.2,-999.9,-1175.7,-486.6,170.1,-6.6,-6.0,-258.0,-1396.8,-0.6,10.5,-500.4,-38.4,0,4062,0,142,0, 
2.2600,-17.1,-314.7,-14.7,114.0,-27.0,-123.9,-300.3,77.1,-592.8,-312.6,49.5,38.7,-993.9,-1168.5,-490.8,153.9,-6.9,-6.0,-252.9,-1392.3,-0.3,16.5,-496.8,-29.1,0,4068,0,143,0, 
2.2633,-14.7,-309.0,-11.7,121.8,-19.5,-115.8,-295.2,84.3,-592.8,-305.4,56.1,46.5,-982.5,-1161.9,-488.4,141.6,-7.2,-6.0,-242.4,-1386.9,-0.6,23.1,-490.2,-23.1,0,4074,0,144,0, 
2.2667,-17.7,-315.0,-26.1,114.6,-29.7,-121.2,-299.4,83.4,-518.7,-314.7,48.9,39.6,-992.4,-1168.5,-486.6,152.4,-6.6,-5.7,-249.0,-1391.4,-0.9,14.7,-501.0,-26.7,0,4080,0,145,0, 
2.2700,-24.9,-321.0,-22.8,111.3,-32.1,-126.6,-300.0,79.2,-592.8,-317.1,45.6,38.4,-995.7,-1173.9,-488.4,151.5,-6.9,-6.0,-255.0,-1396.8,-0.9,5.4,-510.0,-34.8,0,4086,0,146,0, 
2.2733,-20.4,-320.7,-34.2,106.2,-38.4,-132.0,-306.6,78.3,-518.7,-325.8,41.1,29.7,-995.1,-1158.9,-473.1,151.5,-6.9,-5.7,-258.0,-1404.3,-0.6,-4.2,-511.5,-42.3,0,4092,0,147,0, 
2.2767,-19.8,-319.5,-28.8,113.4,-29.4,-123.3,-295.8,82.2,-444.6,-319.2,48.0,35.4,-998.1,-1176.3,-473.7,160.5,-6.9,-6.3,-251.7,-1395.9,-0.9,4.2,-506.1,-34.5,0,4098,0,148,0, 
2.2800,-22.5,-309.0,-15.0,129.3,-15.3,-109.2,-286.2,93.6,-592.8,-300.9,63.3,51.9,-988.8,-1184.7,-500.4,141.0,-6.6,-6.0,-235.2,-1383.3,-0.9,23.4,-496.8,-20.4,0,4104,0,149,0, 
2.2833,-24.6,-309.9,-8.7,129.3,-14.4,-113.1,-285.0,93.9,-518.7,-299.4,62.1,51.9,-986.7,-1181.7,-497.7,153.3,-7.2,-6.0,-234.0,-1385.7,-0.9,23.1,-492.3,-21.3,0,4110,0,150,0, 
2.2867,-25.8,-316.8,-20.4,122.4,-22.8,-120.0,-291.0,87.3,-592.8,-306.9,53.7,47.1,-989.7,-1189.2,-496.2,153.3,-6.9,-5.7,-244.5,-1392.3,-1.2,17.1,-501.6,-25.5,0,4116,0,151,0, 
2.2900,-30.9,-318.9,-23.4,118.5,-25.2,-120.6,-292.2,78.9,-444.6,-315.6,48.9,41.4,-997.2,-1190.1,-487.5,174.0,-7.2,-6.3,-247.5,-1393.2,-0.9,12.9,-499.2,-30.3,0,4122,0,152,0, 
2.2933,-21.9,-311.7,-18.3,126.3,-18.3,-113.4,-291.3,90.3,-518.7,-306.9,56.4,49.2,-988.8,-1179.3,-488.4,147.0,-6.6,-6.3,-240.9,-1385.1,-0.6,23.4,-494.7,-20.7,0,4128,0,153,0, 
2.2967,-24.9,-315.6,-21.3,124.8,-21.3,-115.5,-294.6,87.0,-592.8,-308.7,55.5,42.9,-994.2,-1186.8,-496.2,154.8,-7.2,-6.0,-244.2,-1387.8,-0.9,21.9,-501.3,-24.0,0,4134,0,154,0, 
2.3000,-21.6,-319.2,-27.0,114.9,-34.2,-123.6,-300.0,83.1,-444.6,-309.6,46.5,37.2,-993.6,-1179.3,-488.7,153.0,-6.9,-6.0,-249.6,-1395.0,-0.9,15.0,-502.8,-31.8,0,4140,0,155,0, 
2.3033,-21.3,-314.4,-28.8,114.0,-34.2,-125.7,-306.6,81.6,-518.7,-310.2,45.9,33.0,-988.5,-1169.1,-483.9,155.7,-6.6,-5.7,-250.8,-1400.4,-0.9,14.1,-507.6,-32.4,0,4146,0,156,0, 
