Time,P3,C3,F3,Fz,F4,C4,P4,Cz,CM,A1,Fp1,Fp2,T3,T5,O1,O2,X3,X2,F7,F8,X1,A2,T6,T4,Trigger,Time_Offset,ADC_Status,ADC_Sequence,Event,Comments
0.0033,-599.1,-881.1,-779.7,-800.7,-819.6,-918.9,-806.4,-675.3,31344.3,-854.7,-801.9,-858.9,-984.3,-1200.0,-753.3,-639.0,-6.9,-6.0,-987.6,-991.2,-0.6,-674.7,-1105.5,-905.1,0,6,0,180,0, 
0.0067,-719.1,-873.3,-876.3,-820.2,-795.3,-907.5,-782.4,-666.6,-19562.4,-813.6,-836.1,-828.6,-1012.2,-1183.8,-706.5,-599.4,-6.6,-5.7,-1128.6,-992.4,-0.6,-600.3,-1074.9,-889.8,0,12,0,181,0, 
0.0100,-713.4,-781.5,-764.4,-790.2,-798.6,-904.8,-776.4,-642.3,-64170.6,-811.5,-796.2,-830.1,-1006.2,-1179.3,-716.1,-610.5,-7.2,-6.3,-1010.4,-998.4,-0.6,-625.2,-1080.6,-881.1,0,18,0,182,0, 
0.0133,-618.0,-920.1,-811.8,-813.6,-820.8,-920.4,-789.6,-671.4,-41199.6,-803.1,-825.3,-894.6,-1008.9,-1191.3,-733.2,-607.5,-6.9,-6.0,-973.5,-1091.7,-0.9,-637.8,-1078.2,-886.2,0,24,0,183,0, 
0.0167,-515.7,-765.9,-719.4,-796.8,-825.6,-936.0,-818.1,-667.2,16672.5,-911.7,-872.7,-904.2,-1036.5,-1200.3,-744.6,-642.0,-6.6,-5.7,-1131.0,-1075.2,-0.6,-726.6,-1126.5,-914.4,0,30,0,184,0, 
0.0200,-627.3,-998.7,-915.6,-843.6,-818.7,-924.0,-796.8,-695.1,28824.9,-804.6,-868.8,-883.2,-974.7,-1209.6,-745.5,-591.3,-6.9,-6.0,-1149.3,-1043.1,-0.9,-626.7,-1062.3,-878.4,0,36,0,185,0, 
0.0233,-715.5,-873.9,-814.8,-803.7,-807.9,-908.7,-787.2,-657.6,-22452.3,-775.5,-801.9,-836.4,-960.0,-1176.6,-718.8,-619.2,-6.9,-6.3,-1047.9,-1013.4,-0.6,-619.5,-1084.5,-881.7,0,42,0,186,0, 
0.0267,-718.2,-844.8,-780.0,-774.6,-775.8,-888.9,-783.6,-636.3,-67282.8,-770.7,-777.3,-825.3,-957.3,-1188.0,-730.8,-639.9,-6.6,-6.0,-1013.7,-1003.8,-0.6,-593.1,-1105.5,-872.1,0,48,0,187,0, 
0.0300,-608.7,-836.4,-697.5,-768.6,-789.9,-900.6,-796.8,-647.1,-44534.1,-857.1,-813.6,-867.9,-989.1,-1201.8,-754.8,-641.7,-6.9,-6.3,-1059.6,-1037.7,-0.6,-653.7,-1113.6,-888.6,0,54,0,188,0, 
0.0333,-541.8,-916.5,-861.3,-823.5,-825.6,-926.1,-815.4,-689.4,12967.5,-854.1,-851.1,-891.3,-1011.9,-1203.0,-759.0,-640.2,-6.9,-5.7,-1100.4,-1044.6,-0.6,-676.8,-1121.1,-897.9,0,60,0,189,0, 
0.0367,-610.8,-912.3,-891.6,-838.5,-828.6,-924.9,-812.1,-683.7,25194.0,-813.6,-858.3,-889.5,-995.1,-1200.3,-746.1,-632.1,-6.6,-5.7,-1086.0,-1051.8,-0.6,-659.1,-1113.3,-895.5,0,66,0,190,0, 
0.0400,-719.1,-852.3,-787.8,-793.5,-799.8,-899.7,-793.5,-650.4,-26305.5,-801.0,-782.1,-841.8,-985.5,-1200.0,-733.2,-622.2,-6.9,-5.4,-1004.1,-1003.8,-0.9,-613.5,-1095.6,-883.5,0,72,0,191,0, 
0.0433,-726.6,-842.7,-751.2,-783.6,-786.9,-892.8,-784.5,-640.5,-71136.0,-792.9,-793.8,-828.6,-985.5,-1190.7,-725.7,-624.3,-6.9,-6.0,-1052.7,-1003.5,-0.9,-610.8,-1099.5,-882.9,0,78,0,192,0, 
0.0467,-623.1,-882.6,-864.3,-821.4,-812.1,-908.1,-796.5,-666.3,-48757.8,-809.7,-842.1,-876.0,-981.9,-1192.2,-745.5,-628.2,-7.2,-5.7,-1077.9,-1040.7,-0.9,-645.6,-1098.9,-891.0,0,84,0,193,0, 
0.0500,-535.8,-872.4,-839.4,-830.1,-836.4,-931.2,-812.7,-684.0,9188.4,-865.2,-873.6,-906.0,-1039.2,-1199.4,-757.8,-623.4,-6.9,-6.0,-1096.2,-1060.2,-0.9,-684.0,-1108.2,-902.1,0,90,0,194,0, 
0.0533,-600.9,-910.5,-845.7,-820.2,-825.3,-923.1,-807.6,-678.6,21340.8,-828.9,-841.2,-880.2,-984.9,-1201.5,-749.7,-630.6,-6.6,-5.4,-1089.3,-1040.7,-1.2,-649.5,-1101.9,-896.4,0,96,0,195,0, 
0.0567,-721.5,-864.6,-796.2,-796.5,-795.0,-903.6,-784.8,-653.7,-30529.2,-793.2,-804.3,-832.5,-962.1,-1192.8,-712.8,-600.3,-6.6,-6.0,-1049.7,-992.1,-0.9,-624.3,-1083.9,-891.0,0,102,0,196,0, 
0.0600,-724.8,-842.4,-780.9,-780.9,-779.7,-890.4,-777.3,-634.2,-75063.3,-780.0,-779.7,-829.8,-964.8,-1187.7,-730.8,-618.0,-6.9,-6.3,-1020.6,-999.0,-1.2,-591.0,-1081.8,-878.4,0,108,0,197,0, 
0.0633,-617.1,-875.1,-811.8,-803.1,-803.4,-909.0,-792.0,-658.5,-52092.3,-825.0,-828.9,-878.4,-982.8,-1197.0,-749.7,-624.0,-6.6,-6.0,-1060.5,-1034.4,-1.2,-642.6,-1098.0,-891.9,0,114,0,198,0, 
0.0667,-540.9,-891.3,-829.5,-821.4,-827.4,-927.6,-808.8,-679.2,6002.1,-866.7,-861.3,-912.0,-1013.4,-1207.2,-764.4,-636.0,-6.9,-5.7,-1084.8,-1063.8,-0.9,-675.0,-1108.2,-909.9,0,120,0,199,0, 
0.0700,-598.8,-880.2,-804.3,-811.8,-819.3,-924.9,-806.1,-668.7,17635.8,-834.3,-838.5,-889.2,-986.7,-1198.2,-756.6,-636.9,-6.6,-5.4,-1067.7,-1045.5,-0.6,-659.7,-1102.8,-905.7,0,126,0,200,0, 
0.0733,-711.6,-855.9,-778.8,-789.9,-792.6,-903.9,-785.1,-645.3,-33345.0,-794.1,-780.0,-834.9,-975.9,-1200.0,-733.8,-611.4,-6.9,-5.7,-1020.9,-995.4,-1.2,-618.9,-1081.5,-891.6,0,132,0,201,0, 
0.0767,-710.4,-841.8,-794.7,-790.2,-790.8,-896.4,-780.3,-640.8,-77656.8,-792.6,-796.2,-834.0,-985.2,-1177.5,-714.0,-604.8,-6.6,-6.0,-1036.8,-998.4,-0.6,-615.9,-1079.1,-889.2,0,138,0,202,0, 
0.0800,-597.0,-849.0,-797.4,-798.3,-805.2,-905.4,-790.2,-651.3,-54908.1,-832.5,-822.9,-872.7,-998.4,-1183.8,-747.3,-616.8,-6.9,-5.7,-1056.3,-1038.3,-0.9,-629.7,-1098.0,-888.6,0,144,0,203,0, 
0.0833,-543.3,-930.3,-844.8,-823.5,-827.4,-926.7,-811.8,-684.9,3186.3,-843.6,-848.4,-901.5,-988.2,-1201.2,-754.2,-619.8,-6.9,-6.0,-1070.1,-1054.2,-0.6,-671.1,-1103.1,-901.8,0,150,0,204,0, 
0.0867,-597.9,-879.6,-804.3,-807.3,-818.4,-922.5,-809.7,-669.6,15116.4,-837.3,-830.4,-874.2,-992.1,-1186.5,-747.9,-630.3,-6.6,-6.3,-1051.8,-1034.7,-0.9,-643.5,-1102.5,-899.4,0,156,0,205,0, 
0.0900,-708.0,-811.2,-777.6,-789.3,-798.0,-903.9,-787.2,-644.4,-36679.5,-790.5,-797.7,-834.9,-976.8,-1172.4,-712.5,-600.6,-6.9,-6.3,-1028.7,-1002.0,-0.6,-606.9,-1079.4,-888.3,0,162,0,206,0, 
0.0933,-708.3,-820.8,-765.0,-778.2,-783.9,-890.7,-776.7,-631.5,-80917.2,-786.9,-788.4,-831.9,-961.8,-1168.2,-714.6,-595.2,-7.2,-5.7,-1034.4,-999.6,-0.6,-602.4,-1075.2,-883.2,0,168,0,207,0, 
0.0967,-603.9,-893.4,-794.1,-788.4,-798.9,-907.2,-796.5,-652.8,-57575.7,-802.8,-808.5,-864.6,-958.2,-1167.0,-730.8,-610.5,-6.9,-6.3,-1014.3,-1025.1,-0.6,-640.5,-1097.4,-887.7,0,174,0,208,0, 
0.1000,-532.2,-898.2,-822.3,-812.4,-819.0,-926.4,-810.9,-672.0,592.8,-848.1,-855.3,-900.9,-991.8,-1185.0,-753.3,-613.5,-7.2,-6.0,-1080.3,-1048.2,-0.3,-668.7,-1095.9,-906.0,0,180,0,209,0, 
0.1033,-591.9,-867.3,-790.5,-802.2,-817.2,-925.2,-810.9,-663.9,12522.9,-829.8,-829.2,-881.1,-1005.0,-1184.7,-731.4,-612.0,-6.9,-6.0,-1035.0,-1036.2,-0.6,-655.8,-1101.9,-915.6,0,186,0,210,0, 
0.1067,-714.3,-878.4,-804.9,-792.3,-796.8,-906.6,-791.1,-643.5,-38828.4,-774.3,-785.4,-839.4,-964.2,-1169.1,-707.7,-603.9,-6.9,-5.7,-996.6,-998.4,-0.9,-601.2,-1086.6,-885.6,0,192,0,211,0, 
0.1100,-711.3,-830.1,-767.4,-774.6,-779.7,-894.9,-781.5,-631.2,-82769.7,-778.8,-782.1,-827.7,-969.6,-1164.0,-711.3,-599.7,-7.2,-6.0,-1002.9,-991.8,-0.9,-603.9,-1079.4,-877.5,0,198,0,212,0, 
0.1133,-601.5,-872.7,-792.9,-794.1,-799.5,-911.7,-791.1,-651.3,-59057.7,-823.2,-816.6,-868.2,-985.5,-1182.6,-742.8,-609.3,-6.9,-6.0,-1028.7,-1016.7,-0.6,-640.5,-1089.0,-885.6,0,204,0,213,0, 
0.1167,-521.1,-899.7,-839.4,-816.6,-825.6,-929.4,-812.7,-678.9,-592.8,-859.5,-856.5,-906.9,-1017.0,-1170.9,-752.4,-621.6,-7.2,-6.0,-1064.1,-1046.4,-1.2,-684.3,-1102.8,-898.8,0,210,0,214,0, 
0.1200,-601.8,-892.2,-807.6,-804.9,-820.5,-921.9,-798.0,-666.6,10670.4,-836.7,-823.2,-880.2,-990.6,-1197.0,-743.7,-606.9,-6.9,-6.0,-1028.1,-1028.4,-0.9,-654.9,-1078.8,-890.7,0,216,0,215,0, 
0.1233,-719.7,-864.6,-782.1,-783.3,-791.7,-899.7,-781.2,-640.2,-40384.5,-793.8,-780.3,-833.4,-973.8,-1188.9,-729.0,-599.4,-6.9,-6.0,-996.9,-987.6,-0.6,-612.6,-1069.5,-879.6,0,222,0,216,0, 
0.1267,-715.2,-842.7,-763.5,-773.7,-782.1,-892.5,-777.9,-626.4,-84696.3,-795.0,-771.9,-824.7,-964.5,-1169.7,-704.1,-596.4,-6.9,-5.7,-978.6,-981.3,-0.6,-610.8,-1081.8,-881.4,0,228,0,217,0, 
0.1300,-606.6,-875.7,-803.4,-795.9,-802.8,-911.4,-793.5,-647.7,-60762.0,-832.5,-825.0,-876.6,-995.4,-1179.9,-729.9,-611.7,-6.9,-5.7,-1031.4,-1015.8,-0.3,-660.3,-1095.6,-892.8,0,234,0,218,0, 
0.1333,-517.5,-866.4,-822.0,-812.7,-828.3,-933.3,-811.8,-666.0,-1926.6,-874.5,-868.8,-917.4,-1062.3,-1194.6,-758.1,-619.8,-7.5,-5.4,-1066.5,-1047.0,-0.6,-688.2,-1107.6,-909.9,0,240,0,219,0, 
0.1367,-595.5,-893.4,-807.3,-796.2,-807.3,-918.9,-798.9,-652.8,9558.9,-834.0,-817.8,-866.1,-976.2,-1193.4,-741.9,-618.6,-6.6,-6.0,-1028.4,-1003.5,-0.6,-651.6,-1100.1,-892.5,0,246,0,220,0, 
0.1400,-702.9,-853.8,-767.1,-765.9,-771.9,-888.3,-773.7,-621.9,-42162.9,-766.2,-765.0,-814.8,-937.5,-1173.3,-707.1,-602.4,-6.9,-5.7,-966.0,-960.9,-0.9,-594.9,-1072.5,-873.9,0,252,0,221,0, 
0.1433,-702.9,-821.1,-722.4,-752.7,-768.0,-881.1,-769.5,-609.0,-86400.6,-782.4,-769.5,-813.0,-978.6,-1166.7,-708.0,-602.7,-6.6,-6.0,-983.1,-957.9,-0.9,-603.9,-1075.2,-875.7,0,258,0,222,0, 
0.1467,-594.3,-860.1,-792.0,-786.9,-792.9,-903.3,-786.9,-637.2,-62392.2,-834.3,-814.2,-861.3,-978.6,-1171.8,-716.7,-610.8,-6.6,-6.0,-1013.7,-992.1,-0.6,-650.1,-1088.7,-888.3,0,264,0,223,0, 
0.1500,-513.3,-865.5,-821.1,-811.8,-822.6,-929.1,-810.9,-661.2,-4371.9,-875.4,-855.0,-899.4,-1014.9,-1181.4,-744.0,-625.8,-6.9,-6.3,-1043.1,-1022.4,-0.6,-690.9,-1113.9,-904.8,0,270,0,224,0, 
0.1533,-606.6,-911.1,-806.1,-802.2,-807.0,-918.0,-799.8,-663.6,6743.1,-825.9,-821.7,-870.9,-983.7,-1200.3,-736.8,-606.3,-6.9,-6.0,-1022.1,-996.6,-0.6,-656.4,-1087.8,-893.7,0,276,0,225,0, 
0.1567,-710.1,-865.8,-762.9,-776.1,-783.0,-898.5,-783.3,-631.8,-44904.6,-796.5,-773.4,-824.1,-967.2,-1184.4,-712.8,-595.8,-6.6,-6.0,-956.4,-957.0,-0.6,-617.4,-1072.5,-880.2,0,282,0,226,0, 
0.1600,-713.7,-852.9,-777.3,-772.5,-771.9,-888.6,-781.5,-624.6,-88697.7,-768.9,-770.4,-812.7,-952.5,-1175.7,-711.9,-609.6,-6.6,-5.7,-951.9,-943.8,0.0,-600.6,-1086.6,-875.4,0,288,0,227,0, 
0.1633,-590.7,-856.8,-804.0,-795.9,-798.9,-908.7,-798.6,-643.5,-64096.5,-829.5,-816.6,-873.3,-994.2,-1168.5,-736.8,-618.0,-6.9,-5.7,-991.8,-985.5,-0.9,-649.5,-1110.3,-889.2,0,294,0,228,0, 
0.1667,-520.8,-815.4,-772.5,-798.0,-813.9,-923.1,-813.3,-656.7,-5335.2,-866.1,-845.7,-903.0,-1002.3,-1199.4,-757.8,-630.9,-6.9,-6.0,-1035.3,-1006.2,-0.9,-681.3,-1104.3,-897.0,0,300,0,229,0, 
0.1700,-606.6,-954.0,-838.5,-820.5,-821.1,-927.3,-812.7,-673.2,6076.2,-825.9,-826.2,-881.7,-992.4,-1190.7,-729.3,-603.6,-7.2,-6.0,-1011.0,-991.5,-1.2,-657.0,-1092.3,-891.9,0,306,0,230,0, 
0.1733,-708.3,-878.1,-762.0,-780.9,-787.2,-903.9,-793.5,-635.7,-45275.1,-796.5,-767.7,-827.4,-979.8,-1179.9,-708.9,-591.6,-6.9,-6.0,-938.4,-951.9,-0.9,-613.5,-1083.3,-875.7,0,312,0,231,0, 
0.1767,-705.0,-858.0,-776.7,-779.7,-779.1,-892.5,-791.7,-623.4,-88475.4,-785.1,-775.5,-823.2,-971.4,-1161.9,-709.5,-609.6,-6.6,-5.7,-952.2,-946.5,-0.6,-606.0,-1087.5,-872.7,0,318,0,232,0, 
0.1800,-587.7,-808.8,-767.4,-794.4,-807.3,-914.4,-806.4,-641.7,-63577.8,-852.9,-832.2,-883.5,-1026.0,-1185.3,-733.5,-613.5,-6.9,-6.0,-1005.0,-991.2,-0.9,-664.5,-1101.9,-890.7,0,324,0,233,0, 
0.1833,-538.8,-905.7,-769.5,-801.6,-823.8,-926.4,-815.1,-666.6,-4890.6,-863.4,-852.3,-900.3,-992.4,-1188.9,-750.6,-620.7,-6.3,-6.3,-1014.9,-999.3,-1.2,-681.6,-1104.6,-893.4,0,330,0,234,0, 
0.1867,-597.6,-875.1,-789.0,-810.3,-822.9,-926.4,-810.0,-665.7,6891.3,-852.6,-829.2,-879.3,-1017.0,-1192.2,-740.7,-604.2,-6.6,-6.0,-1002.9,-984.0,-0.9,-661.2,-1087.5,-890.1,0,336,0,235,0, 
0.1900,-711.9,-897.0,-836.7,-804.3,-795.3,-904.2,-791.7,-640.8,-44608.2,-773.7,-784.5,-829.2,-952.5,-1171.8,-705.9,-612.0,-6.6,-6.0,-954.6,-942.0,-0.9,-600.3,-1082.4,-873.0,0,342,0,236,0, 
0.1933,-698.4,-810.0,-707.4,-765.0,-774.0,-894.6,-785.1,-614.7,-87956.7,-797.7,-775.2,-820.8,-1014.0,-1162.8,-710.1,-613.5,-7.2,-6.0,-958.8,-937.8,-0.6,-603.3,-1091.1,-872.4,0,348,0,237,0, 
0.1967,-600.3,-891.0,-825.9,-803.7,-798.6,-903.9,-790.5,-647.4,-63355.5,-814.5,-814.5,-858.3,-948.6,-1166.4,-721.5,-603.9,-6.6,-5.7,-976.8,-960.3,-0.9,-635.7,-1085.4,-876.6,0,354,0,238,0, 
0.2000,-525.9,-886.8,-796.8,-806.4,-810.3,-920.4,-805.2,-660.3,-4668.3,-855.9,-835.8,-884.4,-974.1,-1186.8,-751.8,-615.3,-6.9,-5.7,-975.9,-984.3,-0.6,-667.5,-1100.1,-882.3,0,360,0,239,0, 
0.2033,-594.9,-901.5,-815.4,-813.0,-813.3,-920.1,-801.9,-658.5,7187.7,-827.7,-819.3,-868.5,-983.4,-1175.7,-728.4,-615.9,-6.9,-6.0,-973.5,-975.3,-1.2,-646.8,-1089.0,-883.8,0,366,0,240,0, 
0.2067,-710.7,-848.4,-776.1,-789.0,-782.4,-902.7,-779.7,-627.3,-44089.5,-785.7,-774.3,-822.6,-979.5,-1171.2,-712.5,-597.9,-6.9,-6.0,-951.9,-939.3,-0.9,-609.3,-1073.4,-870.3,0,372,0,241,0, 
0.2100,-705.3,-835.5,-753.0,-779.1,-774.6,-888.9,-773.7,-615.0,-87289.8,-786.6,-767.4,-824.1,-961.8,-1159.8,-705.6,-600.0,-6.6,-5.7,-920.4,-935.7,-0.9,-600.6,-1083.6,-870.9,0,378,0,242,0, 
0.2133,-592.5,-859.8,-800.7,-807.6,-807.0,-911.7,-781.8,-640.8,-62169.9,-843.9,-828.0,-876.6,-1011.3,-1167.0,-726.3,-585.0,-6.9,-6.0,-984.6,-981.9,-0.9,-651.9,-1081.5,-885.3,0,384,0,243,0, 
0.2167,-533.4,-903.3,-806.7,-808.5,-811.8,-914.7,-801.0,-655.8,-3556.8,-845.7,-831.0,-887.7,-992.4,-1183.2,-750.3,-626.7,-6.6,-6.0,-978.3,-987.3,-0.3,-671.4,-1099.5,-888.3,0,390,0,244,0, 
0.2200,-591.9,-897.0,-807.0,-813.9,-819.3,-921.0,-796.2,-654.3,8002.8,-839.1,-837.0,-890.4,-995.7,-1176.3,-733.2,-602.7,-6.6,-5.7,-999.3,-984.0,-0.9,-650.7,-1087.8,-887.4,0,396,0,245,0, 
0.2233,-699.3,-794.7,-760.5,-790.2,-794.4,-898.2,-780.6,-622.2,-44015.4,-800.7,-792.3,-841.5,-998.1,-1164.6,-708.0,-593.4,-6.6,-5.7,-941.4,-950.7,-0.9,-613.8,-1074.3,-881.7,0,402,0,246,0, 
0.2267,-701.4,-849.6,-766.8,-786.3,-784.5,-894.3,-775.5,-619.5,-86993.4,-788.4,-783.0,-835.8,-973.2,-1157.1,-710.4,-595.2,-6.9,-6.0,-938.4,-947.1,-1.2,-603.6,-1082.4,-887.4,0,408,0,247,0, 
0.2300,-608.4,-900.6,-783.6,-801.6,-803.7,-914.7,-792.3,-645.0,-61058.4,-823.2,-808.2,-877.5,-979.2,-1176.3,-730.2,-606.6,-7.2,-5.4,-948.3,-974.4,-0.3,-651.0,-1084.8,-897.3,0,414,0,248,0, 
0.2333,-520.2,-901.8,-836.4,-829.2,-828.3,-933.9,-808.5,-666.3,-2148.9,-855.6,-851.4,-914.4,-979.5,-1173.9,-738.3,-612.6,-6.9,-6.3,-1010.1,-1000.8,-0.3,-675.3,-1100.1,-895.5,0,420,0,249,0, 
0.2367,-581.4,-867.0,-763.8,-807.9,-821.7,-932.7,-805.2,-658.2,8892.0,-848.7,-825.9,-890.4,-1032.6,-1171.8,-716.4,-592.8,-6.3,-6.0,-970.8,-985.5,-0.6,-661.8,-1095.9,-896.4,0,426,0,250,0, 
0.2400,-689.1,-817.8,-773.7,-789.3,-786.9,-905.1,-789.0,-628.5,-42829.8,-785.4,-776.4,-831.9,-992.1,-1163.1,-714.6,-613.2,-6.6,-5.7,-922.8,-933.9,-0.9,-596.4,-1088.7,-877.2,0,432,0,251,0, 
0.2433,-705.9,-862.5,-749.7,-783.3,-783.0,-898.5,-781.5,-622.5,-85585.5,-789.0,-776.4,-832.8,-963.6,-1167.6,-699.9,-584.1,-6.9,-6.0,-931.5,-938.7,-0.6,-604.2,-1076.4,-877.2,0,438,0,252,0, 
0.2467,-587.1,-881.7,-802.8,-804.3,-798.6,-915.3,-799.8,-645.0,-60095.1,-822.9,-816.9,-861.9,-981.0,-1162.8,-725.1,-620.1,-6.9,-6.0,-972.6,-958.5,-0.3,-639.9,-1105.5,-883.5,0,444,0,253,0, 
0.2500,-513.0,-895.2,-802.2,-808.8,-815.1,-930.9,-811.8,-662.7,-1482.0,-862.2,-840.6,-893.7,-998.4,-1177.2,-740.7,-622.2,-6.9,-5.7,-970.8,-975.3,-0.9,-672.6,-1116.3,-892.8,0,450,0,254,0, 
0.2533,-578.4,-894.9,-832.8,-816.6,-810.3,-922.2,-803.4,-655.8,9633.0,-819.3,-832.5,-875.4,-991.5,-1173.0,-723.6,-605.4,-7.2,-5.7,-976.8,-955.8,-0.3,-649.2,-1095.3,-882.6,0,456,0,255,0, 
0.2567,-696.3,-864.3,-784.5,-790.8,-783.9,-897.9,-783.6,-630.0,-42088.8,-777.0,-777.0,-834.0,-970.8,-1157.7,-699.3,-592.5,-6.9,-6.0,-927.3,-927.3,-0.6,-595.8,-1074.9,-867.0,0,462,0,0,0, 
0.2600,-701.1,-857.4,-773.1,-783.3,-774.3,-889.5,-777.6,-621.3,-84992.7,-771.9,-773.1,-823.2,-967.5,-1151.4,-693.3,-596.7,-6.9,-6.3,-920.1,-924.6,-0.6,-592.2,-1079.1,-866.1,0,468,0,1,0, 
0.2633,-587.1,-877.2,-792.9,-802.2,-796.5,-908.1,-792.9,-648.3,-59576.4,-832.2,-813.0,-866.4,-991.8,-1167.6,-715.5,-599.1,-6.9,-6.0,-952.5,-954.6,-0.6,-639.6,-1088.1,-876.6,0,474,0,2,0, 
0.2667,-516.3,-903.9,-824.1,-825.9,-821.4,-927.3,-807.6,-671.1,-1556.1,-857.1,-853.5,-897.0,-1014.6,-1177.8,-735.0,-617.7,-7.2,-6.0,-991.8,-977.1,-0.3,-669.0,-1098.9,-887.7,0,480,0,3,0, 
0.2700,-593.7,-905.1,-817.5,-825.6,-820.2,-923.4,-802.5,-670.2,9484.8,-837.9,-830.1,-885.3,-1009.2,-1177.8,-723.0,-601.8,-6.9,-5.7,-972.0,-968.4,-0.6,-653.1,-1085.4,-886.2,0,486,0,4,0, 
0.2733,-694.2,-856.2,-781.2,-793.2,-786.6,-894.9,-780.0,-635.7,-42014.7,-782.1,-777.0,-830.7,-981.6,-1155.0,-694.5,-595.2,-6.9,-6.0,-918.6,-924.3,-0.3,-596.4,-1069.8,-865.5,0,492,0,5,0, 
0.2767,-702.6,-843.3,-737.7,-778.8,-775.2,-884.7,-769.5,-622.5,-84770.4,-791.4,-778.5,-823.5,-966.9,-1155.9,-690.0,-592.5,-6.3,-6.0,-923.1,-917.4,-0.6,-593.7,-1062.6,-857.1,0,498,0,6,0, 
0.2800,-585.9,-838.8,-804.0,-807.3,-804.0,-904.2,-786.6,-648.9,-59428.2,-844.2,-819.0,-872.4,-1044.9,-1167.3,-723.9,-610.5,-6.9,-6.3,-918.3,-951.6,-0.6,-643.5,-1078.5,-872.7,0,504,0,7,0, 
0.2833,-516.3,-888.6,-769.8,-815.1,-823.2,-921.6,-797.7,-665.1,-1333.8,-878.1,-866.1,-914.7,-1031.1,-1185.9,-745.8,-604.5,-6.9,-6.0,-1043.4,-980.7,-0.6,-679.2,-1075.2,-880.8,0,510,0,8,0, 
0.2867,-602.1,-899.4,-824.1,-820.8,-815.1,-918.9,-798.9,-664.2,9929.4,-844.5,-837.0,-886.5,-1009.2,-1191.0,-736.2,-615.6,-6.9,-5.7,-967.8,-958.2,-0.6,-649.8,-1080.0,-876.0,0,516,0,9,0, 
0.2900,-712.8,-882.6,-792.9,-787.5,-776.1,-888.9,-775.8,-631.5,-41940.6,-786.6,-781.8,-826.2,-968.4,-1178.1,-705.3,-609.9,-6.6,-6.0,-915.6,-911.1,-0.6,-595.2,-1065.9,-852.9,0,522,0,10,0, 
0.2933,-704.1,-843.9,-775.5,-778.8,-768.6,-879.9,-771.0,-619.2,-84474.0,-790.2,-778.2,-826.8,-981.6,-1160.7,-700.2,-609.0,-6.6,-6.3,-915.6,-913.8,-0.3,-594.9,-1072.5,-855.0,0,528,0,11,0, 
0.2967,-600.9,-901.2,-801.9,-799.8,-791.1,-898.2,-789.3,-639.3,-58909.5,-839.1,-825.6,-873.3,-990.6,-1170.0,-717.6,-617.7,-6.9,-6.0,-967.5,-950.7,-0.9,-644.1,-1086.3,-872.7,0,534,0,12,0, 
0.3000,-521.1,-904.8,-832.2,-821.7,-813.0,-918.6,-805.2,-662.4,-296.4,-872.7,-869.4,-905.1,-1023.9,-1179.3,-726.0,-620.1,-6.9,-6.0,-1005.6,-973.2,-0.6,-675.3,-1094.1,-883.2,0,540,0,13,0, 
0.3033,-590.7,-902.7,-804.3,-810.6,-807.0,-914.7,-799.8,-654.0,10151.7,-848.1,-849.9,-878.1,-1018.2,-1179.0,-719.1,-608.4,-6.6,-5.7,-986.1,-950.4,-0.6,-653.1,-1086.0,-882.3,0,546,0,14,0, 
0.3067,-697.5,-819.6,-749.4,-781.2,-775.5,-891.0,-781.5,-617.4,-42162.9,-815.4,-785.1,-834.3,-1005.6,-1171.2,-711.3,-612.6,-6.3,-6.3,-919.5,-917.4,-0.9,-609.9,-1075.2,-871.2,0,552,0,15,0, 
0.3100,-710.1,-870.3,-779.1,-782.7,-768.9,-883.5,-777.9,-615.0,-84844.5,-794.4,-788.7,-827.7,-979.5,-1168.2,-697.2,-605.7,-7.2,-5.7,-927.0,-914.4,-0.9,-599.7,-1070.1,-861.3,0,558,0,16,0, 
0.3133,-599.1,-884.4,-802.5,-802.2,-789.3,-903.6,-793.5,-639.3,-58835.4,-832.2,-820.5,-870.9,-996.6,-1173.0,-719.1,-621.0,-7.2,-5.7,-961.2,-949.5,-0.9,-642.3,-1086.6,-872.7,0,564,0,17,0, 
0.3167,-521.1,-887.4,-806.1,-809.7,-804.0,-918.6,-813.9,-652.5,-222.3,-855.0,-854.7,-890.1,-1011.0,-1182.9,-754.5,-643.2,-7.5,-6.3,-991.5,-963.6,-0.6,-665.4,-1104.3,-876.3,0,570,0,18,0, 
0.3200,-587.1,-882.3,-792.3,-800.4,-794.4,-913.2,-801.9,-647.1,9855.3,-836.1,-819.3,-867.0,-1004.1,-1177.2,-727.2,-618.9,-6.6,-6.0,-954.0,-946.5,-0.3,-641.4,-1083.9,-869.4,0,576,0,19,0, 
0.3233,-694.2,-838.8,-757.2,-772.2,-762.9,-882.3,-785.1,-613.2,-42162.9,-783.6,-777.3,-819.3,-978.6,-1159.2,-701.7,-620.7,-6.9,-6.0,-915.6,-902.7,-0.9,-589.2,-1076.7,-848.1,0,582,0,20,0, 
0.3267,-701.7,-845.1,-759.6,-771.6,-757.8,-874.2,-776.4,-608.4,-84844.5,-784.8,-778.5,-812.1,-969.0,-1156.5,-697.2,-607.5,-6.9,-6.3,-914.4,-903.9,-0.6,-588.0,-1060.8,-846.6,0,588,0,21,0, 
0.3300,-586.2,-862.2,-788.1,-790.2,-782.7,-893.7,-797.7,-631.2,-59280.0,-831.9,-822.9,-854.1,-991.5,-1165.5,-720.9,-633.6,-6.9,-6.0,-954.3,-935.7,-0.6,-631.2,-1096.8,-854.7,0,594,0,22,0, 
0.3333,-516.0,-898.2,-821.4,-813.0,-807.3,-913.2,-811.5,-653.4,-815.1,-857.7,-851.7,-894.9,-1005.3,-1170.9,-726.9,-633.3,-6.3,-6.0,-991.5,-963.6,-0.6,-662.1,-1100.7,-862.8,0,600,0,23,0, 
0.3367,-591.6,-874.5,-780.0,-799.8,-800.4,-909.6,-801.9,-645.6,9114.3,-845.1,-814.2,-865.5,-1009.5,-1182.0,-718.8,-622.5,-7.5,-6.3,-948.3,-942.9,-0.3,-639.0,-1097.7,-862.2,0,606,0,24,0, 
0.3400,-698.4,-846.9,-769.8,-785.7,-779.1,-888.3,-782.4,-621.6,-43644.9,-789.6,-785.4,-818.7,-968.4,-1163.1,-696.9,-606.6,-6.9,-6.0,-934.5,-910.8,-0.9,-592.2,-1074.3,-855.3,0,612,0,25,0, 
0.3433,-703.8,-841.2,-746.7,-773.1,-768.6,-879.0,-773.1,-610.8,-86252.4,-787.5,-766.8,-817.2,-977.7,-1164.3,-700.8,-608.1,-6.9,-5.7,-900.9,-906.6,-0.3,-591.0,-1069.2,-858.9,0,618,0,26,0, 
0.3467,-588.6,-838.2,-789.9,-802.8,-798.9,-907.2,-795.3,-637.8,-60169.2,-846.3,-826.2,-872.4,-1025.1,-1172.1,-713.7,-621.9,-6.9,-5.7,-961.5,-951.0,-0.9,-648.9,-1098.6,-876.0,0,624,0,27,0, 
0.3500,-520.8,-857.1,-790.8,-808.8,-813.9,-919.8,-811.5,-650.7,-1704.3,-872.4,-845.7,-893.4,-1025.1,-1186.5,-737.1,-657.0,-7.2,-5.4,-967.8,-960.9,-0.6,-670.5,-1125.0,-870.9,0,630,0,28,0, 
0.3533,-583.8,-898.5,-781.8,-802.2,-801.6,-907.5,-799.2,-645.3,8299.2,-846.3,-829.5,-880.8,-1020.0,-1176.3,-740.4,-643.5,-6.3,-6.3,-980.1,-940.5,-0.9,-644.1,-1103.1,-859.5,0,636,0,29,0, 
0.3567,-699.3,-829.5,-751.5,-775.5,-767.7,-881.1,-780.0,-612.0,-43793.1,-785.1,-765.3,-822.9,-965.1,-1166.4,-711.6,-632.1,-6.9,-6.0,-898.5,-897.9,-0.6,-583.8,-1085.7,-840.3,0,642,0,30,0, 
0.3600,-708.3,-868.5,-764.7,-766.5,-753.3,-866.4,-766.2,-607.8,-86030.1,-764.7,-744.3,-803.4,-938.1,-1158.6,-701.4,-621.0,-6.9,-5.4,-888.6,-887.4,-0.9,-577.8,-1065.0,-829.5,0,648,0,31,0, 
0.3633,-588.0,-857.1,-773.4,-784.5,-778.8,-888.6,-781.8,-630.0,-60169.2,-825.6,-810.6,-855.6,-982.8,-1162.5,-720.0,-619.5,-6.9,-5.4,-946.2,-931.2,-0.6,-630.6,-1076.7,-847.5,0,654,0,32,0, 
0.3667,-513.6,-897.6,-812.7,-803.7,-795.3,-906.9,-803.7,-657.6,-2148.9,-854.4,-839.4,-876.6,-991.2,-1169.7,-733.8,-641.7,-6.9,-5.7,-976.8,-948.9,-0.9,-654.0,-1104.0,-853.5,0,660,0,33,0, 
0.3700,-580.5,-866.7,-773.4,-789.0,-790.5,-900.0,-794.4,-645.3,7854.6,-841.2,-804.3,-850.5,-993.3,-1172.1,-716.1,-623.1,-6.9,-6.0,-923.4,-933.3,-0.9,-630.6,-1081.5,-850.2,0,666,0,34,0, 
0.3733,-689.4,-837.9,-747.9,-768.6,-764.7,-882.3,-778.2,-621.0,-44460.0,-790.5,-768.6,-809.7,-972.0,-1158.3,-694.5,-618.0,-6.6,-5.7,-919.5,-899.4,-0.6,-589.8,-1072.2,-842.1,0,672,0,35,0, 
0.3767,-692.4,-829.2,-758.1,-765.0,-757.5,-869.1,-767.7,-611.7,-86104.2,-778.2,-766.2,-808.5,-965.1,-1153.5,-696.6,-604.5,-7.2,-6.0,-899.7,-896.7,-0.3,-575.7,-1068.9,-838.2,0,678,0,36,0, 
0.3800,-582.6,-865.8,-778.5,-782.7,-778.5,-883.2,-782.4,-634.5,-59872.8,-826.8,-806.7,-850.8,-978.9,-1159.5,-717.9,-626.7,-6.9,-6.3,-956.4,-927.3,-0.9,-626.4,-1089.3,-849.0,0,684,0,37,0, 
0.3833,-505.2,-883.5,-799.5,-797.7,-799.5,-898.2,-796.5,-652.2,-2297.1,-858.3,-832.8,-879.3,-996.9,-1161.3,-727.2,-642.3,-6.9,-6.3,-965.4,-948.9,-0.9,-653.7,-1092.6,-855.0,0,690,0,38,0, 
0.3867,-571.8,-868.8,-773.7,-783.9,-787.2,-893.4,-787.8,-642.0,7928.7,-840.3,-798.3,-849.6,-993.0,-1174.8,-726.3,-620.7,-7.2,-5.7,-928.5,-927.0,-0.9,-628.8,-1071.6,-846.0,0,696,0,39,0, 
0.3900,-684.3,-835.2,-750.9,-764.4,-761.4,-871.8,-770.7,-611.1,-43793.1,-778.2,-762.3,-803.4,-965.4,-1147.8,-684.0,-628.5,-6.9,-6.0,-916.5,-884.1,-0.9,-580.8,-1080.9,-838.2,0,702,0,40,0, 
0.3933,-690.0,-817.8,-723.0,-753.9,-755.4,-864.0,-762.6,-601.5,-85881.9,-796.2,-745.2,-805.8,-965.4,-1158.3,-695.4,-613.2,-6.6,-6.0,-867.3,-891.0,-0.9,-588.6,-1068.0,-840.3,0,708,0,41,0, 
0.3967,-575.4,-857.7,-769.8,-765.9,-763.5,-874.5,-778.5,-615.6,-59798.7,-819.6,-801.9,-828.6,-975.9,-1164.6,-733.2,-649.2,-6.9,-5.7,-955.2,-908.7,-0.9,-616.2,-1102.2,-839.7,0,714,0,42,0, 
0.4000,-508.8,-882.3,-797.1,-795.3,-793.8,-896.4,-795.9,-644.7,-1704.3,-861.0,-833.4,-877.8,-1001.4,-1176.6,-731.4,-647.1,-6.6,-5.7,-981.0,-944.1,-0.9,-657.3,-1102.5,-852.6,0,720,0,43,0, 
0.4033,-579.0,-875.4,-771.0,-780.0,-786.9,-888.9,-787.8,-636.6,8743.8,-843.9,-811.2,-856.5,-995.7,-1181.4,-724.8,-638.7,-6.9,-5.7,-962.7,-926.7,-0.6,-630.9,-1094.7,-849.9,0,726,0,44,0, 
0.4067,-689.7,-814.2,-763.5,-762.3,-759.0,-868.8,-768.0,-608.1,-43126.2,-797.1,-757.5,-800.4,-984.9,-1170.6,-699.6,-613.8,-6.9,-5.4,-904.2,-884.7,-0.6,-585.6,-1070.4,-834.6,0,732,0,45,0, 
0.4100,-685.2,-830.4,-730.2,-747.0,-741.3,-854.1,-760.5,-592.8,-85066.8,-774.0,-756.0,-787.5,-949.8,-1155.0,-689.4,-630.0,-6.6,-5.7,-898.5,-873.0,-0.9,-573.3,-1079.1,-827.4,0,738,0,46,0, 
0.4133,-581.1,-870.0,-774.0,-771.6,-768.0,-875.7,-777.9,-621.3,-59057.7,-826.2,-798.0,-842.7,-978.3,-1175.7,-733.2,-639.9,-6.6,-5.7,-937.5,-915.6,-0.9,-619.5,-1088.7,-837.9,0,744,0,47,0, 
0.4167,-504.6,-873.6,-786.3,-782.7,-789.9,-889.8,-795.9,-636.6,-1037.4,-852.6,-827.1,-871.2,-996.9,-1181.7,-756.3,-654.3,-6.9,-6.0,-964.8,-940.2,-0.6,-645.6,-1105.2,-841.8,0,750,0,48,0, 
0.4200,-573.9,-868.5,-776.4,-781.5,-790.5,-892.2,-788.7,-633.9,9558.9,-829.2,-799.2,-855.0,-991.2,-1181.4,-733.8,-646.8,-6.6,-5.7,-939.3,-930.3,-0.6,-632.4,-1093.2,-843.0,0,756,0,49,0, 
0.4233,-685.8,-842.7,-741.3,-762.6,-766.5,-871.8,-771.9,-603.9,-41940.6,-787.5,-754.8,-816.3,-967.8,-1173.6,-710.7,-631.5,-6.9,-6.0,-899.4,-900.6,-0.6,-592.5,-1076.4,-834.3,0,762,0,50,0, 
0.4267,-691.5,-831.9,-743.1,-762.3,-760.8,-865.2,-763.2,-597.3,-83881.2,-800.1,-768.0,-807.0,-971.4,-1173.6,-708.6,-621.0,-7.2,-6.0,-906.9,-893.4,-0.6,-590.1,-1075.5,-834.9,0,768,0,51,0, 
0.4300,-575.4,-861.6,-780.0,-775.8,-775.8,-877.2,-776.4,-618.3,-57723.9,-847.2,-804.9,-843.0,-982.8,-1174.2,-724.8,-648.3,-6.6,-5.7,-948.0,-914.4,-0.3,-627.3,-1089.9,-843.3,0,774,0,52,0, 
0.4333,-509.4,-889.8,-808.8,-803.1,-803.4,-899.7,-794.1,-641.7,-148.2,-868.2,-850.2,-880.8,-1004.1,-1187.1,-746.7,-651.3,-6.9,-5.7,-992.1,-947.4,-0.3,-671.4,-1102.2,-859.2,0,780,0,53,0, 
0.4367,-579.6,-870.6,-782.4,-789.0,-789.3,-887.1,-790.2,-629.1,10299.9,-842.1,-807.9,-849.9,-989.1,-1185.3,-738.3,-660.3,-6.6,-6.0,-948.6,-922.5,-0.9,-634.8,-1114.8,-853.5,0,786,0,54,0, 
0.4400,-694.8,-844.5,-760.2,-773.4,-769.5,-869.4,-766.8,-604.5,-42162.9,-808.8,-773.4,-807.9,-979.5,-1173.3,-708.9,-628.5,-6.6,-6.3,-926.1,-891.6,-0.9,-597.6,-1079.1,-841.2,0,792,0,55,0, 
0.4433,-695.1,-830.1,-733.5,-757.8,-752.4,-856.8,-762.0,-592.5,-83658.9,-801.6,-755.7,-805.2,-967.8,-1168.8,-715.5,-645.9,-7.5,-5.7,-915.0,-890.7,-0.6,-593.1,-1085.4,-840.0,0,798,0,56,0, 
0.4467,-580.2,-857.7,-786.3,-786.0,-779.7,-874.2,-778.2,-615.6,-58020.3,-852.0,-810.9,-848.1,-986.4,-1176.3,-733.8,-646.8,-6.6,-6.0,-957.6,-923.7,-0.3,-643.2,-1096.2,-854.4,0,804,0,57,0, 
0.4500,-513.3,-890.4,-810.3,-809.7,-807.6,-900.0,-798.6,-645.0,-74.1,-881.4,-847.5,-888.0,-1009.2,-1187.4,-748.5,-660.0,-6.9,-6.0,-983.1,-952.8,-0.9,-672.0,-1111.5,-867.3,0,810,0,58,0, 
0.4533,-585.0,-879.3,-797.1,-798.9,-798.0,-891.0,-794.1,-637.8,10670.4,-855.3,-825.9,-864.6,-1003.8,-1183.5,-735.0,-652.5,-6.9,-6.0,-967.2,-938.4,-0.6,-645.6,-1099.2,-860.1,0,816,0,59,0, 
0.4567,-691.2,-834.0,-739.5,-765.0,-765.3,-867.6,-772.5,-605.1,-41273.7,-803.1,-760.8,-813.9,-976.5,-1167.0,-708.0,-637.5,-7.2,-6.0,-898.8,-899.1,-0.9,-601.5,-1082.7,-845.1,0,822,0,60,0, 
0.4600,-684.6,-822.6,-730.5,-752.7,-750.3,-851.7,-758.1,-593.7,-82843.8,-780.9,-749.1,-805.5,-956.1,-1154.7,-697.8,-626.7,-6.9,-5.7,-897.0,-890.1,-0.6,-589.5,-1068.0,-835.2,0,828,0,61,0, 
0.4633,-579.0,-856.2,-783.3,-777.3,-769.5,-865.2,-776.1,-616.2,-56686.5,-830.7,-798.3,-845.7,-975.9,-1165.2,-722.4,-640.8,-6.9,-5.7,-938.1,-918.9,-0.9,-626.4,-1084.2,-842.4,0,834,0,62,0, 
0.4667,-508.5,-876.0,-781.8,-779.4,-787.8,-884.1,-795.9,-636.9,1704.3,-863.1,-822.0,-861.6,-994.8,-1180.2,-740.7,-653.7,-7.2,-5.7,-956.4,-942.3,-1.2,-654.9,-1098.9,-854.7,0,840,0,63,0, 
0.4700,-585.3,-882.3,-789.3,-781.8,-785.4,-879.6,-797.1,-632.7,11856.0,-846.9,-798.0,-834.0,-996.3,-1179.9,-735.6,-650.4,-6.6,-5.7,-947.7,-919.5,-0.3,-635.7,-1097.4,-854.7,0,846,0,64,0, 
0.4733,-692.1,-839.4,-738.9,-755.7,-755.7,-855.9,-770.7,-600.9,-40236.3,-790.5,-750.6,-795.0,-969.6,-1165.2,-705.3,-633.9,-7.2,-6.3,-910.5,-881.1,-0.6,-581.4,-1074.6,-834.6,0,852,0,65,0, 
0.4767,-696.6,-828.6,-737.4,-754.5,-750.9,-852.9,-765.3,-595.8,-81584.1,-798.0,-757.8,-799.2,-966.3,-1154.7,-701.7,-633.9,-6.9,-6.0,-903.3,-879.0,-0.6,-584.4,-1072.8,-833.7,0,858,0,66,0, 
0.4800,-587.7,-864.3,-771.0,-775.5,-775.5,-866.7,-774.6,-620.7,-55352.7,-846.6,-801.9,-841.2,-988.2,-1166.4,-721.5,-622.2,-6.6,-6.0,-950.1,-924.9,-0.3,-627.3,-1068.9,-847.8,0,864,0,67,0, 
0.4833,-520.2,-888.9,-806.7,-795.3,-794.4,-879.0,-792.3,-640.8,2667.6,-875.1,-831.9,-876.3,-1004.4,-1176.3,-744.6,-645.9,-6.9,-5.4,-986.4,-937.8,-0.9,-654.6,-1094.1,-850.2,0,870,0,68,0, 
0.4867,-582.0,-863.1,-778.8,-779.4,-780.6,-870.6,-785.7,-626.1,12078.3,-831.6,-796.5,-845.1,-984.0,-1167.0,-735.9,-658.2,-7.2,-5.7,-937.8,-914.4,-0.9,-618.0,-1085.7,-838.5,0,876,0,69,0, 
0.4900,-698.7,-833.7,-740.1,-761.4,-761.7,-851.7,-766.2,-601.8,-40310.4,-808.2,-755.1,-799.5,-969.3,-1161.3,-705.3,-631.2,-7.5,-6.0,-901.8,-881.4,-0.6,-588.0,-1071.6,-834.3,0,882,0,70,0, 
0.4933,-692.1,-824.1,-740.1,-752.7,-751.5,-841.8,-757.8,-589.2,-82028.7,-801.6,-760.8,-790.2,-966.9,-1147.8,-699.3,-630.0,-7.2,-5.7,-901.5,-880.5,-0.6,-577.8,-1068.9,-837.3,0,888,0,71,0, 
0.4967,-577.8,-849.6,-777.6,-778.5,-774.0,-861.3,-771.3,-612.0,-55500.9,-850.2,-815.4,-843.6,-978.6,-1153.8,-714.9,-626.1,-6.9,-6.0,-960.6,-916.5,-0.6,-625.2,-1079.1,-852.9,0,894,0,72,0, 
0.5000,-506.4,-877.5,-789.9,-790.8,-796.5,-881.7,-791.1,-635.1,2223.0,-862.2,-826.5,-873.9,-981.9,-1160.4,-738.9,-643.5,-6.9,-6.3,-952.8,-947.7,-0.6,-661.2,-1085.7,-855.0,0,900,0,73,0, 
0.5033,-576.9,-860.4,-778.2,-783.6,-789.9,-876.6,-784.8,-626.1,11930.1,-827.1,-799.2,-846.3,-971.1,-1156.8,-726.9,-642.0,-6.6,-6.3,-945.9,-923.4,-0.3,-639.0,-1083.9,-842.4,0,906,0,74,0, 
0.5067,-685.2,-829.2,-742.8,-763.2,-771.9,-856.2,-764.4,-598.5,-40829.1,-790.8,-755.4,-814.5,-957.3,-1148.4,-701.4,-622.5,-6.9,-6.0,-895.8,-904.5,-0.6,-585.9,-1056.6,-834.9,0,912,0,75,0, 
0.5100,-679.8,-814.2,-729.6,-750.9,-753.9,-851.4,-761.1,-586.2,-82399.2,-796.2,-758.1,-790.8,-951.0,-1137.9,-698.4,-639.3,-6.9,-6.0,-899.7,-878.1,-0.9,-576.0,-1076.4,-837.9,0,918,0,76,0, 
0.5133,-578.1,-856.8,-783.3,-779.7,-777.6,-871.8,-776.7,-612.3,-54834.0,-860.4,-806.1,-835.5,-987.6,-1160.7,-729.0,-645.9,-6.9,-5.7,-947.1,-919.2,-0.3,-628.8,-1082.7,-851.1,0,924,0,77,0, 
0.5167,-510.3,-882.0,-801.0,-795.0,-799.2,-889.2,-791.7,-636.6,4001.4,-887.1,-838.8,-879.0,-999.0,-1171.8,-743.4,-657.3,-6.9,-5.7,-972.0,-939.6,-0.9,-660.0,-1098.3,-864.6,0,930,0,78,0, 
0.5200,-580.8,-881.4,-798.6,-792.9,-796.5,-889.5,-785.7,-633.9,12819.3,-842.7,-819.0,-855.3,-990.9,-1165.5,-722.7,-639.3,-6.9,-5.7,-961.2,-927.3,-0.3,-646.2,-1080.6,-861.3,0,936,0,79,0, 
0.5233,-691.2,-837.3,-758.1,-772.8,-778.8,-876.6,-773.4,-607.2,-39347.1,-798.0,-766.2,-815.1,-969.9,-1154.7,-694.8,-634.8,-6.6,-6.0,-913.5,-910.2,-0.6,-607.8,-1075.5,-855.0,0,942,0,80,0, 
0.5267,-692.7,-830.1,-743.1,-762.9,-768.0,-863.1,-764.4,-594.3,-81213.6,-812.7,-766.2,-810.0,-966.0,-1164.6,-713.1,-630.0,-7.5,-6.3,-911.7,-903.3,-0.6,-608.1,-1066.8,-853.8,0,948,0,81,0, 
0.5300,-575.7,-863.4,-783.0,-781.8,-786.6,-877.5,-781.8,-613.2,-53944.8,-852.3,-804.3,-846.0,-970.8,-1163.4,-726.6,-651.6,-6.6,-5.7,-933.6,-929.4,-0.6,-638.1,-1087.2,-857.7,0,954,0,82,0, 
0.5333,-505.2,-875.4,-798.0,-799.5,-803.7,-893.4,-798.9,-636.0,4371.9,-879.9,-828.9,-874.2,-993.6,-1179.9,-749.1,-674.7,-6.9,-6.0,-953.1,-943.5,-0.6,-654.0,-1104.6,-862.5,0,960,0,83,0, 
0.5367,-582.0,-868.8,-792.0,-799.5,-801.9,-890.4,-785.4,-632.4,13486.2,-848.1,-814.8,-854.1,-984.3,-1176.0,-730.8,-640.8,-6.9,-5.7,-949.5,-933.6,-0.9,-628.2,-1080.6,-859.5,0,966,0,84,0, 
0.5400,-686.7,-826.2,-729.3,-765.3,-765.9,-864.3,-765.6,-600.9,-39198.9,-805.8,-755.7,-806.7,-962.4,-1161.9,-702.6,-625.8,-6.9,-6.0,-894.9,-885.0,-1.2,-608.4,-1069.2,-850.2,0,972,0,85,0, 
0.5433,-682.5,-818.4,-743.1,-762.3,-762.3,-859.8,-760.2,-593.7,-79583.4,-787.8,-750.6,-798.3,-946.5,-1145.1,-701.1,-642.6,-7.5,-5.7,-888.9,-896.1,-0.9,-596.1,-1079.1,-847.5,0,978,0,86,0, 
0.5467,-570.6,-850.8,-772.5,-779.7,-778.2,-874.5,-776.4,-618.3,-52240.5,-844.2,-804.0,-845.7,-969.6,-1158.3,-717.9,-652.8,-6.6,-6.0,-934.5,-924.0,-0.6,-626.1,-1097.7,-850.8,0,984,0,87,0, 
0.5500,-499.5,-872.4,-800.4,-802.5,-807.3,-894.6,-788.7,-642.3,5928.0,-864.9,-828.3,-881.4,-983.4,-1166.4,-729.9,-654.0,-6.6,-5.7,-961.5,-958.5,-0.9,-663.6,-1100.7,-864.3,0,990,0,88,0, 
0.5533,-573.3,-857.1,-768.3,-781.5,-789.6,-884.7,-782.7,-630.0,15042.3,-851.7,-791.7,-835.2,-976.8,-1171.5,-715.8,-643.2,-6.6,-6.0,-928.2,-908.1,-0.6,-644.7,-1090.8,-859.8,0,996,0,89,0, 
0.5567,-692.1,-839.7,-752.1,-766.2,-767.4,-868.8,-765.9,-606.9,-37642.8,-797.7,-748.2,-797.4,-954.6,-1162.2,-700.2,-636.6,-6.9,-6.0,-889.8,-899.1,-1.2,-603.0,-1077.3,-853.2,0,1002,0,90,0, 
0.5600,-690.6,-822.6,-728.7,-754.8,-756.6,-856.2,-759.3,-595.8,-78323.7,-804.9,-746.4,-794.4,-951.6,-1159.2,-698.1,-644.4,-6.6,-6.0,-882.6,-889.5,-0.6,-603.9,-1073.7,-849.6,0,1008,0,91,0, 
0.5633,-580.5,-851.1,-776.7,-784.5,-785.1,-876.0,-771.3,-618.3,-50906.7,-846.3,-798.9,-847.2,-979.5,-1170.3,-716.4,-637.5,-6.9,-6.0,-918.6,-934.8,-0.9,-626.4,-1086.3,-856.8,0,1014,0,92,0, 
0.5667,-507.3,-849.9,-790.2,-788.1,-789.0,-884.1,-789.9,-634.8,7113.6,-894.9,-811.2,-851.4,-1000.8,-1184.1,-744.6,-667.8,-6.9,-6.3,-946.2,-927.6,-0.9,-664.2,-1098.0,-863.4,0,1020,0,93,0, 
0.5700,-586.2,-897.9,-777.9,-785.7,-795.9,-886.8,-784.2,-630.6,15561.0,-841.8,-795.9,-830.7,-970.5,-1175.1,-728.1,-659.1,-7.2,-6.0,-929.7,-921.9,-0.9,-629.1,-1087.2,-858.0,0,1026,0,94,0, 
0.5733,-680.1,-823.8,-737.7,-757.5,-763.2,-860.7,-761.4,-597.3,-36975.9,-796.8,-741.9,-793.2,-950.7,-1164.3,-693.3,-644.7,-6.9,-6.0,-880.2,-890.7,-0.3,-589.2,-1073.7,-848.1,0,1032,0,95,0, 
0.5767,-684.6,-821.7,-735.6,-753.3,-758.1,-853.5,-753.3,-587.4,-78027.3,-789.6,-744.0,-792.0,-941.7,-1157.7,-700.2,-641.7,-6.9,-6.0,-879.3,-888.0,-0.3,-588.6,-1074.6,-841.2,0,1038,0,96,0, 
0.5800,-569.1,-833.1,-761.7,-770.1,-774.6,-869.1,-767.4,-607.2,-50536.2,-848.7,-788.4,-822.3,-961.8,-1167.3,-723.9,-652.8,-7.2,-6.0,-921.0,-918.6,-0.6,-644.1,-1084.8,-851.1,0,1044,0,97,0, 
0.5833,-501.6,-862.8,-783.3,-784.5,-791.4,-881.1,-785.4,-625.8,7484.1,-866.7,-810.3,-856.5,-969.9,-1180.5,-742.8,-670.8,-6.9,-6.0,-939.6,-945.0,-0.6,-669.6,-1098.0,-855.9,0,1050,0,98,0, 
0.5867,-572.4,-852.0,-767.4,-775.8,-786.6,-879.6,-777.3,-621.9,15931.5,-862.8,-786.0,-833.7,-964.5,-1166.7,-718.2,-646.8,-6.9,-6.0,-920.4,-920.7,-0.6,-627.3,-1078.8,-848.4,0,1056,0,99,0, 
0.5900,-691.5,-813.6,-726.3,-746.4,-756.6,-852.6,-757.5,-586.8,-37198.2,-806.7,-727.8,-783.6,-943.2,-1164.3,-713.7,-658.5,-6.6,-6.0,-869.7,-877.8,-0.3,-586.8,-1071.3,-835.8,0,1062,0,100,0, 
0.5933,-686.1,-802.8,-716.1,-739.5,-749.7,-843.9,-749.7,-576.3,-78323.7,-789.6,-731.7,-782.4,-924.9,-1154.1,-697.8,-644.1,-6.9,-6.3,-868.2,-875.1,-0.6,-594.3,-1073.4,-832.8,0,1068,0,101,0, 
0.5967,-572.1,-841.2,-750.9,-762.0,-776.7,-863.1,-769.5,-598.5,-50610.3,-824.1,-770.4,-831.9,-939.6,-1160.7,-719.7,-654.3,-6.6,-6.0,-899.4,-925.2,-0.9,-636.9,-1087.2,-849.0,0,1074,0,102,0, 
0.6000,-505.5,-863.1,-784.5,-781.5,-795.3,-880.2,-783.9,-623.7,6891.3,-866.4,-811.8,-851.1,-956.4,-1171.2,-738.6,-656.4,-6.6,-6.0,-942.0,-932.7,-0.9,-660.6,-1086.9,-853.5,0,1080,0,103,0, 
0.6033,-582.9,-854.1,-765.6,-771.9,-790.5,-873.6,-778.5,-615.3,14968.2,-844.2,-773.4,-830.7,-955.8,-1174.8,-724.8,-649.8,-6.6,-6.0,-903.6,-921.9,-0.3,-637.2,-1082.4,-849.6,0,1086,0,104,0, 
0.6067,-692.4,-823.2,-725.7,-749.4,-760.5,-851.4,-755.4,-583.2,-38013.3,-793.5,-737.4,-789.0,-942.9,-1161.3,-700.8,-635.7,-6.9,-5.7,-873.0,-885.0,-0.9,-595.2,-1067.4,-834.6,0,1092,0,105,0, 
0.6100,-683.1,-793.8,-713.1,-739.2,-746.7,-840.6,-753.6,-570.0,-78471.9,-792.0,-741.0,-780.6,-932.7,-1154.4,-696.9,-647.1,-6.6,-5.7,-870.6,-869.4,-0.6,-583.8,-1071.3,-830.7,0,1098,0,106,0, 
0.6133,-574.2,-847.8,-769.5,-762.3,-766.5,-856.5,-767.4,-600.3,-51129.0,-848.7,-779.7,-813.6,-951.6,-1170.0,-724.2,-645.0,-6.6,-5.7,-924.3,-891.6,-0.3,-627.6,-1083.3,-843.3,0,1104,0,107,0, 
0.6167,-515.4,-882.6,-799.8,-786.3,-795.9,-877.8,-787.2,-630.9,6965.4,-875.1,-811.8,-852.6,-976.2,-1181.7,-729.3,-644.7,-6.9,-5.7,-945.9,-938.1,-0.9,-675.0,-1094.4,-874.2,0,1110,0,108,0, 
0.6200,-577.8,-852.9,-762.6,-771.9,-787.5,-870.6,-782.7,-613.8,14597.7,-840.0,-787.5,-826.8,-957.0,-1170.0,-726.6,-667.2,-7.2,-5.7,-917.7,-928.5,-0.9,-638.4,-1085.7,-861.6,0,1116,0,109,0, 
0.6233,-687.9,-819.9,-734.1,-756.6,-770.7,-859.5,-766.2,-592.8,-38532.0,-789.0,-760.5,-794.4,-929.1,-1153.5,-684.0,-643.5,-6.9,-6.3,-893.1,-903.0,-0.6,-594.0,-1074.9,-844.2,0,1122,0,110,0, 
0.6267,-690.3,-817.5,-730.2,-742.2,-750.0,-841.8,-755.1,-581.7,-79731.6,-793.8,-740.4,-771.9,-937.8,-1163.4,-701.4,-638.7,-6.6,-5.7,-878.1,-875.7,-0.9,-603.0,-1065.0,-836.7,0,1128,0,111,0, 
0.6300,-578.4,-833.7,-759.3,-769.8,-779.4,-863.1,-771.3,-609.3,-52240.5,-846.9,-792.0,-833.7,-951.0,-1158.9,-713.4,-660.0,-6.6,-6.0,-927.3,-931.8,-0.9,-636.3,-1081.5,-850.2,0,1134,0,112,0, 
0.6333,-510.3,-867.0,-788.4,-784.5,-789.6,-879.0,-792.9,-629.4,5853.9,-870.6,-811.2,-847.5,-969.9,-1173.3,-739.2,-680.1,-6.9,-5.7,-946.8,-922.8,-1.2,-667.8,-1104.6,-852.0,0,1140,0,113,0, 
0.6367,-581.1,-853.5,-766.5,-777.0,-789.0,-873.3,-783.9,-620.7,12967.5,-847.2,-792.0,-830.1,-963.0,-1177.2,-726.9,-661.8,-6.9,-5.7,-937.5,-929.7,-0.6,-621.0,-1090.5,-847.8,0,1146,0,114,0, 
0.6400,-686.4,-809.7,-735.9,-756.3,-763.2,-848.1,-761.4,-597.3,-40384.5,-793.8,-735.3,-781.2,-940.2,-1161.9,-696.9,-637.2,-6.9,-6.0,-871.8,-878.4,-0.3,-580.8,-1066.8,-833.1,0,1152,0,115,0, 
0.6433,-699.0,-821.7,-736.5,-754.8,-756.0,-842.1,-759.3,-596.1,-81287.7,-789.0,-739.8,-777.9,-933.9,-1159.8,-696.9,-640.2,-6.9,-5.7,-888.9,-880.5,-0.6,-593.7,-1071.3,-834.6,0,1158,0,116,0, 
0.6467,-583.2,-860.1,-785.4,-782.4,-791.7,-863.1,-772.2,-623.4,-53648.4,-841.5,-776.7,-834.3,-946.2,-1161.9,-715.2,-654.0,-6.9,-5.7,-926.1,-944.1,-0.6,-629.4,-1086.9,-846.3,0,1164,0,117,0, 
0.6500,-519.6,-884.1,-804.6,-800.4,-808.5,-880.8,-790.2,-646.5,4371.9,-861.3,-816.3,-853.5,-977.7,-1176.9,-730.5,-658.5,-6.6,-6.0,-958.8,-944.7,-0.6,-663.3,-1097.1,-857.4,0,1170,0,118,0, 
0.6533,-590.1,-845.7,-768.9,-783.6,-796.8,-871.5,-781.5,-627.3,12300.6,-839.7,-795.0,-830.7,-948.9,-1170.9,-722.1,-657.6,-7.5,-6.3,-935.7,-923.1,-0.6,-633.0,-1086.6,-847.2,0,1176,0,119,0, 
0.6567,-702.6,-831.9,-742.2,-759.6,-765.6,-849.6,-759.9,-600.9,-40977.3,-798.3,-742.8,-781.8,-930.3,-1164.9,-699.3,-651.0,-7.2,-5.7,-899.1,-890.1,-0.6,-593.7,-1067.7,-837.0,0,1182,0,120,0, 
0.6600,-695.1,-805.8,-688.2,-747.9,-767.1,-848.4,-754.8,-590.7,-81806.4,-807.9,-742.2,-798.3,-950.4,-1167.6,-693.6,-636.3,-6.9,-6.0,-888.9,-915.6,-0.6,-582.6,-1066.2,-837.3,0,1188,0,121,0, 
0.6633,-586.2,-867.6,-820.8,-798.6,-795.3,-872.1,-776.1,-625.8,-54018.9,-825.0,-815.1,-833.7,-954.9,-1167.6,-714.3,-650.7,-7.2,-5.7,-963.3,-936.3,-0.6,-636.9,-1083.0,-855.3,0,1194,0,122,0, 
0.6667,-513.9,-888.3,-818.7,-805.8,-811.5,-886.2,-789.6,-642.6,4075.5,-850.5,-833.1,-870.6,-975.3,-1174.5,-730.8,-667.8,-6.6,-6.0,-973.2,-967.5,-0.6,-649.2,-1091.1,-860.4,0,1200,0,123,0, 
0.6700,-586.8,-865.8,-801.3,-801.6,-804.9,-884.1,-783.9,-635.7,11930.1,-836.4,-810.0,-858.3,-964.2,-1173.0,-712.5,-650.4,-6.9,-6.0,-955.5,-954.6,-0.6,-620.7,-1077.0,-850.8,0,1206,0,124,0, 
0.6733,-690.9,-821.7,-746.4,-767.1,-770.1,-855.0,-762.3,-598.8,-41421.9,-785.7,-747.6,-797.4,-934.5,-1156.5,-680.4,-641.1,-6.9,-6.0,-892.2,-908.7,-0.6,-574.2,-1062.3,-835.8,0,1212,0,125,0, 
0.6767,-689.1,-824.1,-748.8,-761.1,-759.0,-846.3,-752.1,-594.0,-81806.4,-777.9,-742.2,-783.9,-930.9,-1152.9,-683.4,-632.4,-7.2,-5.7,-894.6,-896.4,-0.3,-575.4,-1054.5,-830.1,0,1218,0,126,0, 
0.6800,-573.0,-837.6,-769.5,-777.6,-784.5,-864.6,-772.5,-612.0,-53129.7,-831.0,-783.3,-838.2,-949.2,-1165.2,-712.2,-650.1,-7.2,-6.0,-925.8,-937.2,-0.3,-627.6,-1075.8,-847.8,0,1224,0,127,0, 
0.6833,-511.2,-868.2,-788.1,-792.6,-802.8,-884.4,-789.6,-632.1,5631.6,-865.5,-822.3,-864.6,-969.3,-1169.7,-735.9,-674.4,-6.9,-6.3,-958.5,-951.6,-0.6,-660.9,-1093.8,-859.2,0,1230,0,128,0, 
0.6867,-567.6,-777.9,-705.9,-757.2,-777.0,-874.8,-788.4,-607.8,13782.6,-884.4,-776.7,-818.1,-962.4,-1172.4,-729.3,-671.7,-6.9,-6.0,-906.0,-893.1,-0.3,-654.6,-1099.5,-859.8,0,1236,0,129,0, 
0.6900,-694.5,-840.9,-763.8,-771.9,-774.9,-863.1,-765.3,-600.0,-38902.5,-771.0,-751.2,-791.4,-920.4,-1159.8,-688.8,-642.6,-6.9,-5.7,-924.6,-893.7,-0.9,-594.0,-1072.2,-847.8,0,1242,0,130,0, 
0.6933,-691.2,-830.1,-736.2,-762.9,-774.6,-856.8,-757.5,-595.5,-78694.2,-765.0,-754.2,-809.7,-916.2,-1151.4,-687.3,-633.0,-6.6,-5.7,-906.3,-940.2,-0.6,-577.5,-1060.2,-844.5,0,1248,0,131,0, 
0.6967,-567.0,-798.0,-749.7,-777.9,-792.0,-876.3,-780.3,-612.0,-48757.8,-832.8,-807.0,-849.3,-975.9,-1164.3,-711.3,-648.0,-6.9,-5.7,-954.0,-942.9,0.0,-640.2,-1095.3,-864.9,0,1254,0,132,0, 
0.7000,-507.6,-900.0,-788.7,-793.2,-805.5,-884.7,-789.9,-633.9,10966.8,-858.6,-811.2,-855.9,-955.2,-1171.8,-732.3,-660.0,-6.9,-5.7,-951.9,-973.5,-0.6,-670.5,-1093.8,-868.5,0,1260,0,133,0, 
0.7033,-579.0,-885.9,-817.2,-802.2,-812.4,-888.0,-781.2,-634.5,20229.3,-828.9,-799.2,-832.2,-939.9,-1166.4,-706.2,-633.0,-6.6,-6.0,-927.9,-937.5,-0.6,-618.0,-1069.2,-856.5,0,1266,0,134,0, 
0.7067,-682.8,-819.6,-737.4,-756.3,-770.4,-858.0,-765.9,-591.3,-31196.1,-783.3,-746.7,-783.9,-948.9,-1148.1,-691.2,-663.9,-7.2,-6.3,-908.4,-894.6,-0.6,-587.7,-1077.0,-845.1,0,1272,0,135,0, 
0.7100,-676.8,-797.1,-742.8,-768.6,-773.4,-858.0,-759.9,-598.5,-69283.5,-817.5,-783.6,-816.3,-962.4,-1151.4,-678.6,-619.5,-6.9,-6.0,-933.3,-904.5,-0.6,-610.5,-1061.4,-855.3,0,1278,0,136,0, 
0.7133,-548.1,-819.3,-801.0,-787.8,-792.0,-873.0,-782.1,-617.4,-37716.9,-859.5,-797.4,-857.4,-1029.6,-1153.8,-720.0,-681.9,-7.2,-5.7,-963.9,-957.9,-0.6,-645.9,-1099.8,-867.3,0,1284,0,137,0, 
0.7167,-489.6,-832.8,-738.0,-779.7,-800.4,-888.9,-796.2,-628.8,22822.8,-879.6,-816.9,-871.8,-968.1,-1162.8,-748.2,-692.1,-6.9,-5.7,-950.1,-953.1,-0.6,-668.4,-1107.0,-870.6,0,1290,0,138,0, 
0.7200,-597.0,-919.8,-830.7,-803.4,-804.3,-881.1,-781.2,-636.9,32529.9,-789.9,-806.4,-850.5,-911.4,-1188.9,-712.2,-654.9,-7.2,-6.0,-982.5,-948.9,-1.2,-602.1,-1076.4,-849.0,0,1296,0,139,0, 
0.7233,-682.5,-816.0,-706.2,-750.3,-759.3,-848.4,-756.9,-593.4,-19562.4,-780.0,-742.2,-790.8,-907.5,-1156.8,-694.5,-654.6,-6.9,-6.0,-861.6,-890.7,-0.6,-576.6,-1067.7,-840.6,0,1302,0,140,0, 
0.7267,-684.0,-829.8,-749.7,-757.5,-757.5,-845.7,-749.4,-589.5,-58020.3,-775.8,-753.0,-780.9,-897.0,-1154.4,-686.4,-646.8,-6.9,-5.7,-929.1,-889.5,-0.6,-575.1,-1067.1,-844.5,0,1308,0,141,0, 
0.7300,-564.0,-849.6,-751.5,-773.1,-780.6,-863.1,-767.1,-610.2,-28232.1,-814.5,-777.3,-830.4,-955.2,-1164.3,-711.6,-655.2,-6.9,-6.0,-931.2,-931.8,-0.6,-626.1,-1079.4,-860.1,0,1314,0,142,0, 
0.7333,-486.9,-789.0,-724.5,-781.8,-806.4,-891.3,-792.0,-626.4,31566.6,-883.2,-818.1,-871.8,-967.2,-1165.8,-733.5,-677.1,-7.5,-5.4,-979.8,-966.3,-0.9,-671.7,-1101.9,-868.5,0,1320,0,143,0, 
0.7367,-571.2,-844.5,-754.5,-776.4,-783.6,-878.1,-781.2,-623.1,39124.8,-829.8,-774.6,-824.7,-987.6,-1176.0,-725.1,-663.6,-6.9,-5.7,-912.6,-911.7,-0.9,-639.3,-1083.6,-851.7,0,1326,0,144,0, 
0.7400,-667.8,-817.5,-781.5,-777.9,-769.5,-859.5,-763.2,-606.3,-14449.5,-771.0,-759.6,-804.0,-984.3,-1137.0,-694.5,-650.1,-7.2,-5.4,-901.2,-909.3,-0.9,-583.2,-1067.7,-843.9,0,1332,0,145,0, 
0.7433,-681.6,-841.5,-693.0,-739.8,-744.0,-839.7,-751.5,-583.8,-54834.0,-784.2,-714.0,-777.6,-912.9,-1154.1,-689.7,-644.4,-7.2,-5.7,-847.5,-884.1,-0.6,-585.6,-1059.9,-835.8,0,1338,0,146,0, 
0.7467,-544.2,-734.7,-693.0,-768.9,-785.7,-873.3,-778.5,-599.1,-24601.2,-847.5,-822.9,-868.5,-916.5,-1143.3,-715.2,-663.3,-7.2,-6.0,-1017.6,-970.2,-0.9,-627.0,-1090.5,-854.7,0,1344,0,147,0, 
0.7500,-511.2,-928.8,-801.9,-791.4,-787.2,-882.0,-781.5,-638.4,33937.8,-809.4,-797.1,-846.0,-959.1,-1182.3,-728.4,-658.2,-6.9,-6.0,-930.0,-925.5,-0.9,-642.6,-1076.1,-847.8,0,1350,0,148,0, 
0.7533,-562.2,-840.0,-789.6,-800.7,-804.0,-887.7,-783.0,-628.5,40680.9,-821.4,-807.3,-844.5,-942.9,-1147.2,-712.5,-657.3,-6.9,-5.7,-977.4,-944.1,-0.3,-625.8,-1079.1,-855.6,0,1356,0,149,0, 
0.7567,-699.3,-891.0,-785.1,-775.8,-752.1,-851.1,-754.5,-606.6,-13412.1,-752.1,-733.2,-781.2,-933.0,-1158.3,-686.1,-642.9,-7.2,-6.3,-917.4,-863.4,-0.6,-557.7,-1060.5,-823.8,0,1362,0,150,0, 
0.7600,-677.1,-795.0,-704.1,-762.3,-764.4,-858.0,-749.1,-586.5,-53277.9,-796.8,-753.0,-788.1,-922.2,-1147.2,-681.6,-629.7,-7.2,-6.0,-942.3,-892.8,-0.9,-608.7,-1058.7,-848.1,0,1368,0,151,0, 
0.7633,-564.6,-861.0,-744.6,-790.8,-796.5,-879.9,-770.4,-618.3,-23563.8,-816.6,-793.2,-858.9,-956.7,-1147.2,-693.6,-651.6,-6.9,-5.7,-934.5,-986.4,-0.6,-626.4,-1079.1,-858.3,0,1374,0,152,0, 
0.7667,-493.2,-777.6,-734.4,-792.9,-809.1,-887.1,-778.5,-623.1,34752.9,-887.4,-823.5,-881.1,-988.5,-1170.3,-734.7,-663.3,-7.5,-5.7,-990.6,-977.7,-0.6,-660.9,-1084.8,-852.3,0,1380,0,153,0, 
0.7700,-585.9,-914.1,-820.5,-796.5,-783.0,-875.7,-774.3,-625.2,40680.9,-788.7,-783.6,-824.7,-930.3,-1155.9,-718.8,-673.5,-6.9,-5.4,-951.0,-892.2,-0.6,-623.7,-1089.6,-851.7,0,1386,0,154,0, 
0.7733,-698.4,-840.9,-781.8,-771.9,-747.6,-845.7,-749.7,-594.6,-14597.7,-753.6,-747.3,-788.4,-931.8,-1153.2,-697.2,-645.6,-6.6,-6.0,-930.6,-873.0,-0.6,-587.1,-1058.7,-832.8,0,1392,0,155,0, 
0.7767,-674.1,-806.7,-716.4,-756.0,-761.4,-849.0,-744.9,-580.8,-54611.7,-773.1,-732.9,-796.5,-961.8,-1139.7,-699.0,-661.5,-6.9,-6.0,-885.3,-923.7,-0.9,-550.2,-1063.2,-831.3,0,1398,0,156,0, 
0.7800,-572.7,-847.2,-750.3,-776.7,-776.1,-863.7,-757.8,-609.0,-24082.5,-812.1,-787.2,-838.2,-912.6,-1165.2,-719.4,-653.4,-6.9,-5.7,-951.9,-939.3,-0.9,-608.1,-1065.9,-841.8,0,1404,0,157,0, 
0.7833,-514.8,-906.6,-837.0,-809.7,-795.9,-885.6,-777.6,-639.6,34901.1,-825.9,-830.4,-851.7,-991.5,-1174.5,-738.6,-670.8,-6.9,-6.0,-1020.9,-936.9,-0.3,-657.0,-1080.9,-858.6,0,1410,0,158,0, 
0.7867,-582.0,-818.7,-659.4,-753.9,-772.2,-871.2,-775.2,-605.1,40236.3,-871.5,-763.5,-824.7,-952.5,-1177.5,-734.7,-686.4,-7.5,-6.0,-889.8,-926.1,-0.6,-639.6,-1094.7,-852.9,0,1416,0,159,0, 
0.7900,-692.4,-806.7,-793.2,-786.3,-771.9,-857.7,-756.3,-596.4,-17117.1,-734.4,-779.7,-805.5,-961.5,-1143.6,-685.5,-659.4,-6.9,-6.3,-1023.3,-910.2,-0.6,-570.0,-1071.0,-846.9,0,1422,0,160,0, 
0.7933,-679.5,-765.3,-574.2,-710.4,-735.3,-845.4,-751.5,-565.2,-56982.9,-798.6,-699.9,-788.4,-962.7,-1168.8,-712.5,-661.5,-6.6,-5.7,-830.4,-890.1,-0.9,-593.1,-1072.8,-843.3,0,1428,0,161,0, 
0.7967,-578.7,-940.8,-928.5,-831.6,-784.2,-867.3,-766.8,-635.7,-23489.7,-775.8,-838.8,-843.9,-957.9,-1160.7,-711.0,-655.2,-7.2,-6.0,-1097.7,-923.4,-0.6,-594.6,-1065.9,-840.6,0,1434,0,162,0, 
0.8000,-489.9,-839.4,-735.0,-778.5,-781.5,-877.8,-791.7,-626.1,36679.5,-856.8,-803.1,-854.7,-969.3,-1168.2,-742.2,-684.0,-6.9,-5.7,-969.0,-933.0,-0.6,-663.3,-1101.9,-859.8,0,1440,0,163,0, 
0.8033,-572.4,-809.7,-771.6,-792.3,-789.6,-873.6,-783.9,-623.7,41273.7,-810.6,-816.9,-844.5,-962.1,-1161.6,-717.3,-660.0,-6.9,-5.7,-1035.0,-930.0,-0.6,-605.4,-1082.7,-851.7,0,1446,0,164,0, 
0.8067,-705.6,-877.8,-770.4,-769.5,-759.3,-844.8,-760.5,-602.7,-16672.5,-739.2,-732.3,-788.4,-937.2,-1157.7,-690.3,-651.0,-6.6,-5.7,-889.5,-889.2,-0.9,-569.4,-1065.6,-837.0,0,1452,0,165,0, 
0.8100,-686.1,-831.6,-764.1,-758.4,-736.8,-819.3,-754.8,-591.6,-55945.5,-754.2,-744.0,-772.5,-924.0,-1148.1,-694.2,-655.8,-6.9,-6.0,-935.1,-829.8,-0.3,-594.0,-1066.8,-832.5,0,1458,0,166,0, 
0.8133,-555.3,-774.6,-670.5,-749.7,-760.2,-879.0,-780.0,-600.3,-22600.5,-835.2,-768.3,-823.5,-970.8,-1172.7,-729.0,-675.0,-7.2,-5.7,-948.9,-922.8,-0.9,-655.5,-1091.4,-858.3,0,1464,0,167,0, 
0.8167,-500.4,-923.1,-854.1,-819.6,-796.5,-882.0,-784.8,-650.4,37791.0,-809.4,-841.5,-879.0,-960.6,-1171.5,-728.4,-658.8,-6.9,-6.0,-1047.0,-958.2,-0.3,-609.3,-1080.3,-842.4,0,1470,0,168,0, 
0.8200,-561.9,-783.9,-691.8,-753.0,-754.5,-875.4,-782.4,-612.6,41792.4,-857.4,-746.4,-807.3,-1003.8,-1165.8,-727.8,-680.7,-6.9,-6.0,-907.2,-883.8,-0.3,-647.1,-1090.5,-846.6,0,1476,0,169,0, 
0.8233,-683.4,-810.6,-761.7,-771.9,-755.7,-852.9,-759.0,-603.9,-16450.2,-761.4,-751.5,-801.3,-914.1,-1142.1,-687.0,-651.9,-6.9,-5.7,-944.1,-906.3,-0.6,-551.7,-1063.8,-828.6,0,1482,0,170,0, 
0.8267,-694.5,-847.8,-748.5,-764.4,-746.7,-847.8,-753.0,-603.3,-56538.3,-720.9,-751.5,-799.5,-913.5,-1155.0,-691.5,-648.9,-6.6,-5.7,-930.3,-919.8,-0.9,-556.8,-1056.9,-823.5,0,1488,0,171,0, 
0.8300,-562.8,-875.1,-783.0,-777.3,-755.7,-854.4,-763.2,-621.9,-23563.8,-777.0,-804.6,-837.0,-922.8,-1155.0,-713.7,-660.3,-6.9,-6.0,-978.9,-902.4,-0.6,-606.0,-1076.1,-828.0,0,1494,0,172,0, 
0.8333,-502.5,-879.6,-782.7,-793.2,-780.3,-875.1,-783.6,-639.6,37124.1,-819.6,-827.1,-868.5,-966.6,-1173.3,-734.7,-672.6,-6.9,-5.7,-1017.9,-937.5,-0.6,-639.3,-1086.9,-843.3,0,1500,0,173,0, 
0.8367,-579.0,-860.7,-786.9,-786.6,-771.6,-865.2,-777.6,-628.8,41644.2,-808.2,-806.1,-829.5,-967.2,-1164.6,-717.0,-675.3,-6.9,-6.0,-991.8,-915.6,-0.6,-619.8,-1083.6,-840.9,0,1506,0,174,0, 
0.8400,-689.7,-821.7,-706.8,-748.2,-742.5,-834.3,-750.9,-591.9,-16376.1,-755.7,-742.5,-780.0,-942.6,-1146.9,-688.8,-657.9,-7.2,-6.0,-927.9,-880.8,-0.6,-570.6,-1064.1,-823.8,0,1512,0,175,0, 
0.8433,-677.1,-817.8,-749.1,-758.7,-742.2,-831.6,-744.0,-591.6,-56019.6,-734.7,-747.6,-787.2,-951.0,-1140.3,-682.8,-651.0,-6.9,-6.0,-955.5,-899.4,-0.6,-558.0,-1056.0,-821.4,0,1518,0,176,0, 
0.8467,-563.4,-807.6,-723.3,-757.8,-743.7,-840.6,-759.3,-602.1,-22600.5,-802.2,-802.2,-814.8,-943.5,-1154.4,-714.3,-667.8,-6.9,-5.7,-1011.6,-880.5,-0.6,-628.8,-1068.9,-828.9,0,1524,0,177,0, 
0.8500,-505.2,-874.5,-801.3,-781.8,-771.3,-856.2,-775.8,-631.2,38013.3,-844.2,-777.0,-841.5,-952.2,-1167.9,-739.5,-676.5,-7.2,-5.4,-929.1,-924.6,-0.6,-641.7,-1079.4,-831.6,0,1530,0,178,0, 
0.8533,-589.5,-865.8,-754.2,-777.9,-773.1,-852.0,-765.9,-620.1,41940.6,-788.7,-784.2,-841.5,-956.4,-1156.8,-708.3,-654.3,-6.9,-5.7,-952.2,-904.5,-0.9,-583.5,-1056.9,-824.1,0,1536,0,179,0, 
0.8567,-700.5,-822.9,-729.0,-753.6,-745.5,-813.6,-747.6,-592.2,-16153.8,-732.6,-731.4,-788.1,-923.4,-1145.4,-693.0,-649.2,-6.9,-5.7,-936.0,-907.2,-0.6,-582.0,-1055.1,-838.2,0,1542,0,180,0, 
0.8600,-685.8,-806.7,-705.6,-744.6,-734.7,-812.1,-742.8,-583.5,-55871.4,-763.2,-754.5,-778.5,-942.0,-1142.4,-698.1,-649.8,-6.9,-5.7,-947.1,-867.6,0.0,-558.3,-1045.8,-811.8,0,1548,0,181,0, 
0.8633,-572.1,-876.3,-783.9,-780.9,-774.3,-859.8,-764.7,-621.6,-22081.8,-771.0,-795.3,-841.8,-941.4,-1148.4,-708.3,-645.6,-7.5,-6.3,-961.5,-914.1,-0.6,-597.0,-1061.4,-835.2,0,1554,0,182,0, 
0.8667,-498.3,-818.4,-744.0,-770.1,-750.6,-846.3,-775.8,-620.4,37939.2,-854.7,-809.1,-842.7,-980.4,-1163.1,-728.7,-680.4,-6.6,-6.3,-1003.8,-872.1,-0.3,-663.6,-1083.9,-842.1,0,1560,0,183,0, 
0.8700,-585.3,-848.1,-741.9,-775.8,-784.2,-866.7,-776.4,-622.2,42162.9,-782.7,-779.1,-838.5,-946.5,-1152.3,-715.2,-669.3,-7.2,-6.0,-947.7,-939.3,-0.9,-600.6,-1074.9,-856.8,0,1566,0,184,0, 
0.8733,-706.8,-889.5,-805.5,-786.9,-784.5,-852.0,-746.7,-610.5,-15116.4,-740.4,-746.4,-798.0,-948.9,-1146.9,-690.0,-633.9,-6.9,-6.0,-950.7,-952.2,-0.6,-543.3,-1036.8,-826.8,0,1572,0,185,0, 
0.8767,-668.1,-727.5,-618.9,-717.6,-735.9,-834.6,-745.5,-569.7,-54908.1,-802.8,-723.0,-788.1,-945.3,-1152.0,-711.9,-655.8,-7.2,-6.0,-884.4,-897.3,-0.9,-610.8,-1059.0,-838.8,0,1578,0,186,0, 
0.8800,-542.4,-789.6,-702.9,-772.2,-781.8,-866.1,-768.0,-609.0,-21044.4,-808.5,-824.4,-863.4,-1016.1,-1132.2,-704.7,-656.1,-6.9,-6.3,-1016.7,-944.4,-0.3,-606.9,-1066.8,-843.3,0,1584,0,187,0, 
0.8833,-498.0,-888.6,-843.3,-805.5,-788.7,-873.6,-781.8,-638.1,39495.3,-814.5,-823.2,-847.8,-960.0,-1168.8,-737.4,-678.9,-6.9,-5.4,-1034.7,-915.6,-0.9,-635.1,-1089.3,-846.6,0,1590,0,188,0, 
0.8867,-579.3,-844.2,-738.6,-773.1,-775.5,-864.6,-771.6,-620.4,43052.1,-811.2,-764.7,-834.6,-988.8,-1159.8,-718.5,-654.0,-7.2,-6.0,-925.8,-926.4,-0.6,-612.3,-1064.4,-842.7,0,1596,0,189,0, 
0.8900,-686.4,-776.1,-646.5,-723.9,-717.3,-831.6,-754.8,-578.4,-15190.5,-801.3,-730.2,-747.3,-971.7,-1152.3,-691.8,-654.3,-6.6,-5.7,-933.9,-805.8,-1.2,-607.2,-1067.1,-830.1,0,1602,0,190,0, 
0.8933,-688.8,-891.9,-825.0,-773.7,-740.1,-824.4,-747.0,-599.1,-55204.5,-659.7,-751.8,-792.6,-886.2,-1131.0,-690.6,-645.6,-7.2,-5.7,-946.2,-874.8,-0.9,-521.7,-1046.1,-805.8,0,1608,0,191,0, 
0.8967,-556.2,-791.4,-700.8,-755.1,-769.2,-853.2,-769.8,-602.1,-21933.6,-793.5,-774.3,-845.1,-955.2,-1145.7,-713.4,-664.5,-6.6,-5.7,-947.4,-968.4,-0.9,-587.7,-1075.2,-835.2,0,1614,0,192,0, 
0.9000,-487.2,-847.5,-696.9,-742.8,-737.1,-817.5,-778.2,-605.4,39347.1,-867.0,-767.7,-828.6,-961.8,-1162.5,-746.7,-691.5,-7.2,-6.0,-914.4,-880.2,-0.3,-655.8,-1094.1,-837.6,0,1620,0,193,0, 
0.9033,-583.8,-847.8,-769.8,-772.5,-772.8,-866.7,-772.2,-616.5,42755.7,-765.9,-766.8,-824.7,-949.5,-1156.5,-716.1,-657.9,-6.9,-5.7,-928.5,-929.4,-0.6,-581.7,-1061.1,-827.4,0,1626,0,194,0, 
0.9067,-686.1,-777.6,-719.4,-749.4,-752.7,-833.4,-746.1,-582.0,-14968.2,-709.2,-760.2,-795.0,-913.8,-1133.1,-692.1,-643.5,-6.9,-5.7,-989.1,-877.5,-0.6,-543.6,-1047.0,-813.3,0,1632,0,195,0, 
0.9100,-683.1,-827.4,-750.9,-749.4,-730.8,-824.1,-744.0,-584.4,-54537.6,-714.9,-735.6,-781.8,-876.6,-1129.8,-684.0,-633.3,-7.2,-6.0,-950.7,-855.9,-0.9,-538.2,-1049.1,-811.8,0,1638,0,196,0, 
0.9133,-567.6,-883.8,-756.0,-747.3,-725.4,-818.1,-754.5,-597.3,-20896.2,-747.0,-761.1,-788.4,-954.0,-1147.8,-712.5,-652.8,-7.2,-5.4,-967.8,-846.3,-0.9,-588.9,-1062.9,-801.9,0,1644,0,197,0, 
0.9167,-483.9,-807.6,-712.2,-754.5,-773.4,-849.3,-775.2,-607.2,39421.2,-834.3,-762.9,-834.6,-916.2,-1145.4,-724.5,-676.8,-6.9,-6.0,-907.5,-917.7,-0.6,-613.2,-1077.3,-818.4,0,1650,0,198,0, 
0.9200,-568.2,-729.9,-601.5,-707.1,-738.3,-837.6,-768.3,-583.2,43867.2,-814.5,-696.9,-787.5,-999.0,-1145.7,-721.2,-672.9,-6.9,-5.7,-813.6,-882.9,-0.9,-609.9,-1074.6,-826.8,0,1656,0,199,0, 
0.9233,-696.9,-867.0,-817.5,-772.5,-756.6,-819.0,-743.7,-594.3,-14449.5,-652.8,-743.1,-764.1,-893.1,-1121.4,-670.5,-629.7,-6.6,-5.4,-979.8,-886.2,-0.9,-497.7,-1026.3,-789.9,0,1662,0,200,0, 
0.9267,-676.2,-804.9,-652.8,-708.0,-712.2,-808.2,-741.9,-560.1,-53944.8,-733.8,-680.4,-736.5,-880.8,-1137.6,-693.9,-645.0,-6.9,-5.4,-837.3,-845.4,-0.6,-556.2,-1046.1,-807.9,0,1668,0,201,0, 
0.9300,-553.5,-856.5,-756.9,-759.9,-747.0,-795.3,-755.7,-597.9,-19710.6,-761.1,-776.7,-815.1,-910.2,-1146.0,-708.6,-642.3,-7.8,-5.7,-1004.7,-905.1,-0.6,-581.4,-1047.9,-812.7,0,1674,0,202,0, 
0.9333,-487.2,-810.3,-673.8,-736.5,-736.2,-833.4,-772.8,-603.0,40384.5,-822.9,-766.8,-813.9,-979.8,-1163.1,-735.6,-665.4,-6.9,-6.0,-921.6,-831.9,-0.6,-599.1,-1065.3,-810.0,0,1680,0,203,0, 
0.9367,-570.0,-816.3,-693.6,-750.0,-770.4,-852.3,-770.4,-604.5,43941.3,-786.0,-731.7,-813.3,-971.4,-1158.6,-719.1,-651.9,-6.9,-6.0,-873.9,-950.7,-0.6,-584.4,-1062.0,-818.4,0,1686,0,204,0, 
0.9400,-692.1,-846.0,-792.0,-764.1,-736.8,-819.0,-747.0,-591.6,-13412.1,-701.7,-757.2,-762.6,-935.1,-1137.0,-686.7,-636.9,-6.6,-6.0,-1042.5,-843.3,-0.9,-524.4,-1038.9,-813.3,0,1692,0,205,0, 
0.9433,-690.3,-849.6,-732.3,-746.4,-729.0,-812.4,-738.9,-576.3,-52314.6,-692.1,-746.4,-774.6,-887.1,-1140.9,-686.4,-633.6,-6.9,-6.0,-972.0,-886.5,-0.6,-554.7,-1031.7,-810.3,0,1698,0,206,0, 
0.9467,-565.5,-855.9,-794.7,-765.9,-726.6,-824.4,-759.3,-602.1,-18525.0,-783.6,-774.9,-807.6,-958.2,-1156.5,-713.1,-657.6,-7.2,-6.0,-920.1,-870.6,-0.6,-587.7,-1056.6,-822.9,0,1704,0,207,0, 
0.9500,-491.1,-810.9,-736.2,-778.8,-810.9,-857.7,-778.8,-613.2,40977.3,-827.1,-797.7,-878.7,-948.3,-1167.0,-732.0,-662.1,-7.2,-5.7,-945.0,-969.9,-0.3,-621.0,-1071.0,-838.8,0,1710,0,208,0, 
0.9533,-578.1,-852.6,-765.9,-782.4,-779.1,-852.9,-768.9,-611.7,43867.2,-770.4,-810.3,-823.5,-972.9,-1157.1,-703.5,-633.9,-6.6,-5.7,-1060.5,-915.3,-0.6,-613.8,-1048.5,-835.5,0,1716,0,209,0, 
0.9567,-694.8,-802.2,-673.2,-734.4,-739.2,-817.5,-747.6,-574.2,-13634.4,-765.6,-712.2,-767.4,-966.3,-1158.9,-701.1,-643.5,-7.2,-6.0,-874.8,-849.6,-0.6,-571.2,-1034.4,-818.7,0,1722,0,210,0, 
0.9600,-681.6,-816.9,-676.8,-734.7,-744.9,-819.0,-747.6,-571.5,-52536.9,-736.8,-705.3,-782.7,-914.7,-1150.2,-699.0,-645.3,-7.2,-6.0,-859.5,-920.4,-0.6,-556.8,-1041.6,-822.0,0,1728,0,211,0, 
0.9633,-550.8,-825.6,-799.2,-782.4,-776.1,-840.6,-761.4,-604.8,-19266.0,-771.9,-788.7,-826.5,-967.5,-1154.4,-732.0,-662.4,-7.2,-5.7,-1024.2,-939.0,-0.9,-580.5,-1060.8,-829.2,0,1734,0,212,0, 
0.9667,-490.2,-803.1,-714.9,-771.0,-777.3,-834.9,-772.2,-610.2,39717.6,-862.5,-812.1,-854.1,-1038.6,-1177.8,-738.6,-645.3,-6.9,-6.0,-985.2,-936.0,-0.6,-636.3,-1059.3,-843.3,0,1740,0,213,0, 
0.9700,-610.2,-936.9,-777.3,-776.7,-767.4,-816.9,-763.2,-609.3,42385.2,-772.8,-762.6,-803.4,-904.2,-1185.0,-729.6,-645.9,-6.6,-6.0,-979.2,-899.1,-0.9,-585.3,-1048.2,-841.2,0,1746,0,214,0, 
0.9733,-693.3,-832.8,-759.9,-751.2,-727.5,-824.1,-750.9,-579.6,-15412.8,-748.2,-730.8,-753.6,-936.6,-1149.9,-701.7,-654.6,-6.6,-6.0,-946.2,-820.8,-0.6,-567.0,-1048.8,-821.1,0,1752,0,215,0, 
0.9767,-685.5,-807.9,-640.5,-704.7,-689.7,-792.3,-737.7,-563.1,-54315.3,-723.9,-699.9,-715.5,-926.7,-1158.9,-704.1,-659.4,-6.9,-6.3,-799.2,-704.7,-0.9,-553.8,-1042.2,-818.4,0,1758,0,216,0, 
0.9800,-564.3,-838.2,-766.8,-778.2,-767.4,-831.9,-759.0,-600.9,-21044.4,-809.1,-830.7,-851.7,-959.1,-1155.3,-707.1,-661.2,-6.9,-6.0,-1165.5,-1038.9,-0.6,-623.7,-1070.7,-828.3,0,1764,0,217,0, 
0.9833,-522.0,-939.6,-868.5,-819.0,-812.7,-866.1,-771.6,-642.3,37939.2,-789.6,-822.3,-870.6,-1003.8,-1181.7,-719.1,-655.2,-6.9,-6.0,-974.1,-1002.9,-0.9,-589.2,-1054.2,-826.5,0,1770,0,218,0, 
0.9867,-566.4,-729.6,-589.5,-720.9,-739.2,-839.4,-765.0,-579.9,41421.9,-870.0,-765.3,-794.1,-940.2,-1179.0,-743.4,-668.7,-6.9,-5.7,-1034.4,-871.5,-0.6,-660.9,-1070.7,-854.7,0,1776,0,219,0, 
0.9900,-698.4,-814.2,-733.5,-735.0,-718.5,-799.2,-741.3,-569.4,-16302.0,-697.2,-680.7,-738.0,-980.4,-1164.3,-712.8,-652.5,-6.9,-6.6,-809.1,-836.1,-0.6,-543.3,-1044.9,-808.2,0,1782,0,220,0, 
0.9933,-678.9,-880.8,-788.7,-770.1,-760.2,-834.6,-738.9,-588.3,-55056.3,-718.2,-732.9,-801.3,-931.8,-1139.1,-690.9,-641.1,-6.9,-5.4,-966.9,-952.5,-0.6,-507.3,-1035.9,-803.7,0,1788,0,221,0, 
0.9967,-528.3,-601.2,-309.0,-613.2,-684.9,-813.6,-755.4,-527.7,-21489.0,-947.1,-588.6,-739.2,-1090.8,-1187.4,-756.0,-699.3,-7.2,-5.7,-325.2,-849.0,-0.3,-661.5,-1090.5,-834.3,0,1794,0,222,0, 
1.0000,-502.5,-890.4,-813.6,-807.3,-776.4,-861.3,-769.8,-623.7,37420.5,-751.8,-939.6,-870.0,-954.3,-1165.5,-739.2,-662.4,-6.9,-5.7,-1524.9,-946.2,-0.6,-582.9,-1066.8,-838.5,0,1800,0,223,0, 
1.0033,-607.8,-1030.8,-965.1,-826.8,-789.9,-855.0,-758.7,-645.9,40310.4,-692.7,-752.4,-798.9,-884.7,-1152.0,-705.3,-639.0,-6.9,-6.3,-906.3,-913.2,-0.6,-548.4,-1035.0,-817.2,0,1806,0,224,0, 
1.0067,-681.3,-761.1,-675.3,-724.2,-715.8,-806.1,-738.6,-570.3,-16227.9,-734.1,-726.9,-736.8,-913.5,-1150.8,-694.5,-647.1,-7.5,-5.7,-993.3,-796.2,-0.6,-558.0,-1047.6,-814.8,0,1812,0,225,0, 
1.0100,-686.1,-870.3,-822.9,-774.6,-735.3,-810.0,-731.7,-591.0,-54611.7,-670.8,-761.4,-799.5,-918.3,-1134.3,-676.2,-629.4,-6.9,-6.0,-958.5,-941.4,-0.6,-507.9,-1032.0,-816.6,0,1818,0,226,0, 
1.0133,-544.8,-807.9,-750.9,-754.2,-752.4,-858.9,-754.2,-591.0,-21414.9,-758.7,-765.3,-805.8,-936.9,-1141.2,-717.3,-661.2,-6.6,-5.7,-976.5,-914.1,-0.9,-601.5,-1070.1,-839.1,0,1824,0,227,0, 
1.0167,-487.2,-804.3,-611.7,-737.1,-766.8,-841.2,-768.9,-596.4,36605.4,-897.9,-770.4,-844.2,-972.3,-1163.7,-735.6,-673.5,-6.9,-6.0,-934.8,-1032.6,-0.6,-654.9,-1080.3,-854.1,0,1830,0,228,0, 
1.0200,-562.2,-759.3,-578.4,-724.8,-764.4,-843.6,-760.8,-590.1,39495.3,-867.9,-728.7,-852.6,-997.8,-1163.7,-724.5,-657.3,-6.6,-6.0,-804.3,-1035.3,-0.6,-594.0,-1048.2,-831.6,0,1836,0,229,0, 
1.0233,-699.3,-904.5,-919.2,-815.4,-768.3,-833.7,-738.6,-606.0,-17117.1,-602.7,-846.9,-791.1,-892.2,-1133.7,-673.2,-618.9,-7.2,-5.7,-1187.7,-840.6,-0.9,-509.4,-1023.6,-813.6,0,1842,0,230,0, 
1.0267,-675.0,-828.6,-776.7,-754.5,-735.0,-819.3,-740.1,-580.8,-55204.5,-717.9,-706.2,-751.2,-897.6,-1136.7,-688.2,-640.2,-6.9,-5.7,-869.4,-876.0,0.0,-553.2,-1056.6,-813.0,0,1848,0,231,0, 
1.0300,-532.5,-765.3,-762.6,-783.6,-790.5,-847.5,-756.9,-598.5,-22452.3,-791.1,-786.3,-847.8,-990.6,-1144.2,-732.6,-643.2,-7.2,-6.0,-1008.0,-967.2,-0.9,-601.8,-1057.5,-841.5,0,1854,0,232,0, 
1.0333,-499.2,-924.3,-798.9,-775.5,-760.5,-843.0,-771.3,-626.1,36160.8,-799.2,-716.7,-784.5,-954.6,-1163.4,-726.3,-662.4,-7.2,-5.4,-826.5,-871.5,-0.6,-642.3,-1068.6,-827.7,0,1860,0,233,0, 
1.0367,-570.6,-864.3,-676.5,-761.1,-785.1,-846.9,-765.9,-607.5,39643.5,-762.6,-761.7,-822.0,-915.0,-1145.1,-704.4,-656.4,-6.9,-5.7,-1037.4,-1004.4,-0.9,-572.7,-1064.1,-841.2,0,1866,0,234,0, 
1.0400,-658.5,-701.1,-627.3,-707.7,-714.3,-810.6,-744.3,-552.3,-16302.0,-772.8,-657.9,-748.8,-941.4,-1152.6,-702.3,-668.7,-6.6,-6.3,-787.5,-860.4,-0.3,-552.6,-1059.6,-828.3,0,1872,0,235,0, 
1.0433,-660.9,-766.8,-623.4,-716.1,-712.8,-755.4,-729.0,-553.8,-54389.4,-690.3,-731.7,-773.7,-965.1,-1142.4,-711.0,-652.2,-7.2,-6.0,-1035.3,-928.8,-0.9,-549.3,-1047.0,-824.4,0,1878,0,236,0, 
1.0467,-564.6,-960.9,-966.6,-827.1,-792.9,-843.9,-752.4,-626.4,-21859.5,-739.8,-757.2,-790.8,-910.8,-1143.9,-707.4,-641.4,-6.9,-5.4,-1018.8,-912.9,0.0,-557.7,-1048.2,-830.1,0,1884,0,237,0, 
1.0500,-472.8,-793.8,-577.2,-699.9,-687.0,-839.1,-768.3,-590.7,36531.3,-780.6,-714.6,-744.3,-954.6,-1155.9,-745.2,-683.4,-7.2,-5.7,-862.2,-836.7,-0.6,-640.5,-1082.1,-848.7,0,1890,0,238,0, 
1.0533,-568.5,-838.8,-816.9,-778.8,-749.4,-821.1,-759.6,-605.1,39939.9,-819.3,-740.1,-804.9,-957.6,-1155.3,-722.1,-667.8,-6.9,-6.0,-990.9,-930.6,-0.6,-595.8,-1062.0,-824.1,0,1896,0,239,0, 
1.0567,-681.3,-810.3,-721.8,-773.7,-798.3,-831.6,-740.7,-584.4,-16153.8,-648.9,-754.8,-820.5,-936.9,-1129.2,-678.6,-643.8,-6.6,-5.7,-965.7,-1055.4,-0.9,-515.4,-1038.0,-814.2,0,1902,0,240,0, 
1.0600,-663.3,-835.8,-724.2,-746.4,-771.6,-831.6,-733.2,-572.4,-54093.0,-729.0,-674.7,-747.0,-886.5,-1119.6,-677.4,-635.4,-6.9,-5.7,-875.1,-907.2,-0.3,-533.7,-1033.5,-805.5,0,1908,0,241,0, 
1.0633,-553.5,-864.3,-760.5,-760.8,-761.4,-822.6,-744.6,-594.0,-21859.5,-735.0,-726.0,-779.1,-948.3,-1147.5,-717.6,-656.7,-7.2,-5.7,-965.1,-926.1,-0.9,-591.3,-1038.6,-811.8,0,1914,0,242,0, 
1.0667,-471.0,-814.2,-816.9,-780.3,-767.4,-841.5,-768.0,-609.0,36605.4,-833.1,-764.1,-800.1,-993.6,-1152.0,-738.0,-692.4,-7.2,-5.7,-1029.6,-885.3,-0.9,-630.9,-1079.1,-816.3,0,1920,0,243,0, 
1.0700,-562.2,-835.8,-692.4,-721.5,-670.2,-796.8,-747.9,-585.9,39791.7,-833.4,-674.4,-740.4,-953.4,-1159.2,-711.6,-654.6,-6.9,-6.0,-792.3,-723.9,-1.5,-591.9,-1041.0,-825.6,0,1926,0,244,0, 
1.0733,-658.8,-749.4,-573.6,-717.6,-779.7,-818.7,-737.7,-553.5,-16450.2,-731.4,-693.6,-807.6,-963.6,-1126.2,-688.8,-657.9,-6.9,-5.7,-935.1,-1055.4,-0.6,-513.6,-1040.4,-804.9,0,1932,0,245,0, 
1.0767,-655.2,-776.7,-730.5,-725.1,-699.3,-777.6,-723.0,-555.3,-54685.8,-703.8,-689.4,-697.8,-933.9,-1138.5,-692.7,-648.9,-6.9,-6.3,-875.7,-810.0,-0.6,-550.2,-1028.7,-809.1,0,1938,0,246,0, 
1.0800,-546.0,-842.1,-740.1,-741.6,-719.1,-822.6,-744.9,-589.5,-21266.7,-793.5,-720.0,-794.4,-952.2,-1134.3,-708.9,-658.2,-7.2,-6.0,-967.5,-966.9,-0.6,-573.0,-1051.2,-807.3,0,1944,0,247,0, 
1.0833,-504.0,-951.0,-838.5,-817.2,-850.2,-874.2,-763.2,-634.5,37124.1,-741.6,-801.3,-849.6,-953.4,-1153.2,-718.5,-657.3,-6.9,-6.3,-1069.8,-1005.6,-0.9,-580.5,-1047.9,-823.8,0,1950,0,248,0, 
1.0867,-552.3,-757.2,-729.6,-781.5,-825.0,-863.4,-760.5,-599.4,40014.0,-766.2,-771.0,-851.7,-996.6,-1149.3,-724.5,-673.8,-6.9,-6.6,-989.4,-1025.1,-0.9,-586.2,-1057.5,-835.5,0,1956,0,249,0, 
1.0900,-692.1,-824.7,-686.1,-753.0,-773.7,-831.6,-738.9,-579.9,-16153.8,-716.1,-720.0,-779.7,-891.6,-1150.2,-691.5,-644.1,-6.9,-5.7,-913.5,-925.5,-0.9,-534.0,-1029.3,-822.9,0,1962,0,250,0, 
1.0933,-678.0,-858.6,-807.9,-771.3,-749.1,-819.3,-732.9,-587.1,-53796.6,-711.0,-731.4,-783.0,-929.7,-1142.4,-692.7,-655.2,-6.9,-5.4,-953.4,-946.5,-0.9,-533.4,-1035.3,-817.5,0,1968,0,251,0, 
1.0967,-550.2,-831.3,-741.0,-759.3,-755.1,-834.9,-755.4,-595.5,-19858.8,-813.9,-728.4,-788.1,-976.8,-1158.0,-721.5,-668.4,-6.9,-5.7,-932.7,-877.5,-1.2,-629.1,-1063.8,-841.8,0,1974,0,252,0, 
1.1000,-479.7,-744.3,-691.8,-774.9,-825.9,-874.5,-777.9,-609.9,38087.4,-824.7,-768.6,-880.2,-1039.2,-1173.3,-756.3,-688.2,-6.6,-6.3,-934.8,-1069.5,-1.2,-628.2,-1077.9,-859.8,0,1980,0,253,0, 
1.1033,-594.6,-962.1,-862.8,-796.5,-749.4,-849.9,-765.6,-624.6,40236.3,-729.0,-798.9,-784.8,-965.7,-1160.4,-716.1,-657.9,-6.9,-5.7,-1072.2,-819.3,-0.6,-576.0,-1053.9,-849.0,0,1986,0,254,0, 
1.1067,-692.7,-821.1,-703.5,-756.9,-787.2,-838.5,-750.0,-579.3,-16672.5,-782.1,-734.1,-780.0,-929.1,-1160.1,-708.3,-671.7,-7.2,-6.3,-988.8,-955.2,-0.9,-561.0,-1053.3,-834.9,0,1992,0,255,0, 
1.1100,-669.6,-838.5,-704.7,-738.9,-700.8,-814.2,-743.4,-576.9,-53870.7,-729.0,-729.9,-791.4,-993.3,-1138.8,-698.7,-654.9,-6.9,-5.7,-912.6,-892.8,-0.6,-548.4,-1050.3,-836.7,0,1998,0,0,0, 
1.1133,-575.7,-865.2,-875.4,-810.0,-797.4,-854.4,-756.6,-609.9,-20007.0,-794.1,-811.2,-839.7,-941.1,-1179.6,-715.2,-655.8,-7.5,-5.7,-1076.4,-990.6,-0.6,-597.0,-1055.1,-839.7,0,2004,0,1,0, 
1.1167,-504.3,-900.0,-749.1,-792.6,-824.1,-851.7,-770.1,-627.6,38828.4,-795.3,-787.5,-882.3,-982.2,-1166.7,-724.2,-672.0,-7.5,-5.4,-984.6,-997.8,-0.3,-619.2,-1071.0,-852.9,0,2010,0,2,0, 
1.1200,-578.7,-782.4,-661.5,-754.8,-796.8,-867.0,-762.0,-596.1,40829.1,-811.5,-775.5,-810.3,-981.0,-1180.8,-716.7,-663.6,-6.9,-6.3,-952.2,-945.6,-0.9,-614.4,-1054.5,-855.9,0,2016,0,3,0, 
1.1233,-693.9,-945.6,-885.3,-798.6,-749.7,-812.1,-737.7,-604.8,-16598.4,-656.4,-778.5,-794.7,-884.4,-1129.2,-694.8,-648.9,-6.9,-6.0,-1072.8,-913.2,-0.9,-500.7,-1031.7,-809.7,0,2022,0,4,0, 
1.1267,-662.4,-764.4,-738.3,-766.5,-791.7,-837.0,-732.6,-572.4,-53648.4,-703.8,-758.1,-826.5,-958.5,-1148.1,-707.1,-661.2,-6.6,-5.7,-996.0,-1043.4,-0.9,-543.3,-1037.7,-831.3,0,2028,0,5,0, 
1.1300,-562.2,-836.4,-694.8,-748.2,-762.6,-840.0,-756.0,-594.0,-19117.8,-797.7,-745.2,-809.4,-921.0,-1169.4,-740.4,-679.8,-7.2,-5.4,-878.4,-937.5,-0.3,-616.5,-1073.4,-849.0,0,2034,0,6,0, 
1.1333,-495.3,-841.5,-840.3,-819.3,-825.3,-867.9,-770.1,-629.7,39495.3,-803.7,-843.0,-878.7,-1005.9,-1169.1,-736.2,-678.9,-7.2,-6.6,-1119.6,-1006.5,-0.6,-609.3,-1071.6,-852.9,0,2040,0,7,0, 
1.1367,-596.7,-938.7,-780.3,-781.2,-785.7,-852.6,-762.0,-619.2,40532.7,-738.3,-738.0,-811.5,-951.0,-1163.7,-729.9,-666.6,-6.6,-6.0,-868.8,-932.4,-0.3,-588.0,-1054.5,-825.3,0,2046,0,8,0, 
1.1400,-695.1,-806.7,-687.0,-753.6,-771.0,-839.7,-744.0,-580.5,-17413.5,-774.6,-738.9,-799.5,-931.2,-1158.3,-700.8,-660.3,-7.2,-5.7,-1026.0,-920.7,-0.9,-559.2,-1044.6,-829.8,0,2052,0,9,0, 
1.1433,-675.3,-826.2,-890.1,-821.1,-776.7,-831.3,-746.1,-601.8,-55130.4,-720.9,-822.6,-855.6,-980.1,-1134.3,-684.6,-639.6,-7.2,-5.4,-1109.1,-1047.0,-0.3,-554.7,-1044.6,-831.3,0,2058,0,10,0, 
1.1467,-561.9,-815.7,-733.2,-765.0,-765.3,-838.5,-757.8,-598.5,-20599.8,-859.8,-757.2,-813.6,-1021.8,-1187.7,-742.5,-672.6,-7.2,-6.0,-910.8,-881.1,-0.9,-614.1,-1061.7,-849.6,0,2064,0,11,0, 
1.1500,-517.2,-934.8,-757.2,-789.9,-797.1,-852.0,-765.6,-624.6,36753.6,-832.2,-782.1,-878.1,-975.3,-1177.2,-744.9,-680.4,-7.2,-5.7,-912.3,-1085.7,-0.3,-633.0,-1058.1,-835.8,0,2070,0,12,0, 
1.1533,-588.0,-858.0,-812.7,-806.4,-820.8,-845.7,-762.3,-615.0,38309.7,-787.2,-848.4,-865.2,-1020.0,-1163.4,-714.9,-675.3,-6.6,-5.7,-1167.6,-966.0,-0.3,-590.4,-1071.3,-831.6,0,2076,0,13,0, 
1.1567,-701.4,-897.3,-818.4,-771.6,-729.0,-834.6,-739.2,-579.6,-19191.9,-723.3,-754.5,-791.7,-871.2,-1158.3,-707.7,-676.8,-6.9,-6.0,-997.8,-980.7,-0.6,-568.2,-1050.9,-827.7,0,2082,0,14,0, 
1.1600,-656.4,-711.3,-449.1,-670.2,-756.6,-826.8,-734.7,-529.8,-56167.8,-872.4,-668.7,-781.2,-1011.6,-1168.5,-727.2,-700.8,-6.9,-5.7,-815.1,-926.4,-0.6,-615.3,-1072.8,-831.9,0,2088,0,15,0, 
1.1633,-555.3,-930.3,-1006.2,-849.0,-804.9,-849.0,-752.1,-619.2,-22378.2,-748.8,-870.6,-856.2,-968.7,-1150.5,-721.5,-675.6,-6.9,-5.7,-1179.0,-986.7,-0.6,-597.0,-1063.5,-837.6,0,2094,0,16,0, 
1.1667,-495.0,-894.3,-807.9,-807.3,-823.8,-853.2,-766.5,-622.2,35790.3,-859.2,-809.4,-891.0,-959.7,-1163.1,-724.5,-672.6,-6.6,-6.0,-993.3,-1037.1,-0.9,-633.3,-1077.6,-856.2,0,2100,0,17,0, 
1.1700,-584.4,-906.9,-869.1,-818.1,-807.3,-861.3,-763.2,-614.1,37865.1,-779.1,-836.7,-848.7,-987.9,-1161.9,-737.4,-688.5,-6.9,-5.1,-1149.3,-983.7,-0.9,-585.9,-1070.1,-833.7,0,2106,0,18,0, 
1.1733,-680.7,-801.0,-735.3,-778.5,-807.0,-847.2,-737.1,-572.4,-18673.2,-747.9,-742.8,-841.2,-961.2,-1145.4,-698.7,-656.1,-6.9,-6.3,-896.7,-1024.8,-0.9,-589.8,-1039.8,-839.7,0,2112,0,19,0, 
1.1767,-668.4,-819.0,-669.3,-727.5,-740.7,-814.2,-730.5,-555.6,-55426.8,-813.0,-695.7,-780.9,-950.4,-1162.2,-714.3,-667.2,-6.9,-6.0,-866.4,-895.8,-0.6,-587.4,-1047.9,-819.3,0,2118,0,20,0, 
1.1800,-525.9,-752.1,-626.7,-748.2,-788.4,-844.8,-754.8,-574.5,-21192.6,-819.9,-785.1,-861.0,-1032.6,-1144.8,-732.6,-692.7,-6.9,-6.0,-1007.7,-987.6,-0.3,-657.3,-1070.4,-836.7,0,2124,0,21,0, 
1.1833,-493.5,-931.8,-999.9,-871.8,-849.9,-874.5,-768.3,-641.4,36753.6,-753.3,-904.8,-912.0,-960.0,-1141.8,-712.8,-664.5,-6.9,-6.0,-1217.1,-1056.9,-0.9,-668.7,-1050.3,-846.0,0,2130,0,22,0, 
1.1867,-589.8,-926.4,-885.6,-820.5,-814.2,-849.0,-752.1,-619.5,39273.0,-746.7,-812.4,-852.3,-855.3,-1154.4,-709.2,-657.0,-6.6,-5.4,-1012.5,-989.4,-1.2,-549.6,-1042.5,-814.5,0,2136,0,23,0, 
1.1900,-664.8,-734.1,-646.2,-730.2,-723.0,-813.0,-738.6,-552.0,-16153.8,-772.5,-751.5,-772.5,-1008.0,-1158.0,-712.8,-653.4,-7.2,-6.0,-1004.7,-882.0,-0.9,-603.0,-1040.7,-827.1,0,2142,0,24,0, 
1.1933,-662.1,-849.0,-818.4,-795.0,-799.8,-829.5,-736.5,-578.7,-52462.8,-754.2,-787.8,-839.7,-979.2,-1126.2,-697.8,-669.6,-7.2,-5.7,-1051.8,-1023.9,-0.3,-533.1,-1030.8,-811.2,0,2148,0,25,0, 
1.1967,-569.4,-967.2,-908.4,-817.5,-797.7,-846.0,-751.5,-614.7,-19636.5,-765.9,-786.9,-830.4,-884.4,-1148.1,-699.0,-663.0,-6.9,-6.0,-979.8,-958.2,-0.3,-595.2,-1042.8,-828.0,0,2154,0,26,0, 
1.2000,-498.6,-903.9,-820.8,-809.1,-801.3,-853.8,-762.3,-617.7,37568.7,-765.9,-855.6,-880.5,-959.1,-1181.1,-738.0,-675.6,-6.6,-6.0,-1105.8,-975.6,-0.6,-627.0,-1044.6,-819.6,0,2160,0,27,0, 
1.2033,-577.5,-878.7,-816.0,-804.6,-810.3,-863.7,-764.1,-612.0,39939.9,-788.7,-789.6,-858.3,-936.3,-1153.2,-716.7,-672.3,-6.6,-6.0,-975.9,-1011.6,-0.9,-587.4,-1055.7,-841.2,0,2166,0,28,0, 
1.2067,-696.0,-868.2,-791.7,-787.8,-782.1,-832.5,-743.7,-589.8,-15931.5,-717.6,-783.3,-827.7,-951.3,-1156.8,-683.7,-656.4,-6.9,-5.7,-1008.0,-954.9,-0.9,-522.6,-1032.3,-811.8,0,2172,0,29,0, 
1.2100,-667.8,-761.1,-696.3,-753.6,-772.2,-827.4,-739.5,-567.3,-52981.5,-788.7,-742.2,-827.4,-942.6,-1142.7,-702.6,-667.2,-6.6,-5.7,-885.0,-956.4,-0.6,-575.1,-1046.4,-830.1,0,2178,0,30,0, 
1.2133,-562.8,-887.4,-820.8,-790.2,-773.7,-827.1,-749.4,-593.7,-20748.0,-797.7,-803.4,-844.8,-952.5,-1152.0,-731.1,-684.3,-7.2,-5.7,-1026.0,-953.7,-0.6,-595.5,-1051.5,-826.8,0,2184,0,31,0, 
1.2167,-512.4,-911.7,-836.1,-819.0,-816.6,-860.4,-768.3,-623.7,35642.1,-765.9,-844.2,-885.6,-947.4,-1170.3,-747.0,-680.4,-7.2,-5.7,-1078.2,-1015.8,-0.6,-614.7,-1060.5,-839.4,0,2190,0,32,0, 
1.2200,-583.2,-864.0,-747.6,-777.3,-783.6,-845.4,-764.4,-602.1,37791.0,-769.5,-756.6,-823.2,-936.0,-1162.5,-740.4,-680.7,-7.2,-6.0,-900.3,-937.2,-0.6,-626.7,-1061.1,-828.9,0,2196,0,33,0, 
1.2233,-685.8,-831.9,-800.1,-783.9,-760.8,-824.7,-744.3,-581.4,-18228.6,-745.8,-781.5,-795.3,-925.2,-1152.3,-700.5,-678.9,-6.6,-6.0,-1044.0,-901.8,-0.3,-543.0,-1042.8,-812.7,0,2202,0,34,0, 
1.2267,-684.0,-839.1,-724.2,-758.7,-759.9,-816.9,-730.2,-568.8,-55649.1,-805.8,-724.8,-792.0,-1005.9,-1179.6,-700.8,-654.3,-7.2,-6.0,-893.1,-941.1,-0.9,-543.6,-1031.4,-808.8,0,2208,0,35,0, 
1.2300,-563.1,-855.9,-787.5,-791.4,-774.0,-834.0,-746.4,-592.8,-23637.9,-805.5,-836.4,-846.0,-996.9,-1176.0,-720.6,-652.2,-6.9,-5.4,-1114.2,-935.7,-0.9,-639.6,-1048.5,-835.5,0,2214,0,36,0, 
1.2333,-513.3,-965.1,-913.8,-831.3,-809.1,-850.2,-762.0,-624.0,32678.1,-773.7,-837.3,-874.8,-941.7,-1171.5,-733.2,-668.4,-7.2,-5.7,-1037.7,-986.1,-0.9,-612.0,-1047.6,-829.8,0,2220,0,37,0, 
1.2367,-587.4,-901.2,-819.6,-801.9,-796.8,-848.7,-752.7,-601.5,34456.5,-795.0,-810.9,-842.7,-962.7,-1177.2,-717.0,-669.6,-6.9,-5.7,-1038.0,-936.3,-0.9,-588.0,-1032.6,-828.6,0,2226,0,38,0, 
1.2400,-681.0,-828.9,-721.8,-762.0,-772.8,-833.4,-741.6,-568.2,-21414.9,-754.8,-741.6,-817.8,-929.1,-1153.5,-690.0,-646.2,-7.2,-6.0,-880.2,-926.1,-0.3,-561.0,-1044.3,-835.2,0,2232,0,39,0, 
1.2433,-677.7,-845.4,-761.7,-774.0,-776.7,-834.9,-737.1,-568.5,-58835.4,-764.7,-750.6,-810.3,-950.4,-1161.9,-705.9,-621.0,-6.9,-5.7,-961.8,-936.6,-0.9,-576.0,-1050.3,-833.1,0,2238,0,40,0, 
1.2467,-553.2,-884.7,-793.5,-785.4,-781.2,-842.1,-751.2,-588.9,-26453.7,-808.5,-788.1,-840.6,-941.4,-1159.8,-729.6,-684.0,-6.9,-6.0,-993.6,-930.0,-0.9,-599.7,-1062.6,-835.8,0,2244,0,41,0, 
1.2500,-497.1,-906.6,-877.8,-822.9,-808.2,-862.5,-764.1,-611.7,30232.8,-802.2,-844.8,-864.6,-966.9,-1174.8,-746.4,-673.2,-6.9,-5.7,-1059.9,-940.8,-0.6,-628.5,-1068.9,-838.5,0,2250,0,42,0, 
1.2533,-558.9,-822.0,-712.2,-769.8,-798.6,-859.8,-759.0,-577.2,32307.6,-815.7,-768.6,-845.7,-960.3,-1149.0,-734.1,-676.5,-6.9,-6.0,-925.8,-947.4,-0.9,-606.9,-1063.2,-862.5,0,2256,0,43,0, 
1.2567,-672.9,-794.7,-763.8,-766.5,-771.6,-828.3,-736.8,-557.7,-23045.1,-710.7,-753.3,-801.6,-934.8,-1133.1,-715.8,-699.9,-7.2,-6.0,-974.7,-899.4,-0.6,-558.9,-1036.8,-828.6,0,2262,0,44,0, 
1.2600,-659.4,-875.1,-790.8,-771.0,-765.3,-828.0,-736.2,-561.0,-60095.1,-715.5,-744.6,-793.8,-879.9,-1108.5,-693.3,-699.0,-6.9,-6.0,-926.7,-882.3,-0.6,-559.2,-1041.3,-812.1,0,2268,0,45,0, 
1.2633,-554.4,-868.2,-806.1,-790.5,-791.7,-847.8,-753.9,-587.4,-27342.9,-785.7,-798.9,-848.1,-937.2,-1142.4,-705.0,-677.7,-7.2,-6.0,-984.6,-917.7,-0.9,-590.4,-1045.8,-825.3,0,2274,0,46,0, 
1.2667,-491.1,-878.4,-811.5,-794.1,-799.5,-857.7,-767.4,-597.0,29195.4,-819.9,-801.0,-851.7,-948.0,-1149.0,-730.8,-708.6,-7.2,-6.0,-981.9,-915.3,-0.6,-627.0,-1065.9,-827.4,0,2280,0,47,0, 
1.2700,-576.3,-859.2,-786.9,-781.2,-790.2,-851.1,-758.4,-586.2,31863.0,-798.6,-767.7,-833.7,-945.6,-1160.4,-730.5,-665.7,-6.6,-6.0,-943.8,-890.1,-0.3,-609.3,-1058.4,-826.2,0,2286,0,48,0, 
1.2733,-682.2,-811.2,-746.1,-765.3,-772.8,-836.7,-742.8,-557.7,-23267.4,-749.4,-747.0,-811.5,-920.1,-1129.5,-704.7,-662.4,-7.2,-5.7,-932.1,-881.7,-0.6,-564.6,-1037.4,-824.7,0,2292,0,49,0, 
1.2767,-663.0,-815.1,-717.9,-742.8,-748.5,-819.6,-738.6,-542.4,-60169.2,-769.8,-716.7,-775.2,-916.8,-1139.4,-705.9,-678.3,-7.2,-6.0,-902.7,-844.8,-0.6,-582.3,-1047.3,-820.5,0,2298,0,50,0, 
1.2800,-545.1,-817.2,-795.6,-781.8,-783.6,-840.6,-754.5,-573.0,-27417.0,-789.6,-783.6,-840.6,-931.5,-1132.2,-715.8,-680.7,-6.9,-6.0,-963.0,-885.3,-0.3,-600.9,-1045.2,-830.1,0,2304,0,51,0, 
1.2833,-488.1,-891.9,-797.1,-793.8,-807.3,-859.5,-771.6,-589.8,29862.3,-836.1,-801.3,-874.2,-947.1,-1143.3,-724.5,-678.0,-6.9,-6.0,-972.0,-921.0,-0.6,-660.3,-1056.9,-847.5,0,2310,0,52,0, 
1.2867,-572.4,-864.0,-783.6,-783.0,-793.8,-855.3,-766.2,-582.0,32381.7,-794.7,-780.9,-841.5,-940.8,-1136.4,-704.7,-679.5,-6.9,-5.7,-961.5,-872.1,-0.6,-597.6,-1044.9,-838.5,0,2316,0,53,0, 
1.2900,-672.0,-830.4,-709.2,-736.2,-750.3,-820.8,-746.1,-538.8,-23193.3,-721.2,-721.2,-770.1,-903.9,-1128.3,-703.8,-694.5,-7.2,-5.4,-902.7,-831.9,-0.6,-549.0,-1051.2,-813.9,0,2322,0,54,0, 
1.2933,-662.7,-821.1,-762.3,-759.3,-764.1,-826.8,-737.4,-549.0,-59872.8,-747.3,-735.9,-797.7,-906.0,-1119.3,-681.3,-648.3,-7.2,-6.0,-892.8,-850.2,-0.6,-564.9,-1029.6,-820.2,0,2328,0,55,0, 
1.2967,-551.7,-865.8,-786.6,-787.8,-796.5,-853.8,-757.8,-578.1,-27194.7,-808.2,-798.9,-856.2,-938.7,-1137.6,-707.7,-651.9,-7.5,-5.7,-960.9,-889.8,-0.3,-623.1,-1054.5,-834.6,0,2334,0,56,0, 
1.3000,-494.7,-879.9,-810.3,-793.5,-808.8,-868.5,-774.9,-593.4,29269.5,-849.6,-807.3,-867.3,-956.4,-1137.9,-732.3,-680.7,-6.9,-5.4,-964.8,-896.4,-0.6,-650.4,-1073.7,-840.6,0,2340,0,57,0, 
1.3033,-581.1,-874.8,-791.7,-790.8,-801.6,-855.9,-760.8,-581.7,31196.1,-801.6,-793.8,-850.2,-959.4,-1161.0,-723.9,-681.9,-6.9,-6.0,-965.7,-881.4,-0.6,-620.4,-1041.9,-830.7,0,2346,0,58,0, 
1.3067,-678.0,-829.8,-734.4,-754.8,-766.2,-828.6,-742.2,-542.1,-24971.7,-752.4,-728.1,-806.7,-921.0,-1131.9,-707.4,-684.0,-6.3,-5.7,-881.7,-846.9,-0.6,-559.5,-1054.2,-816.9,0,2352,0,59,0, 
1.3100,-673.2,-834.3,-763.5,-766.5,-771.3,-828.6,-739.8,-548.4,-61132.5,-760.5,-749.1,-810.3,-925.2,-1137.6,-700.8,-671.1,-6.9,-6.3,-917.1,-850.5,-0.3,-570.3,-1054.2,-822.3,0,2358,0,60,0, 
1.3133,-551.1,-864.0,-789.0,-788.4,-796.5,-848.7,-754.8,-576.0,-29343.6,-816.3,-796.2,-852.9,-949.8,-1136.4,-705.3,-669.6,-6.6,-6.0,-952.8,-884.1,-0.3,-627.0,-1064.7,-842.4,0,2364,0,61,0, 
1.3167,-493.8,-881.4,-797.7,-792.3,-806.4,-864.0,-768.6,-590.4,27491.1,-831.3,-805.5,-867.6,-966.3,-1156.2,-736.2,-688.8,-7.2,-6.0,-957.3,-896.4,-0.9,-643.8,-1075.8,-842.4,0,2370,0,62,0, 
1.3200,-581.7,-867.0,-792.6,-780.3,-793.8,-851.7,-754.8,-573.9,29714.1,-814.8,-783.0,-834.6,-958.8,-1160.7,-731.4,-667.5,-7.2,-5.7,-939.3,-866.7,-1.2,-626.4,-1049.4,-839.4,0,2376,0,63,0, 
1.3233,-692.7,-846.3,-761.1,-764.4,-783.0,-841.5,-735.6,-558.6,-26305.5,-779.4,-751.5,-805.2,-947.7,-1146.0,-694.5,-637.8,-6.9,-5.7,-915.0,-849.0,-0.3,-588.9,-1021.5,-832.2,0,2382,0,64,0, 
1.3267,-671.1,-836.1,-758.4,-750.3,-765.0,-825.0,-734.7,-544.2,-62836.8,-780.6,-741.9,-793.5,-932.1,-1130.1,-695.1,-664.2,-7.2,-5.7,-899.1,-834.3,-0.6,-568.2,-1038.6,-822.9,0,2388,0,65,0, 
1.3300,-552.6,-858.3,-772.8,-773.4,-790.8,-849.9,-750.0,-567.6,-30973.8,-828.0,-796.5,-834.0,-956.7,-1140.0,-714.3,-666.6,-6.9,-5.7,-934.8,-871.8,-0.6,-618.6,-1050.6,-838.8,0,2394,0,66,0, 
1.3333,-498.3,-890.1,-814.5,-799.5,-821.1,-872.1,-774.0,-590.7,26009.1,-844.8,-825.3,-876.3,-978.9,-1146.0,-723.3,-678.3,-6.6,-5.7,-982.8,-899.7,-0.9,-645.3,-1077.9,-855.9,0,2400,0,67,0, 
1.3367,-580.8,-879.9,-808.5,-799.2,-818.1,-872.1,-764.4,-582.3,29121.3,-829.2,-805.8,-876.3,-974.4,-1142.4,-697.5,-658.2,-6.9,-6.0,-956.4,-893.1,-0.6,-627.3,-1055.1,-850.2,0,2406,0,68,0, 
1.3400,-673.8,-834.3,-751.2,-763.2,-784.5,-845.1,-742.5,-548.4,-25638.6,-795.9,-760.8,-828.6,-954.0,-1119.3,-667.5,-643.2,-6.9,-6.0,-926.7,-853.2,-0.9,-598.2,-1043.7,-837.6,0,2412,0,69,0, 
1.3433,-653.4,-823.2,-748.8,-746.1,-757.5,-822.9,-734.4,-533.1,-61428.9,-756.0,-742.2,-795.9,-927.0,-1118.1,-701.7,-666.6,-7.2,-5.7,-902.1,-824.4,-0.6,-557.7,-1038.0,-813.9,0,2418,0,70,0, 
1.3467,-541.5,-862.2,-788.4,-780.6,-795.6,-855.3,-757.2,-566.7,-28009.8,-827.7,-791.4,-855.3,-963.0,-1123.2,-695.1,-655.8,-6.6,-6.0,-941.1,-877.8,-0.6,-624.0,-1053.9,-843.6,0,2424,0,71,0, 
1.3500,-479.7,-878.4,-810.3,-795.9,-814.5,-870.6,-764.4,-587.1,29417.7,-830.7,-813.0,-885.9,-964.2,-1130.4,-727.2,-656.4,-7.2,-6.0,-955.2,-898.8,-0.6,-651.3,-1044.9,-848.7,0,2430,0,72,0, 
1.3533,-561.0,-860.4,-789.9,-791.1,-812.1,-864.9,-758.7,-577.5,32381.7,-826.2,-801.0,-861.9,-964.2,-1117.2,-681.9,-635.7,-6.9,-6.0,-950.4,-879.0,-0.9,-629.1,-1031.7,-847.2,0,2436,0,73,0, 
1.3567,-664.8,-839.1,-766.5,-774.9,-790.8,-844.8,-743.1,-554.1,-22452.3,-795.0,-766.2,-823.5,-943.2,-1091.7,-637.8,-625.8,-6.9,-5.7,-923.4,-845.7,-0.3,-563.7,-1031.7,-825.9,0,2442,0,74,0, 
1.3600,-647.7,-815.1,-736.5,-746.1,-761.4,-824.7,-731.1,-535.2,-58316.7,-771.9,-735.3,-795.9,-915.9,-1104.3,-699.3,-636.3,-6.9,-6.0,-889.8,-822.0,-0.6,-577.8,-1029.3,-817.8,0,2448,0,75,0, 
1.3633,-532.5,-840.9,-761.1,-760.2,-774.3,-838.5,-750.9,-555.9,-24527.1,-807.9,-766.2,-828.3,-928.2,-1105.8,-724.2,-677.1,-7.5,-6.0,-917.7,-841.2,-0.9,-609.6,-1058.4,-821.1,0,2454,0,76,0, 
1.3667,-475.8,-857.4,-790.5,-786.0,-803.4,-860.7,-764.4,-579.6,32159.4,-836.1,-804.3,-860.7,-949.8,-1112.7,-726.9,-666.6,-6.3,-5.7,-952.8,-869.7,-0.9,-630.6,-1043.1,-829.2,0,2460,0,77,0, 
1.3700,-552.9,-866.7,-783.9,-784.2,-803.1,-859.2,-759.3,-576.3,34827.0,-822.0,-779.4,-840.3,-941.7,-1099.2,-687.9,-647.4,-7.2,-6.0,-933.0,-855.6,-0.9,-625.5,-1033.8,-831.6,0,2466,0,78,0, 
1.3733,-655.2,-818.7,-733.8,-747.0,-764.7,-829.8,-740.4,-535.2,-19636.5,-753.3,-718.8,-781.5,-901.5,-1086.0,-694.2,-679.2,-6.9,-6.3,-868.5,-802.2,-0.9,-563.4,-1031.7,-814.2,0,2472,0,79,0, 
1.3767,-645.3,-821.4,-737.4,-754.5,-771.3,-833.7,-736.8,-543.3,-54759.9,-783.6,-737.4,-801.9,-916.5,-1080.3,-667.5,-644.1,-6.9,-5.7,-897.3,-812.7,-0.6,-563.4,-1032.0,-820.5,0,2478,0,80,0, 
1.3800,-536.7,-858.6,-779.7,-777.3,-793.5,-853.2,-747.9,-567.6,-21489.0,-846.0,-782.1,-852.6,-939.6,-1101.3,-705.0,-646.2,-6.9,-5.7,-932.1,-848.1,-0.9,-625.2,-1030.5,-834.3,0,2484,0,81,0, 
1.3833,-468.6,-867.3,-785.4,-778.2,-801.3,-869.7,-777.9,-580.5,35123.4,-840.6,-784.5,-853.8,-936.6,-1101.9,-712.8,-697.5,-6.9,-6.0,-930.6,-843.3,-0.6,-625.5,-1088.7,-834.9,0,2490,0,82,0, 
1.3867,-554.1,-867.6,-786.3,-792.0,-818.7,-885.3,-769.5,-584.4,37494.6,-850.5,-783.3,-857.1,-948.3,-1089.0,-653.1,-642.6,-7.5,-5.7,-924.6,-857.4,-0.9,-650.7,-1045.5,-855.0,0,2496,0,83,0, 
1.3900,-656.1,-814.2,-731.4,-741.6,-767.4,-847.2,-750.9,-543.0,-16450.2,-771.0,-715.8,-787.2,-901.8,-1076.4,-683.7,-689.4,-6.6,-5.7,-873.3,-795.6,-1.2,-585.3,-1060.5,-829.8,0,2502,0,84,0, 
1.3933,-649.5,-810.0,-721.5,-728.7,-753.6,-828.9,-729.9,-527.4,-52240.5,-771.9,-713.7,-775.8,-902.4,-1098.3,-724.5,-660.3,-6.9,-5.7,-862.8,-782.1,-0.6,-559.8,-1024.5,-807.9,0,2508,0,85,0, 
1.3967,-531.6,-840.0,-761.7,-760.2,-786.6,-855.0,-753.3,-558.9,-19710.6,-817.8,-771.9,-833.7,-918.3,-1076.4,-692.4,-677.7,-6.9,-5.7,-915.9,-823.8,-0.6,-624.9,-1053.0,-829.8,0,2514,0,86,0, 
1.4000,-464.4,-869.4,-794.1,-792.3,-820.8,-888.3,-776.7,-592.8,37272.3,-854.1,-814.8,-877.8,-940.8,-1057.8,-652.8,-676.5,-7.2,-5.7,-942.9,-861.3,-0.9,-664.8,-1072.2,-854.7,0,2520,0,87,0, 
1.4033,-548.4,-837.9,-750.9,-747.3,-772.8,-851.7,-756.6,-560.7,39643.5,-790.5,-750.6,-807.3,-913.2,-1089.3,-720.0,-701.7,-6.6,-6.0,-891.0,-789.0,-0.9,-605.4,-1058.1,-818.1,0,2526,0,88,0, 
1.4067,-661.2,-813.6,-725.7,-732.0,-754.5,-833.4,-733.8,-537.0,-14745.9,-777.6,-712.2,-770.1,-903.6,-1083.9,-687.6,-670.2,-6.9,-5.7,-848.4,-753.6,-1.2,-545.1,-1033.8,-807.3,0,2532,0,89,0, 
1.4100,-644.4,-813.9,-732.9,-743.4,-758.7,-838.5,-732.3,-541.8,-51129.0,-795.3,-732.6,-790.5,-912.0,-1075.8,-670.2,-656.1,-6.9,-6.3,-876.0,-773.7,-0.9,-576.6,-1036.5,-820.2,0,2538,0,90,0, 
1.4133,-531.6,-845.4,-769.8,-765.0,-782.1,-858.0,-752.1,-567.3,-18450.9,-815.7,-771.9,-840.3,-920.4,-1080.0,-691.5,-682.5,-6.9,-6.0,-905.1,-798.6,-0.9,-622.8,-1061.4,-831.6,0,2544,0,91,0, 
1.4167,-475.8,-872.1,-771.0,-777.0,-800.1,-873.9,-766.5,-588.9,38161.5,-848.4,-794.1,-865.2,-945.9,-1090.2,-710.1,-685.5,-7.2,-6.0,-923.1,-815.1,-0.9,-648.0,-1067.7,-839.4,0,2550,0,92,0, 
1.4200,-550.8,-861.9,-782.7,-780.0,-792.6,-870.0,-754.8,-582.9,40977.3,-831.0,-771.3,-831.6,-938.4,-1085.1,-679.5,-662.7,-6.6,-6.0,-899.1,-784.2,-1.2,-613.2,-1050.6,-828.0,0,2556,0,93,0, 
1.4233,-666.6,-832.2,-742.5,-758.4,-776.7,-852.3,-731.7,-560.4,-13115.7,-786.0,-734.1,-804.6,-923.7,-1075.8,-646.8,-645.0,-7.2,-6.0,-855.9,-759.3,-0.3,-587.7,-1020.9,-821.4,0,2562,0,94,0, 
1.4267,-641.1,-827.4,-756.9,-762.0,-769.5,-847.5,-729.9,-558.6,-48461.4,-791.7,-751.2,-814.5,-921.0,-1054.5,-633.3,-659.7,-6.9,-6.0,-879.6,-761.1,-0.6,-590.1,-1047.6,-835.5,0,2568,0,95,0, 
1.4300,-528.9,-862.8,-765.0,-769.2,-784.5,-852.6,-738.3,-573.9,-15709.2,-829.8,-772.5,-845.7,-935.7,-1086.6,-688.8,-670.2,-7.2,-6.0,-882.3,-776.7,-0.9,-636.6,-1041.3,-833.7,0,2574,0,96,0, 
1.4333,-468.3,-885.0,-806.4,-802.2,-818.1,-885.6,-760.5,-600.0,40755.0,-845.7,-807.6,-888.3,-952.8,-1076.4,-658.2,-661.2,-6.6,-5.7,-911.4,-811.2,-0.6,-702.9,-1054.2,-846.3,0,2580,0,97,0, 
1.4367,-540.0,-837.0,-744.6,-764.4,-780.6,-861.3,-748.8,-570.0,43422.6,-822.6,-757.5,-822.0,-934.8,-1085.7,-685.2,-680.7,-7.2,-6.0,-859.2,-747.9,-0.6,-627.0,-1054.8,-817.8,0,2586,0,98,0, 
1.4400,-657.6,-839.4,-731.1,-749.4,-754.8,-840.6,-726.3,-549.9,-9781.2,-788.7,-710.7,-778.2,-919.5,-1076.1,-672.6,-667.2,-7.2,-5.7,-818.1,-711.3,-0.9,-570.6,-1021.2,-804.9,0,2592,0,99,0, 
1.4433,-633.9,-827.1,-765.3,-758.7,-755.1,-834.6,-724.2,-551.4,-45349.2,-791.1,-743.4,-798.3,-906.0,-1050.0,-642.6,-673.2,-6.9,-6.0,-845.7,-715.2,-0.3,-562.8,-1030.8,-799.5,0,2598,0,100,0, 
1.4467,-522.0,-870.6,-770.4,-770.4,-777.6,-852.6,-736.2,-574.5,-13856.7,-828.0,-773.4,-845.7,-924.0,-1053.9,-655.5,-677.7,-6.9,-5.7,-855.0,-752.4,-0.3,-640.8,-1038.3,-817.8,0,2604,0,101,0, 
1.4500,-442.5,-797.7,-780.6,-789.9,-802.8,-876.9,-754.2,-592.5,42014.7,-876.6,-821.1,-879.6,-981.0,-1054.5,-671.7,-682.2,-6.9,-6.0,-911.7,-772.5,-0.6,-657.0,-1050.3,-827.7,0,2610,0,102,0, 
1.4533,-550.8,-898.5,-783.9,-779.7,-780.6,-859.2,-740.7,-585.9,44460.0,-790.8,-766.5,-834.6,-939.3,-1067.4,-676.5,-683.4,-6.6,-5.4,-854.7,-735.0,-0.3,-611.7,-1035.6,-809.4,0,2616,0,103,0, 
1.4567,-645.6,-845.7,-736.2,-753.6,-759.0,-838.8,-724.2,-556.2,-8892.0,-763.8,-735.9,-800.4,-880.5,-1049.1,-651.9,-689.4,-6.9,-6.0,-808.8,-702.3,-0.9,-571.5,-1027.8,-796.8,0,2622,0,104,0, 
1.4600,-636.6,-830.1,-718.5,-754.2,-760.5,-841.2,-720.3,-553.5,-45571.5,-811.5,-747.3,-814.8,-939.0,-1048.5,-630.9,-667.8,-7.2,-6.0,-800.1,-710.1,0.0,-572.1,-1016.7,-803.7,0,2628,0,105,0, 
1.4633,-536.1,-846.0,-783.3,-774.3,-776.4,-853.2,-730.8,-573.3,-16005.6,-845.7,-783.9,-837.0,-939.3,-1076.1,-677.1,-669.6,-7.2,-5.7,-856.5,-722.1,-0.3,-623.4,-1024.2,-811.5,0,2634,0,106,0, 
1.4667,-475.8,-888.6,-790.5,-782.4,-787.5,-864.9,-752.7,-590.1,37716.9,-831.3,-800.7,-858.3,-930.6,-1062.0,-687.6,-706.2,-6.6,-6.0,-851.1,-729.3,-0.3,-637.5,-1054.2,-814.5,0,2640,0,107,0, 
1.4700,-555.0,-883.8,-787.8,-784.8,-787.2,-866.7,-749.7,-585.3,40606.8,-812.7,-782.1,-848.4,-933.9,-1069.2,-670.2,-682.8,-7.2,-6.0,-834.0,-718.8,-0.6,-643.5,-1039.8,-823.5,0,2646,0,108,0, 
1.4733,-639.9,-792.3,-693.9,-739.5,-754.2,-846.9,-735.9,-542.1,-12893.4,-786.6,-723.3,-791.7,-922.2,-1048.2,-615.6,-706.8,-6.6,-6.0,-756.0,-674.1,-0.6,-581.4,-1052.1,-814.8,0,2652,0,109,0, 
1.4767,-646.8,-841.5,-734.1,-741.6,-738.9,-833.4,-718.5,-538.2,-49943.4,-782.7,-726.0,-786.3,-921.3,-1071.0,-668.1,-695.1,-6.9,-6.0,-777.0,-659.7,-0.6,-571.2,-1011.6,-794.7,0,2658,0,110,0, 
1.4800,-529.5,-864.0,-752.1,-754.5,-763.5,-856.2,-740.4,-561.3,-21044.4,-807.6,-763.2,-833.7,-952.5,-1062.3,-675.3,-698.4,-6.9,-5.7,-801.3,-699.9,-0.6,-644.7,-1043.1,-820.8,0,2664,0,111,0, 
1.4833,-477.3,-881.4,-808.2,-782.4,-792.0,-881.4,-755.1,-588.3,32752.2,-854.4,-803.7,-866.4,-967.2,-1077.9,-687.6,-698.7,-6.9,-6.0,-822.9,-723.3,-0.6,-670.2,-1040.1,-828.3,0,2670,0,112,0, 
1.4867,-542.7,-832.5,-747.9,-756.0,-777.0,-873.3,-756.6,-564.0,37050.0,-823.8,-769.8,-840.6,-950.4,-1064.4,-684.6,-717.0,-6.9,-6.3,-798.0,-701.7,-0.6,-624.9,-1054.5,-826.2,0,2676,0,113,0, 
1.4900,-658.5,-873.3,-735.9,-737.4,-752.4,-852.0,-735.3,-545.7,-14597.7,-776.4,-719.7,-791.1,-925.8,-1051.2,-644.1,-693.6,-6.9,-5.7,-733.8,-664.2,-0.6,-585.9,-1025.4,-811.5,0,2682,0,114,0, 
1.4933,-639.3,-809.7,-717.0,-726.0,-739.5,-844.5,-734.7,-528.6,-51499.5,-801.9,-726.0,-795.9,-947.7,-1043.7,-653.7,-705.3,-6.9,-5.7,-738.0,-666.9,-0.9,-584.7,-1023.9,-808.5,0,2688,0,115,0, 
1.4967,-531.0,-859.2,-764.1,-748.2,-761.4,-862.8,-746.7,-555.0,-23934.3,-827.7,-757.5,-837.9,-944.1,-1050.0,-670.5,-713.1,-7.2,-6.0,-771.9,-696.6,-0.9,-629.7,-1026.9,-816.3,0,2694,0,116,0, 
1.5000,-477.6,-884.4,-766.8,-761.7,-783.9,-881.7,-767.7,-575.7,29788.2,-847.5,-790.8,-865.5,-941.7,-1056.0,-677.4,-725.1,-6.6,-6.0,-787.8,-721.5,-0.6,-670.5,-1049.7,-833.1,0,2700,0,117,0, 
1.5033,-541.2,-864.9,-751.8,-752.4,-780.9,-881.4,-762.6,-570.6,35271.6,-824.1,-778.8,-840.3,-952.5,-1041.6,-659.4,-702.6,-7.2,-5.7,-765.9,-706.2,-0.9,-656.1,-1032.3,-828.0,0,2706,0,118,0, 
1.5067,-644.1,-814.8,-693.3,-717.3,-747.6,-858.9,-742.2,-535.2,-14820.0,-798.3,-729.0,-793.2,-922.2,-1034.1,-648.6,-692.7,-6.9,-6.0,-728.7,-665.4,-0.6,-602.1,-1008.0,-809.7,0,2712,0,119,0, 
1.5100,-646.2,-795.9,-724.5,-713.4,-734.1,-848.1,-742.2,-528.9,-51721.8,-780.6,-722.7,-795.9,-935.4,-1047.6,-697.2,-721.2,-7.5,-5.7,-713.7,-660.3,-0.6,-592.2,-1020.0,-798.0,0,2718,0,120,0, 
1.5133,-543.9,-842.7,-720.6,-727.2,-754.8,-864.3,-755.7,-547.2,-25860.9,-823.8,-755.4,-843.9,-946.2,-1039.2,-681.0,-724.8,-6.9,-5.7,-754.2,-701.7,-0.9,-629.1,-1031.1,-813.0,0,2724,0,121,0, 
1.5167,-483.6,-900.0,-784.2,-750.9,-774.3,-885.3,-776.1,-576.6,26305.5,-835.8,-789.6,-858.6,-932.1,-1036.2,-691.8,-755.1,-7.2,-6.3,-780.6,-712.8,-0.9,-650.7,-1050.6,-823.5,0,2730,0,122,0, 
1.5200,-549.6,-878.4,-764.4,-747.9,-776.7,-883.8,-769.5,-569.1,33789.6,-839.4,-781.2,-845.4,-949.8,-1034.7,-673.2,-726.3,-6.9,-5.7,-777.9,-700.5,-0.6,-635.4,-1029.0,-821.4,0,2736,0,123,0, 
1.5233,-644.4,-837.6,-729.0,-725.7,-757.2,-864.3,-751.8,-543.0,-13189.8,-794.1,-740.1,-806.7,-924.0,-1013.1,-639.0,-712.5,-6.9,-5.7,-735.3,-676.2,-0.9,-604.8,-1014.3,-814.8,0,2742,0,124,0, 
1.5267,-657.6,-841.8,-726.0,-721.2,-746.1,-857.7,-742.8,-537.0,-51795.9,-812.1,-738.9,-798.9,-929.1,-1027.2,-650.4,-702.0,-6.9,-5.7,-723.9,-666.6,-0.3,-587.4,-1004.4,-811.2,0,2748,0,125,0, 
1.5300,-566.1,-851.1,-743.4,-728.7,-756.9,-866.4,-757.5,-549.0,-33048.6,-831.0,-761.1,-832.2,-945.3,-1029.9,-680.7,-723.6,-6.9,-6.0,-760.8,-691.8,-0.6,-621.3,-1025.1,-820.8,0,2754,0,126,0, 
1.5333,-505.8,-887.1,-776.7,-758.1,-794.4,-904.5,-782.1,-579.6,12745.2,-876.3,-807.3,-884.7,-957.0,-1016.4,-645.6,-725.4,-7.2,-6.0,-792.6,-739.2,-0.6,-692.1,-1053.6,-852.9,0,2760,0,127,0, 
1.5367,-545.4,-811.5,-698.7,-723.6,-772.2,-891.3,-778.8,-558.6,25935.0,-854.1,-777.6,-848.7,-941.4,-1036.5,-695.4,-753.9,-6.9,-5.7,-750.6,-712.2,-0.9,-680.1,-1057.8,-843.3,0,2766,0,128,0, 
1.5400,-599.1,-860.1,-751.2,-730.2,-762.6,-884.4,-768.3,-555.6,7187.7,-785.1,-759.3,-823.5,-958.5,-1022.4,-671.4,-735.0,-7.2,-5.7,-751.2,-688.8,-0.3,-633.0,-1051.8,-828.0,0,2772,0,129,0, 
1.5433,-620.1,-865.2,-725.1,-738.0,-774.0,-885.3,-762.6,-560.7,-9929.4,-868.5,-785.4,-846.3,-952.2,-1035.6,-639.6,-693.6,-6.9,-6.0,-783.0,-711.6,-1.2,-638.1,-1010.1,-831.9,0,2778,0,130,0, 
1.5467,-600.0,-872.4,-747.0,-718.8,-752.1,-872.4,-763.2,-545.4,-11485.5,-791.4,-749.4,-820.8,-918.6,-1038.3,-691.2,-746.7,-6.9,-6.0,-721.5,-685.5,-0.3,-638.4,-1041.0,-815.1,0,2784,0,131,0, 
1.5500,-553.8,-818.1,-725.7,-719.4,-765.6,-884.1,-777.0,-545.4,-1259.7,-831.9,-765.9,-842.1,-931.5,-1017.9,-681.0,-762.0,-6.9,-5.7,-742.8,-707.4,-0.9,-657.3,-1073.1,-832.2,0,2790,0,132,0, 
1.5533,-576.0,-858.3,-741.3,-731.4,-771.6,-891.9,-772.2,-558.9,1556.1,-854.1,-778.8,-848.4,-936.0,-1023.6,-651.6,-726.9,-6.9,-5.7,-759.6,-708.0,-0.6,-623.7,-1041.3,-825.9,0,2796,0,133,0, 
1.5567,-621.6,-886.2,-750.9,-719.4,-750.3,-876.3,-764.1,-549.3,-12597.0,-801.0,-756.0,-822.3,-949.5,-1027.2,-666.0,-737.7,-6.6,-5.7,-748.2,-683.4,-0.6,-612.9,-1035.6,-814.2,0,2802,0,134,0, 
1.5600,-612.3,-818.1,-717.0,-722.1,-768.9,-891.6,-770.4,-553.2,-27268.8,-845.1,-759.0,-839.4,-943.5,-1005.9,-629.7,-721.5,-7.2,-5.4,-735.0,-702.0,-0.3,-651.9,-1046.1,-836.4,0,2808,0,135,0, 
1.5633,-597.3,-860.7,-751.2,-732.3,-771.9,-892.2,-764.1,-557.7,-27713.4,-821.1,-765.6,-843.3,-960.3,-1006.8,-658.5,-707.7,-6.6,-6.0,-757.2,-705.3,-0.3,-655.8,-1027.8,-835.2,0,2814,0,136,0, 
1.5667,-576.3,-841.5,-715.5,-712.8,-758.1,-884.1,-762.6,-550.8,-16450.2,-837.3,-759.3,-830.7,-913.2,-1036.2,-705.6,-732.6,-6.9,-5.7,-727.5,-694.5,-0.6,-634.5,-1023.6,-821.4,0,2820,0,137,0, 
1.5700,-585.0,-872.7,-755.7,-723.6,-761.1,-886.8,-768.6,-560.1,-12374.7,-809.1,-762.3,-819.9,-942.9,-1019.7,-676.5,-735.3,-6.9,-5.7,-739.5,-681.3,-0.6,-629.7,-1041.0,-824.1,0,2826,0,138,0, 
1.5733,-604.5,-831.0,-732.0,-717.9,-765.6,-888.3,-765.9,-555.3,-23934.3,-813.6,-757.5,-833.7,-946.2,-1014.0,-680.1,-720.3,-6.9,-6.3,-708.9,-693.3,-0.3,-633.6,-1031.1,-830.1,0,2832,0,139,0, 
1.5767,-601.8,-770.7,-688.2,-711.9,-765.6,-894.9,-768.6,-547.8,-37346.4,-864.0,-786.0,-848.1,-968.4,-993.3,-665.1,-723.6,-6.9,-5.7,-765.6,-709.8,-0.6,-643.2,-1039.2,-838.8,0,2838,0,140,0, 
1.5800,-586.2,-866.4,-809.1,-745.8,-776.7,-897.3,-773.7,-564.6,-37865.1,-838.8,-790.5,-860.4,-1018.8,-997.2,-641.4,-714.9,-7.2,-6.0,-775.8,-712.5,-0.9,-633.3,-1039.5,-838.8,0,2844,0,141,0, 
1.5833,-597.6,-934.8,-738.9,-719.4,-762.3,-888.9,-764.1,-564.0,-27417.0,-806.1,-767.7,-838.5,-888.0,-1006.8,-634.2,-691.8,-6.9,-6.3,-749.1,-694.5,-0.6,-635.4,-1004.4,-820.8,0,2850,0,142,0, 
1.5867,-580.2,-868.5,-765.6,-731.1,-774.3,-897.9,-774.9,-560.4,-23341.5,-847.5,-785.1,-868.2,-930.3,-998.1,-640.2,-722.4,-6.9,-6.0,-755.1,-726.3,-0.6,-666.0,-1031.7,-839.4,0,2856,0,143,0, 
1.5900,-600.3,-831.0,-726.6,-719.1,-773.1,-905.1,-779.1,-547.8,-33048.6,-878.7,-793.2,-890.1,-935.4,-998.4,-638.1,-732.3,-7.2,-6.3,-749.7,-744.3,-0.3,-672.3,-1064.1,-852.6,0,2862,0,144,0, 
1.5933,-624.3,-863.7,-739.5,-712.5,-755.7,-881.7,-765.3,-541.8,-45793.8,-827.1,-785.1,-858.6,-973.2,-1006.2,-680.4,-723.0,-6.6,-6.3,-762.9,-711.3,-0.6,-639.0,-1022.1,-826.2,0,2868,0,145,0, 
1.5967,-601.8,-856.2,-720.9,-688.2,-726.3,-866.4,-765.9,-530.1,-46238.4,-793.5,-730.2,-799.5,-896.4,-1003.8,-693.0,-745.5,-7.2,-5.7,-687.0,-656.7,-0.6,-609.0,-1038.3,-814.2,0,2874,0,146,0, 
1.6000,-563.4,-801.6,-691.8,-695.4,-745.8,-881.4,-773.7,-534.9,-35049.3,-836.7,-761.4,-833.1,-957.3,-981.0,-654.9,-732.0,-6.9,-5.4,-753.3,-692.4,-0.6,-638.7,-1047.0,-835.2,0,2880,0,147,0, 
1.6033,-585.6,-907.2,-784.2,-720.3,-748.2,-880.8,-774.9,-550.2,-30084.6,-810.9,-784.2,-846.3,-920.7,-977.1,-659.1,-733.2,-6.3,-5.7,-756.9,-693.0,-0.9,-618.0,-1032.9,-816.3,0,2886,0,148,0, 
1.6067,-603.9,-864.3,-739.2,-701.7,-735.9,-875.4,-772.2,-535.8,-38902.5,-791.7,-761.7,-827.1,-921.6,-974.7,-658.5,-744.0,-7.2,-6.0,-733.2,-678.9,-0.9,-629.4,-1038.0,-812.1,0,2892,0,149,0, 
1.6100,-599.1,-827.4,-711.3,-690.9,-733.2,-874.2,-771.0,-528.6,-50610.3,-814.5,-745.5,-819.6,-936.6,-960.3,-649.8,-742.2,-6.6,-5.4,-716.1,-676.5,-0.9,-630.9,-1037.1,-813.6,0,2898,0,150,0, 
1.6133,-590.4,-852.0,-723.9,-695.7,-734.1,-871.8,-768.9,-531.6,-50239.8,-830.4,-759.6,-836.4,-940.8,-968.4,-648.9,-727.8,-7.2,-6.0,-739.2,-687.0,-0.6,-620.4,-1032.0,-813.3,0,2904,0,151,0, 
1.6167,-563.1,-850.8,-721.5,-689.1,-729.9,-867.9,-770.4,-526.2,-38902.5,-834.0,-777.9,-851.4,-909.0,-955.8,-670.5,-739.2,-6.6,-5.4,-735.3,-696.0,-0.9,-627.0,-1030.5,-810.3,0,2910,0,152,0, 
1.6200,-562.8,-834.9,-742.2,-691.5,-727.5,-868.8,-774.6,-527.7,-32974.5,-813.3,-766.2,-835.8,-964.2,-945.0,-669.6,-729.0,-7.2,-5.7,-753.3,-682.2,-0.6,-615.9,-1038.9,-812.4,0,2916,0,153,0, 
1.6233,-588.3,-816.6,-703.5,-686.4,-735.6,-873.9,-772.8,-528.9,-40755.0,-837.3,-756.9,-838.5,-934.2,-928.8,-631.8,-701.1,-7.2,-6.0,-713.7,-695.1,-1.2,-656.4,-1029.3,-831.0,0,2922,0,154,0, 
1.6267,-617.7,-845.7,-737.4,-687.3,-721.2,-858.3,-763.2,-517.2,-51870.0,-805.5,-764.1,-837.0,-921.3,-935.4,-640.8,-717.3,-6.9,-6.0,-741.0,-682.8,-0.6,-615.0,-1021.5,-810.0,0,2928,0,155,0, 
1.6300,-593.1,-874.8,-748.5,-695.1,-732.9,-864.3,-765.9,-526.5,-51203.1,-827.7,-774.6,-852.0,-934.2,-930.0,-602.4,-697.8,-6.9,-5.7,-757.8,-699.6,-0.6,-642.9,-1013.7,-816.6,0,2934,0,156,0, 
1.6333,-568.5,-845.7,-725.1,-667.8,-707.1,-848.1,-771.3,-507.0,-39198.9,-792.9,-745.2,-821.1,-894.6,-932.4,-670.8,-773.7,-7.2,-5.4,-710.4,-668.7,-0.6,-620.4,-1061.7,-801.3,0,2940,0,157,0, 
1.6367,-569.7,-850.5,-726.3,-676.2,-717.0,-853.2,-768.0,-517.5,-33419.1,-795.3,-757.8,-824.7,-912.3,-915.3,-674.4,-736.2,-6.9,-5.4,-726.6,-675.6,-0.3,-623.7,-1038.9,-802.8,0,2946,0,158,0, 
1.6400,-592.5,-843.6,-718.2,-667.5,-708.9,-844.8,-762.6,-509.1,-39643.5,-800.4,-743.4,-807.0,-911.1,-918.9,-672.0,-739.8,-7.2,-6.0,-709.8,-656.1,-0.9,-592.2,-1030.8,-790.8,0,2952,0,159,0, 
1.6433,-606.3,-848.4,-720.0,-669.0,-711.6,-844.2,-756.3,-510.9,-50017.5,-812.7,-752.4,-813.9,-921.6,-915.0,-641.1,-713.7,-6.6,-5.7,-721.2,-659.7,-0.9,-600.6,-1014.6,-790.5,0,2958,0,160,0, 
1.6467,-584.4,-843.3,-724.2,-675.0,-716.4,-852.3,-765.6,-511.5,-49498.8,-795.0,-766.8,-835.8,-918.6,-901.5,-650.4,-728.1,-6.6,-6.0,-739.5,-675.0,-0.6,-619.5,-1029.3,-799.5,0,2964,0,161,0, 
1.6500,-564.0,-848.1,-729.0,-680.7,-734.1,-861.0,-765.9,-522.6,-37494.6,-820.5,-775.5,-857.1,-930.3,-897.6,-640.2,-709.8,-7.2,-6.0,-733.5,-691.8,-0.6,-639.3,-1016.4,-810.0,0,2970,0,162,0, 
1.6533,-567.6,-822.9,-715.8,-680.7,-735.3,-861.0,-770.7,-517.8,-30973.8,-850.8,-779.4,-853.5,-936.3,-901.2,-636.3,-724.5,-6.3,-5.7,-747.3,-690.6,-0.3,-624.3,-1035.3,-807.3,0,2976,0,163,0, 
1.6567,-603.6,-867.6,-731.1,-683.4,-731.1,-862.8,-768.0,-517.8,-37124.1,-808.2,-780.9,-844.2,-915.9,-904.8,-627.0,-716.1,-6.9,-6.0,-745.5,-680.7,-0.6,-622.8,-1027.5,-811.2,0,2982,0,164,0, 
1.6600,-610.2,-847.5,-737.7,-682.8,-724.8,-858.9,-765.0,-513.6,-46683.0,-803.1,-769.2,-839.1,-897.3,-892.8,-646.8,-724.5,-6.6,-5.7,-728.4,-682.8,-0.6,-625.5,-1018.2,-809.7,0,2988,0,165,0, 
1.6633,-596.4,-857.1,-732.9,-683.1,-727.8,-861.3,-770.4,-520.2,-45201.0,-820.8,-777.6,-851.1,-940.5,-897.6,-645.6,-730.5,-7.2,-6.0,-737.1,-687.6,-0.6,-623.4,-1021.8,-817.2,0,2994,0,166,0, 
1.6667,-555.9,-793.5,-708.3,-680.1,-729.3,-864.9,-776.4,-513.3,-33789.6,-840.6,-800.7,-852.6,-957.9,-886.2,-665.1,-738.3,-6.9,-5.7,-769.2,-690.0,-0.6,-639.3,-1025.1,-818.1,0,3000,0,167,0, 
1.6700,-582.9,-885.6,-753.9,-682.8,-727.8,-862.8,-777.0,-521.4,-27046.5,-819.9,-778.2,-846.3,-922.2,-878.7,-645.9,-744.6,-7.2,-6.0,-740.1,-679.2,-1.2,-633.3,-1039.2,-818.4,0,3006,0,168,0, 
1.6733,-602.1,-848.7,-702.9,-670.5,-723.9,-859.8,-773.7,-511.2,-33345.0,-831.6,-779.4,-847.2,-907.5,-874.2,-641.1,-741.6,-6.9,-5.4,-729.3,-676.2,-0.9,-612.9,-1042.8,-812.4,0,3012,0,169,0, 
1.6767,-614.1,-851.4,-721.5,-675.3,-730.2,-865.2,-770.7,-513.0,-43644.9,-821.7,-784.5,-845.1,-945.3,-876.9,-645.0,-737.4,-7.2,-6.0,-746.4,-680.7,-0.6,-644.7,-1042.8,-823.8,0,3018,0,170,0, 
1.6800,-590.4,-807.9,-726.6,-678.6,-730.2,-867.6,-774.3,-512.7,-42829.8,-846.9,-793.2,-858.0,-963.9,-872.4,-664.8,-735.0,-6.9,-5.7,-742.8,-685.8,-0.3,-632.1,-1035.3,-829.2,0,3024,0,171,0, 
1.6833,-590.7,-846.6,-754.8,-689.1,-732.9,-865.8,-776.1,-525.6,-32604.0,-819.9,-804.3,-858.3,-941.4,-875.7,-666.3,-734.1,-6.9,-6.0,-775.5,-685.2,-0.6,-626.7,-1036.2,-827.4,0,3030,0,172,0, 
1.6867,-594.9,-900.0,-739.5,-690.9,-739.8,-873.9,-777.3,-533.4,-25490.4,-837.0,-797.7,-867.6,-962.4,-862.8,-655.2,-734.7,-6.9,-5.7,-753.6,-694.2,-0.6,-639.0,-1034.1,-828.9,0,3036,0,173,0, 
1.6900,-614.7,-858.3,-742.8,-687.9,-738.9,-871.5,-771.0,-528.9,-32455.8,-828.6,-798.6,-861.6,-921.3,-863.4,-654.0,-733.5,-6.9,-6.0,-758.7,-684.6,-0.3,-627.6,-1028.1,-819.0,0,3042,0,174,0, 
1.6933,-630.6,-893.7,-756.3,-690.6,-735.3,-872.1,-771.0,-535.8,-42459.3,-818.4,-792.9,-853.8,-934.2,-850.2,-628.5,-731.4,-6.3,-6.0,-750.6,-682.8,-0.9,-622.5,-1029.3,-820.5,0,3048,0,175,0, 
1.6967,-611.7,-855.3,-738.6,-682.8,-736.2,-871.8,-770.7,-530.4,-41570.1,-827.7,-793.8,-864.3,-943.8,-857.7,-653.7,-742.2,-7.2,-5.7,-749.1,-687.6,-0.9,-630.0,-1029.9,-817.5,0,3054,0,176,0, 
1.7000,-591.6,-877.2,-753.9,-694.2,-745.2,-877.2,-772.2,-537.9,-31492.5,-845.1,-804.6,-877.8,-946.2,-853.8,-646.5,-739.8,-6.9,-5.7,-758.7,-696.6,-0.9,-641.1,-1032.9,-822.3,0,3060,0,177,0, 
1.7033,-600.9,-870.0,-728.7,-685.5,-744.6,-877.2,-774.0,-532.2,-25490.4,-837.9,-798.3,-862.2,-946.2,-861.6,-671.7,-751.2,-6.6,-6.0,-763.5,-687.9,-0.6,-645.9,-1029.6,-823.2,0,3066,0,178,0, 
1.7067,-616.2,-852.3,-728.1,-686.7,-740.4,-874.2,-771.6,-526.8,-33048.6,-842.4,-798.0,-872.7,-940.2,-852.6,-665.1,-749.7,-6.9,-6.0,-754.5,-691.8,-0.6,-642.0,-1034.4,-823.2,0,3072,0,179,0, 
1.7100,-626.7,-875.7,-760.8,-692.4,-741.0,-877.2,-773.7,-528.9,-43274.4,-813.3,-798.6,-873.6,-932.4,-840.0,-652.8,-748.5,-6.6,-5.7,-752.7,-692.1,-0.6,-628.8,-1039.8,-825.3,0,3078,0,180,0, 
1.7133,-610.8,-858.6,-740.7,-685.2,-741.9,-880.8,-771.3,-526.5,-43422.6,-830.7,-806.4,-877.8,-936.3,-852.3,-654.6,-750.0,-6.9,-6.0,-764.1,-700.2,-0.6,-640.5,-1032.0,-823.8,0,3084,0,181,0, 
1.7167,-592.8,-866.4,-742.2,-680.1,-732.3,-871.5,-770.4,-522.3,-33863.7,-828.3,-802.2,-874.8,-937.5,-858.3,-676.5,-756.3,-6.6,-5.7,-757.8,-690.0,-0.3,-630.6,-1024.8,-811.8,0,3090,0,182,0, 
1.7200,-597.0,-853.5,-743.7,-687.6,-739.5,-879.6,-773.4,-525.6,-28528.5,-835.5,-807.6,-879.6,-941.4,-852.3,-655.2,-743.7,-6.6,-6.0,-764.4,-697.5,-0.6,-641.7,-1027.2,-818.1,0,3096,0,183,0, 
1.7233,-617.7,-860.7,-735.6,-681.0,-730.5,-873.0,-767.4,-520.5,-36086.7,-829.2,-796.5,-858.0,-939.0,-844.8,-658.2,-744.0,-6.6,-6.0,-753.3,-677.4,-0.6,-627.3,-1016.4,-812.1,0,3102,0,184,0, 
1.7267,-622.5,-842.1,-722.7,-672.0,-722.7,-871.5,-770.1,-515.1,-47053.5,-823.2,-786.9,-853.8,-933.6,-833.4,-651.9,-755.4,-7.2,-6.0,-744.3,-676.2,-0.6,-624.6,-1025.4,-814.8,0,3108,0,185,0, 
1.7300,-609.9,-848.7,-727.5,-674.7,-728.1,-876.0,-774.6,-518.7,-47572.2,-832.2,-794.7,-871.2,-944.7,-839.1,-647.4,-744.6,-6.3,-5.7,-747.0,-691.5,-0.6,-636.9,-1027.2,-821.1,0,3114,0,186,0, 
1.7333,-593.1,-852.3,-738.6,-679.2,-728.7,-875.1,-774.9,-521.7,-38754.3,-840.6,-799.5,-874.5,-930.9,-844.2,-648.6,-751.5,-6.3,-5.7,-749.1,-691.2,-0.9,-645.9,-1023.9,-819.9,0,3120,0,187,0, 
1.7367,-596.7,-857.1,-742.8,-675.6,-727.5,-876.9,-779.4,-522.9,-33863.7,-831.0,-804.0,-861.9,-937.8,-831.9,-659.7,-766.2,-6.6,-6.3,-756.3,-682.2,-0.6,-639.3,-1032.0,-822.9,0,3126,0,188,0, 
1.7400,-616.8,-857.7,-736.2,-670.5,-716.7,-871.5,-768.6,-517.5,-41199.6,-820.8,-798.3,-853.2,-930.6,-837.3,-658.5,-753.9,-6.9,-6.0,-755.1,-676.8,-0.6,-629.1,-1019.4,-816.3,0,3132,0,189,0, 
1.7433,-619.5,-818.1,-708.3,-656.7,-712.8,-867.3,-765.6,-510.0,-51944.1,-818.1,-784.8,-865.8,-941.4,-831.3,-660.0,-747.3,-6.6,-6.0,-736.2,-685.2,-0.6,-627.3,-1018.2,-816.9,0,3138,0,190,0, 
1.7467,-601.5,-824.4,-710.7,-657.0,-714.9,-872.4,-769.2,-509.7,-53352.0,-830.4,-791.7,-869.4,-949.5,-828.0,-660.3,-747.9,-6.6,-6.0,-751.5,-691.2,-0.6,-629.4,-1016.4,-816.0,0,3144,0,191,0, 
1.7500,-602.4,-877.8,-752.4,-669.9,-719.1,-874.5,-768.0,-522.9,-44015.4,-816.6,-809.1,-865.2,-907.2,-828.3,-645.0,-742.8,-7.2,-5.7,-764.4,-683.1,-0.6,-635.4,-1018.2,-811.8,0,3150,0,192,0, 
1.7533,-590.7,-850.5,-726.9,-657.0,-713.4,-872.4,-768.9,-516.6,-38976.6,-822.0,-797.4,-858.3,-920.4,-816.0,-654.3,-760.8,-6.9,-6.3,-756.9,-679.8,-0.9,-631.8,-1023.6,-813.6,0,3156,0,193,0, 
1.7567,-619.2,-848.4,-726.0,-657.0,-709.5,-861.9,-762.6,-513.6,-46979.4,-815.7,-790.2,-856.2,-925.2,-823.2,-656.7,-754.8,-6.9,-6.0,-750.0,-678.9,-0.6,-617.1,-1012.5,-805.2,0,3162,0,194,0, 
1.7600,-623.7,-837.6,-713.4,-644.4,-700.8,-854.7,-760.5,-506.4,-58094.4,-810.9,-781.2,-855.6,-913.8,-813.0,-663.6,-769.5,-6.9,-6.0,-735.3,-675.3,-0.9,-613.8,-1012.5,-800.4,0,3168,0,195,0, 
1.7633,-599.7,-828.0,-694.2,-642.3,-702.3,-853.5,-761.4,-505.8,-59131.8,-812.1,-781.2,-851.7,-938.7,-817.8,-673.8,-745.5,-6.9,-5.7,-731.4,-676.5,-0.9,-610.5,-1016.1,-801.9,0,3174,0,196,0, 
1.7667,-574.2,-791.1,-693.0,-644.1,-706.2,-858.9,-767.7,-509.1,-49128.3,-840.3,-792.9,-860.7,-954.6,-809.7,-674.4,-764.1,-6.9,-6.0,-753.0,-685.2,-0.3,-633.6,-1023.3,-817.2,0,3180,0,197,0, 
1.7700,-609.3,-879.9,-762.6,-665.1,-710.1,-860.1,-763.5,-526.2,-43793.1,-818.7,-797.1,-856.2,-933.9,-825.0,-649.5,-731.1,-6.6,-5.7,-752.4,-687.0,-1.2,-622.8,-1008.3,-816.0,0,3186,0,198,0, 
1.7733,-621.6,-868.5,-715.8,-647.1,-702.6,-858.0,-761.4,-512.1,-51277.2,-800.7,-780.3,-844.5,-909.6,-816.6,-672.3,-756.0,-6.6,-5.4,-735.6,-679.5,-0.6,-618.6,-1011.0,-807.9,0,3192,0,199,0, 
1.7767,-625.5,-838.5,-709.8,-643.2,-692.7,-852.3,-759.6,-505.5,-61651.2,-807.6,-773.4,-837.9,-924.9,-813.0,-663.9,-764.4,-7.2,-5.7,-724.8,-673.2,-0.9,-612.9,-1016.4,-796.8,0,3198,0,200,0, 
1.7800,-604.5,-827.1,-730.5,-657.6,-703.2,-861.3,-765.9,-511.5,-61503.0,-832.8,-800.1,-860.7,-940.8,-807.6,-655.5,-769.2,-6.6,-5.7,-764.1,-692.4,-0.6,-623.7,-1024.8,-808.2,0,3204,0,201,0, 
1.7833,-598.5,-842.7,-735.3,-659.7,-710.7,-866.7,-765.6,-522.0,-50684.4,-827.4,-796.8,-863.4,-932.4,-827.7,-666.0,-743.7,-7.2,-6.0,-749.1,-699.0,-0.9,-641.1,-1007.1,-819.9,0,3210,0,202,0, 
1.7867,-608.4,-880.5,-740.1,-666.9,-719.1,-874.5,-770.7,-528.3,-44608.2,-827.4,-805.8,-871.2,-927.6,-822.9,-680.1,-724.8,-6.6,-6.0,-756.3,-704.1,-0.6,-652.2,-1024.8,-832.2,0,3216,0,203,0, 
1.7900,-609.0,-833.7,-738.6,-663.3,-710.4,-870.6,-778.8,-516.3,-51425.4,-819.3,-793.5,-861.3,-939.9,-791.1,-639.0,-794.7,-6.9,-5.7,-741.0,-692.7,-0.6,-620.4,-1035.9,-821.4,0,3222,0,204,0, 
1.7933,-617.4,-819.3,-678.9,-636.0,-693.3,-857.1,-768.6,-501.0,-61354.8,-817.5,-781.8,-843.6,-892.5,-797.7,-666.0,-799.5,-6.3,-6.0,-744.6,-681.9,-0.6,-620.1,-1033.2,-817.5,0,3228,0,205,0, 
1.7967,-554.7,-873.0,-746.4,-659.4,-711.0,-867.0,-775.2,-520.5,-36086.7,-818.7,-803.7,-876.0,-926.1,-822.6,-681.9,-791.4,-7.2,-6.3,-750.3,-699.9,-0.9,-635.7,-1033.5,-816.9,0,3234,0,206,0, 
1.8000,-438.9,-880.5,-769.5,-687.6,-744.9,-895.5,-802.2,-549.0,42088.8,-870.9,-848.4,-926.1,-939.3,-821.4,-704.4,-798.6,-6.9,-5.7,-792.3,-745.2,-0.6,-694.5,-1054.2,-840.3,0,3240,0,207,0, 
1.8033,-468.3,-903.0,-788.1,-692.7,-753.6,-902.7,-805.5,-559.8,93662.4,-864.0,-850.8,-924.0,-945.3,-817.2,-684.3,-800.4,-6.9,-6.0,-798.9,-743.1,-0.6,-680.1,-1045.2,-837.6,0,3246,0,208,0, 
1.8067,-597.3,-857.7,-733.5,-664.2,-723.6,-876.6,-786.9,-527.7,69431.7,-823.8,-805.5,-869.4,-934.8,-805.5,-663.0,-791.7,-7.2,-6.0,-756.9,-706.2,-0.6,-628.8,-1031.1,-822.3,0,3252,0,209,0, 
1.8100,-635.4,-840.3,-720.6,-647.4,-706.8,-858.6,-769.8,-513.0,32604.0,-800.4,-780.6,-840.9,-924.3,-801.6,-672.9,-780.3,-6.9,-6.0,-731.4,-681.0,-0.9,-612.0,-1015.8,-805.5,0,3258,0,210,0, 
1.8133,-557.7,-858.9,-740.1,-664.2,-723.9,-873.6,-783.3,-529.2,51129.0,-853.8,-816.9,-885.0,-934.8,-804.0,-661.2,-777.9,-6.9,-5.7,-763.8,-712.8,-0.3,-651.3,-1033.8,-818.1,0,3264,0,211,0, 
1.8167,-511.2,-872.7,-748.8,-672.3,-736.8,-888.3,-795.3,-540.6,96107.7,-860.1,-829.2,-901.8,-952.5,-830.7,-697.5,-792.6,-6.9,-5.7,-780.0,-724.2,-0.9,-662.1,-1047.3,-821.1,0,3270,0,212,0, 
1.8200,-591.6,-858.0,-729.0,-658.8,-723.6,-876.6,-785.4,-524.4,93069.6,-826.2,-797.4,-867.0,-932.1,-821.1,-687.6,-777.9,-6.9,-6.0,-750.9,-703.2,-0.6,-641.1,-1028.1,-813.9,0,3276,0,213,0, 
1.8233,-688.5,-828.6,-703.2,-633.3,-693.0,-852.0,-763.2,-497.1,36012.6,-792.6,-752.1,-818.1,-922.8,-804.9,-656.7,-770.7,-6.6,-6.3,-703.2,-661.8,-0.6,-588.3,-1015.2,-798.3,0,3282,0,214,0, 
1.8267,-672.6,-817.8,-686.1,-624.9,-685.2,-845.4,-765.9,-487.2,-3260.4,-774.0,-749.4,-817.5,-901.2,-795.6,-663.0,-780.0,-7.2,-6.3,-697.8,-662.4,-0.9,-602.1,-1032.9,-804.3,0,3288,0,215,0, 
1.8300,-561.3,-848.4,-743.1,-656.7,-717.9,-871.2,-779.7,-519.3,22748.7,-863.7,-815.4,-876.0,-975.6,-807.6,-666.0,-770.4,-7.2,-6.0,-774.6,-699.6,-0.3,-631.8,-1038.0,-815.4,0,3294,0,216,0, 
1.8333,-522.0,-867.3,-732.9,-653.7,-720.9,-877.5,-790.2,-526.5,70691.4,-850.8,-821.7,-875.7,-921.0,-819.0,-698.4,-797.4,-6.9,-5.7,-775.5,-702.6,-0.9,-648.6,-1045.8,-814.2,0,3300,0,217,0, 
1.8367,-600.9,-862.2,-725.7,-655.8,-723.3,-873.9,-780.3,-523.2,66171.3,-822.3,-795.9,-858.0,-939.9,-811.8,-678.9,-784.5,-6.9,-6.3,-754.8,-691.8,-0.9,-626.7,-1022.1,-814.2,0,3306,0,218,0, 
1.8400,-699.9,-827.7,-702.0,-641.7,-700.2,-855.0,-767.1,-496.5,9188.4,-791.7,-765.3,-819.6,-901.5,-800.1,-645.0,-764.7,-6.6,-5.4,-730.5,-665.1,-0.6,-600.9,-1025.4,-811.5,0,3312,0,219,0, 
1.8433,-681.6,-822.6,-695.7,-636.3,-693.0,-847.2,-762.3,-491.7,-26157.3,-791.1,-764.4,-825.3,-908.4,-793.8,-650.4,-769.5,-7.2,-6.3,-727.5,-666.6,-0.6,-605.7,-1031.4,-812.4,0,3318,0,220,0, 
1.8467,-570.3,-848.1,-731.4,-656.1,-711.6,-861.0,-775.8,-510.9,4223.7,-837.9,-814.5,-868.2,-929.4,-806.4,-696.9,-792.0,-6.9,-6.0,-771.9,-695.4,-0.3,-627.6,-1044.0,-809.4,0,3324,0,221,0, 
1.8500,-520.5,-872.7,-755.1,-672.6,-731.1,-877.8,-792.0,-529.5,54315.3,-858.6,-825.6,-894.9,-950.7,-808.2,-702.0,-804.3,-7.5,-6.0,-775.8,-718.5,-0.9,-660.6,-1053.9,-834.6,0,3330,0,222,0, 
1.8533,-596.1,-852.3,-730.8,-662.1,-719.7,-866.4,-780.6,-515.7,50906.7,-819.6,-794.4,-856.2,-932.7,-801.3,-670.8,-781.2,-6.9,-6.0,-747.9,-692.4,-0.6,-638.1,-1040.1,-832.2,0,3336,0,223,0, 
1.8567,-699.9,-833.1,-714.3,-654.9,-708.0,-857.1,-762.9,-499.8,-4149.6,-809.1,-768.6,-835.5,-932.1,-792.9,-643.5,-749.1,-7.5,-6.3,-729.0,-679.5,-0.9,-608.1,-1020.0,-823.8,0,3342,0,224,0, 
1.8600,-680.1,-816.3,-701.1,-641.1,-695.1,-846.9,-762.0,-484.5,-37198.2,-796.5,-760.8,-833.4,-917.1,-795.9,-683.4,-784.2,-6.9,-6.0,-714.3,-676.2,-0.3,-607.5,-1035.0,-808.5,0,3348,0,225,0, 
1.8633,-564.3,-850.2,-738.3,-667.5,-730.2,-879.6,-785.7,-514.8,-5112.9,-846.3,-814.8,-884.7,-940.2,-804.6,-690.6,-795.0,-7.2,-6.0,-758.4,-720.3,-0.9,-653.4,-1055.7,-831.9,0,3354,0,226,0, 
1.8667,-515.7,-866.7,-749.7,-677.7,-741.3,-887.7,-797.4,-526.2,46090.2,-857.4,-828.0,-896.4,-949.5,-817.5,-713.7,-823.8,-6.6,-5.7,-771.9,-728.1,-0.6,-667.8,-1061.7,-833.4,0,3360,0,227,0, 
1.8700,-597.0,-846.0,-722.4,-664.2,-726.6,-877.5,-785.7,-508.8,44237.7,-818.1,-786.3,-858.0,-933.0,-806.7,-696.6,-820.5,-7.2,-6.0,-738.6,-707.7,-0.9,-643.2,-1052.4,-830.4,0,3366,0,228,0, 
1.8733,-693.3,-825.0,-708.3,-660.3,-719.7,-864.3,-769.5,-495.6,-10448.1,-800.7,-768.9,-827.1,-924.6,-786.0,-645.6,-780.6,-6.9,-5.4,-718.8,-682.8,-0.6,-610.2,-1027.2,-825.9,0,3372,0,229,0, 
1.8767,-667.8,-816.0,-702.9,-651.9,-707.1,-859.2,-765.6,-490.2,-42088.8,-785.7,-754.2,-831.6,-916.8,-791.7,-668.7,-793.5,-6.9,-6.0,-711.6,-683.1,-0.6,-610.2,-1039.2,-822.6,0,3378,0,230,0, 
1.8800,-548.4,-841.2,-732.6,-668.7,-729.3,-873.9,-789.6,-511.5,-8299.2,-827.4,-806.4,-882.9,-925.8,-789.6,-687.9,-816.9,-6.3,-5.7,-753.9,-719.7,-0.9,-637.8,-1065.3,-831.6,0,3384,0,231,0, 
1.8833,-502.2,-861.0,-754.8,-687.6,-747.0,-892.8,-800.4,-531.0,43274.4,-853.2,-828.9,-907.8,-940.8,-800.4,-702.3,-823.8,-6.9,-6.0,-771.3,-740.7,-0.6,-674.4,-1065.3,-843.9,0,3390,0,232,0, 
1.8867,-592.8,-848.7,-738.0,-675.3,-735.0,-883.5,-786.6,-521.1,41273.7,-826.8,-806.4,-877.8,-933.9,-798.3,-687.3,-786.0,-6.6,-5.7,-751.8,-721.2,-0.9,-633.3,-1035.3,-830.7,0,3396,0,233,0, 
1.8900,-688.8,-821.7,-711.3,-657.3,-711.0,-861.6,-768.3,-498.6,-12078.3,-792.0,-771.3,-830.1,-915.6,-795.3,-663.3,-774.9,-6.9,-6.3,-720.9,-688.5,-0.9,-590.7,-1022.4,-824.4,0,3402,0,234,0, 
1.8933,-666.6,-815.1,-708.9,-654.9,-709.8,-859.5,-763.5,-493.2,-43052.1,-783.6,-774.9,-838.8,-907.8,-783.0,-660.6,-778.2,-7.2,-6.0,-722.4,-699.6,-0.6,-610.2,-1016.1,-825.0,0,3408,0,235,0, 
1.8967,-553.2,-840.0,-738.9,-672.0,-720.9,-865.5,-774.9,-513.6,-9188.4,-832.5,-813.0,-869.4,-925.5,-786.3,-682.5,-798.9,-6.9,-6.0,-755.4,-720.6,-0.6,-627.6,-1014.9,-819.6,0,3414,0,236,0, 
1.9000,-510.6,-862.8,-758.1,-689.1,-742.8,-887.7,-795.0,-531.3,43644.9,-861.0,-836.4,-898.8,-942.0,-800.1,-695.4,-805.2,-6.9,-6.0,-776.7,-743.4,-0.6,-672.6,-1054.5,-840.0,0,3420,0,237,0, 
1.9033,-591.0,-845.4,-737.1,-675.9,-729.9,-875.4,-782.7,-516.0,42385.2,-833.1,-813.0,-872.4,-928.5,-795.9,-684.6,-790.2,-7.2,-6.0,-751.5,-718.8,-0.6,-643.2,-1033.8,-828.9,0,3426,0,238,0, 
1.9067,-688.8,-808.2,-705.3,-654.0,-701.7,-852.6,-761.4,-488.4,-10448.1,-786.9,-773.1,-837.6,-908.1,-779.1,-657.9,-773.7,-7.2,-6.3,-715.8,-692.7,-0.6,-605.7,-1017.0,-816.6,0,3432,0,239,0, 
1.9100,-664.5,-813.6,-710.4,-656.1,-705.6,-850.8,-757.8,-486.0,-41718.3,-794.4,-783.0,-846.0,-898.5,-764.7,-642.9,-779.4,-6.9,-6.0,-720.9,-699.0,-0.9,-603.0,-1009.5,-810.6,0,3438,0,240,0, 
1.9133,-546.3,-830.4,-725.7,-654.9,-711.0,-857.7,-771.0,-494.7,-7335.9,-821.4,-804.3,-871.8,-906.6,-791.7,-702.0,-808.8,-6.9,-5.7,-738.3,-716.1,-0.6,-633.9,-1034.7,-813.0,0,3444,0,241,0, 
1.9167,-506.7,-863.1,-756.9,-683.4,-746.1,-885.6,-792.9,-524.1,44830.5,-847.5,-839.1,-909.0,-932.4,-800.4,-688.5,-780.0,-6.3,-6.0,-768.3,-745.8,-0.9,-667.2,-1049.1,-834.3,0,3450,0,242,0, 
1.9200,-586.8,-840.3,-723.9,-660.3,-724.5,-866.7,-779.4,-506.1,43126.2,-821.1,-785.7,-865.2,-917.4,-787.2,-696.9,-800.1,-6.9,-5.7,-720.3,-713.1,-0.9,-632.7,-1026.6,-821.1,0,3456,0,243,0, 
1.9233,-687.6,-820.8,-704.4,-648.9,-710.4,-856.2,-768.0,-487.8,-10374.0,-786.0,-765.3,-836.1,-899.1,-766.5,-649.5,-787.5,-6.9,-5.7,-698.1,-698.1,-1.2,-609.0,-1017.0,-818.4,0,3462,0,244,0, 
1.9267,-665.7,-818.7,-709.8,-648.0,-702.6,-850.2,-763.2,-486.3,-41347.8,-808.8,-776.1,-843.3,-902.1,-756.3,-637.2,-797.7,-6.9,-6.0,-708.3,-696.3,-0.6,-595.5,-1010.7,-809.4,0,3468,0,245,0, 
1.9300,-560.1,-860.7,-755.1,-680.7,-741.9,-884.1,-786.3,-521.7,-7261.8,-853.5,-830.7,-901.8,-927.3,-761.7,-650.1,-783.0,-6.6,-5.7,-757.5,-743.7,-0.6,-667.2,-1039.2,-838.8,0,3474,0,246,0, 
1.9333,-510.9,-860.7,-745.2,-661.8,-726.6,-874.8,-800.7,-513.9,44978.7,-849.6,-827.4,-886.5,-920.1,-786.0,-738.0,-849.0,-7.2,-6.0,-746.1,-729.9,-0.3,-642.3,-1073.1,-817.2,0,3480,0,247,0, 
1.9367,-603.0,-852.3,-730.8,-655.2,-723.3,-869.4,-787.5,-504.3,43126.2,-809.7,-799.8,-865.8,-910.8,-786.0,-722.7,-814.8,-6.6,-5.7,-720.6,-716.1,-0.6,-640.2,-1049.4,-814.5,0,3486,0,248,0, 
1.9400,-695.1,-827.4,-700.5,-630.0,-694.8,-848.7,-773.4,-477.6,-10670.4,-780.6,-770.1,-815.4,-891.6,-771.9,-680.4,-805.2,-6.6,-6.3,-686.7,-683.4,-1.2,-578.7,-1039.2,-802.8,0,3492,0,249,0, 
1.9433,-676.8,-834.6,-717.3,-643.8,-705.3,-853.8,-770.7,-483.3,-40680.9,-804.6,-792.3,-840.3,-929.4,-759.0,-674.1,-779.4,-6.3,-6.0,-706.2,-699.0,-0.9,-609.3,-1030.5,-814.5,0,3498,0,250,0, 
1.9467,-555.0,-837.0,-751.2,-665.7,-729.3,-880.5,-792.6,-510.9,-6372.6,-861.0,-844.2,-898.2,-953.7,-748.8,-689.1,-795.3,-6.9,-5.7,-749.1,-741.0,-0.3,-657.0,-1053.0,-823.5,0,3504,0,251,0, 
1.9500,-530.1,-897.3,-771.9,-675.9,-746.4,-897.9,-806.1,-535.8,45793.8,-866.1,-855.0,-914.1,-919.2,-760.2,-690.6,-787.2,-6.9,-5.7,-755.7,-754.2,-0.9,-681.3,-1048.8,-828.9,0,3510,0,252,0, 
1.9533,-603.3,-871.2,-750.6,-663.0,-740.1,-893.1,-802.8,-518.1,43126.2,-835.8,-829.2,-887.1,-912.9,-734.1,-666.3,-790.2,-7.2,-5.7,-729.6,-741.9,-0.6,-656.1,-1054.2,-827.7,0,3516,0,253,0, 
1.9567,-708.9,-836.1,-720.0,-639.9,-708.0,-870.0,-776.7,-492.6,-10299.9,-810.0,-795.6,-843.9,-906.6,-734.1,-674.4,-768.3,-6.9,-6.0,-698.4,-705.9,-0.6,-619.5,-1017.9,-815.1,0,3522,0,254,0, 
1.9600,-688.2,-835.8,-714.9,-624.3,-688.8,-861.0,-772.8,-482.1,-40680.9,-805.8,-782.1,-843.3,-896.4,-720.3,-677.1,-766.5,-6.9,-5.7,-680.1,-694.5,-0.6,-606.9,-1028.1,-807.3,0,3528,0,255,0, 
1.9633,-571.5,-854.7,-740.1,-645.0,-715.2,-881.4,-791.1,-505.5,-6446.7,-851.4,-824.7,-897.0,-914.1,-720.3,-680.7,-767.4,-6.6,-6.0,-718.2,-741.6,-0.6,-655.5,-1046.1,-828.9,0,3534,0,0,0, 
1.9667,-520.5,-871.5,-760.2,-648.0,-720.6,-889.5,-808.8,-522.0,45201.0,-852.0,-839.4,-900.9,-932.4,-725.7,-697.2,-801.9,-7.2,-6.3,-730.8,-743.4,-0.6,-666.0,-1065.0,-825.6,0,3540,0,1,0, 
1.9700,-598.8,-853.5,-738.6,-642.0,-712.5,-884.7,-795.3,-510.6,42978.0,-836.1,-818.1,-873.9,-928.2,-710.7,-658.8,-769.8,-7.2,-6.0,-702.0,-725.4,-0.6,-635.7,-1036.5,-810.3,0,3546,0,2,0, 
1.9733,-707.1,-827.4,-708.6,-618.9,-693.9,-867.0,-776.7,-484.2,-10299.9,-785.4,-783.9,-845.4,-882.9,-697.5,-634.2,-762.3,-6.9,-5.7,-667.2,-708.0,-0.9,-615.0,-1021.5,-800.7,0,3552,0,3,0, 
1.9767,-676.8,-817.5,-710.4,-613.2,-691.2,-863.1,-773.7,-474.3,-40755.0,-804.0,-792.3,-848.1,-893.1,-678.9,-639.0,-759.3,-6.6,-5.7,-667.2,-706.8,-0.9,-611.4,-1024.2,-800.4,0,3558,0,4,0, 
1.9800,-569.1,-851.4,-741.3,-630.3,-709.8,-880.5,-790.5,-497.4,-6520.8,-850.8,-828.6,-886.2,-921.3,-688.2,-664.2,-762.9,-6.9,-6.3,-702.0,-734.7,-0.6,-647.1,-1033.8,-809.1,0,3564,0,5,0, 
1.9833,-524.4,-873.6,-765.0,-647.4,-736.5,-899.4,-800.4,-522.3,45349.2,-878.4,-862.2,-915.9,-939.3,-696.0,-671.4,-752.1,-6.9,-6.0,-718.8,-762.0,-0.6,-686.1,-1024.8,-823.5,0,3570,0,6,0, 
1.9867,-604.2,-853.5,-740.1,-629.4,-715.8,-889.8,-794.1,-503.1,42978.0,-839.4,-827.7,-878.1,-925.2,-689.1,-659.1,-759.9,-6.9,-6.0,-685.2,-733.2,-0.6,-649.5,-1032.0,-815.7,0,3576,0,7,0, 
1.9900,-693.3,-809.4,-697.5,-601.2,-684.6,-863.4,-777.6,-470.7,-10299.9,-776.7,-782.7,-832.2,-883.2,-663.3,-638.4,-763.8,-6.9,-5.4,-633.0,-697.5,-0.6,-606.0,-1019.4,-793.8,0,3582,0,8,0, 
1.9933,-675.9,-813.6,-710.4,-608.7,-693.0,-864.3,-773.1,-475.8,-40236.3,-800.4,-798.9,-844.8,-888.0,-658.5,-626.1,-741.6,-6.9,-6.0,-648.0,-707.7,-0.6,-615.3,-1006.8,-797.7,0,3588,0,9,0, 
1.9967,-570.0,-842.7,-739.8,-631.8,-719.1,-882.3,-789.0,-502.2,-5557.5,-849.3,-842.7,-899.1,-897.6,-659.7,-648.0,-739.8,-7.2,-5.7,-681.9,-744.0,-0.6,-658.2,-1014.9,-807.9,0,3594,0,10,0, 
2.0000,-515.7,-864.3,-765.3,-646.5,-737.4,-901.2,-801.3,-520.5,46534.8,-863.4,-861.6,-921.9,-912.0,-660.9,-653.1,-741.9,-6.6,-6.0,-693.3,-759.6,-0.9,-677.4,-1022.1,-813.0,0,3600,0,11,0, 
2.0033,-599.1,-848.1,-744.3,-636.0,-728.1,-896.4,-799.8,-511.8,43570.8,-828.6,-825.9,-897.3,-901.5,-646.5,-633.3,-748.8,-6.9,-5.7,-655.2,-742.5,-0.3,-648.9,-1020.6,-809.4,0,3606,0,12,0, 
2.0067,-690.3,-812.7,-710.7,-613.5,-694.2,-871.8,-777.3,-482.1,-8669.7,-783.9,-785.4,-853.8,-874.2,-627.3,-610.8,-751.5,-6.9,-6.0,-610.8,-704.7,-0.6,-603.3,-1000.2,-788.4,0,3612,0,13,0, 
2.0100,-664.2,-807.0,-706.5,-603.9,-686.1,-863.7,-777.9,-476.7,-38087.4,-780.3,-779.4,-844.8,-870.0,-625.2,-613.8,-747.6,-6.9,-5.4,-603.0,-699.6,-0.6,-600.9,-1003.2,-783.9,0,3618,0,14,0, 
2.0133,-561.0,-842.1,-745.8,-628.2,-714.6,-885.6,-793.8,-505.2,-2889.9,-833.1,-826.5,-890.7,-896.1,-638.4,-632.4,-748.2,-6.9,-6.3,-645.3,-736.2,-0.6,-653.7,-1011.9,-801.3,0,3624,0,15,0, 
2.0167,-521.7,-866.1,-766.8,-642.9,-733.5,-901.5,-813.9,-522.3,48461.4,-862.5,-861.9,-918.6,-915.6,-650.4,-658.2,-775.2,-6.9,-5.7,-664.5,-758.1,-0.9,-666.0,-1026.0,-805.8,0,3630,0,16,0, 
2.0200,-604.5,-848.1,-745.2,-631.5,-721.5,-891.6,-801.6,-511.5,44904.6,-827.7,-832.2,-900.3,-903.0,-641.4,-640.2,-765.0,-6.9,-6.0,-636.9,-744.0,-0.6,-639.9,-1011.3,-801.6,0,3636,0,17,0, 
2.0233,-704.7,-816.9,-711.3,-604.8,-695.4,-870.3,-785.4,-483.9,-8299.2,-787.5,-789.3,-845.4,-881.1,-623.7,-610.2,-762.0,-6.9,-6.0,-598.8,-701.7,-0.9,-596.1,-1002.9,-787.2,0,3642,0,18,0, 
2.0267,-682.2,-812.1,-710.1,-601.8,-693.9,-867.6,-777.0,-484.8,-38532.0,-801.0,-789.3,-845.1,-884.7,-620.1,-605.4,-749.7,-6.6,-6.3,-597.9,-704.7,-1.2,-609.9,-994.5,-788.4,0,3648,0,19,0, 
2.0300,-577.8,-855.9,-749.4,-627.9,-720.3,-889.5,-795.9,-510.9,-4075.5,-852.0,-837.6,-895.5,-910.5,-634.5,-627.6,-747.0,-6.9,-6.3,-637.8,-745.8,-0.9,-657.0,-1002.6,-802.8,0,3654,0,20,0, 
2.0333,-527.7,-868.8,-760.8,-636.0,-734.7,-907.5,-811.8,-528.6,46905.3,-863.7,-848.7,-912.6,-929.4,-638.1,-640.5,-740.4,-6.6,-5.7,-640.2,-753.9,-0.6,-684.9,-1036.5,-820.5,0,3660,0,21,0, 
2.0367,-606.9,-841.8,-727.8,-615.0,-715.8,-887.4,-792.3,-507.0,43052.1,-827.1,-810.6,-869.1,-906.9,-630.6,-633.0,-745.8,-6.6,-5.7,-607.8,-720.9,-0.3,-649.2,-1004.7,-797.1,0,3666,0,22,0, 
2.0400,-702.0,-813.0,-691.5,-585.9,-683.7,-861.6,-773.1,-478.8,-10670.4,-794.4,-766.2,-826.8,-887.7,-618.6,-601.8,-744.0,-6.9,-6.0,-566.4,-682.5,-0.3,-599.7,-983.7,-777.6,0,3672,0,23,0, 
2.0433,-684.0,-815.4,-694.5,-578.1,-676.5,-854.7,-764.4,-475.2,-41125.5,-780.0,-769.2,-828.3,-874.8,-622.8,-628.5,-727.8,-6.3,-6.0,-558.9,-685.5,-0.9,-599.7,-965.7,-770.4,0,3678,0,24,0, 
2.0467,-558.0,-819.3,-727.8,-597.3,-699.9,-883.5,-793.5,-501.0,-6965.4,-837.9,-814.2,-872.1,-937.2,-614.7,-643.8,-766.2,-6.6,-5.7,-602.1,-717.0,-0.3,-647.4,-1023.0,-798.9,0,3684,0,25,0, 
2.0500,-536.4,-856.5,-745.5,-614.7,-719.4,-895.8,-803.7,-521.4,43052.1,-861.9,-831.3,-894.9,-908.7,-641.1,-651.9,-757.2,-6.6,-5.4,-617.4,-738.9,-0.3,-672.6,-1009.5,-805.2,0,3690,0,26,0, 
2.0533,-616.5,-827.7,-721.5,-600.6,-705.3,-888.0,-801.6,-505.5,38680.2,-839.7,-811.5,-867.0,-895.2,-626.7,-624.0,-772.8,-6.9,-6.0,-595.2,-722.7,-0.9,-640.2,-1022.1,-803.7,0,3696,0,27,0, 
2.0567,-721.5,-814.5,-680.7,-564.0,-671.4,-862.8,-783.0,-472.2,-16079.7,-769.5,-755.7,-823.8,-871.5,-611.4,-616.2,-766.8,-6.9,-5.7,-538.2,-687.6,-0.9,-594.0,-1016.1,-797.4,0,3702,0,28,0, 
2.0600,-693.3,-809.1,-698.4,-575.7,-679.8,-871.8,-780.9,-476.7,-46460.7,-795.6,-786.0,-846.3,-895.8,-598.2,-609.3,-751.2,-7.2,-5.7,-566.4,-705.6,-0.3,-613.5,-1003.5,-805.8,0,3708,0,29,0, 
2.0633,-588.3,-840.0,-720.0,-582.0,-693.6,-880.5,-797.4,-491.1,-12671.1,-824.7,-800.1,-870.3,-882.3,-630.9,-652.8,-761.1,-7.2,-6.0,-580.8,-726.6,-0.9,-650.7,-1017.9,-798.6,0,3714,0,30,0, 
2.0667,-536.1,-853.8,-739.2,-602.1,-715.2,-902.7,-814.5,-512.4,37716.9,-857.1,-839.4,-895.5,-917.4,-613.5,-653.7,-771.6,-7.2,-5.7,-610.5,-746.1,-0.6,-673.5,-1030.5,-804.9,0,3720,0,31,0, 
2.0700,-624.3,-838.8,-721.8,-593.4,-707.4,-896.1,-804.3,-499.5,33048.6,-828.0,-805.8,-874.2,-903.6,-618.0,-641.4,-744.0,-7.2,-6.0,-583.2,-729.6,-1.2,-644.4,-1027.8,-803.1,0,3726,0,32,0, 
2.0733,-712.5,-797.1,-681.3,-571.2,-682.2,-873.6,-781.5,-472.2,-21192.6,-797.7,-786.9,-834.0,-900.3,-594.3,-602.1,-734.4,-6.6,-6.0,-562.2,-700.2,-0.6,-612.6,-1000.8,-792.6,0,3732,0,33,0, 
2.0767,-681.6,-797.4,-692.4,-558.9,-671.1,-862.8,-780.9,-467.1,-51647.7,-795.3,-787.5,-831.0,-881.1,-581.1,-626.4,-754.8,-6.6,-5.7,-565.8,-693.0,-0.6,-608.1,-1007.7,-783.9,0,3738,0,34,0, 
2.0800,-567.9,-815.4,-729.3,-584.4,-699.0,-885.0,-797.4,-489.9,-17487.6,-847.2,-841.5,-888.9,-946.8,-583.2,-634.8,-777.6,-7.2,-5.7,-607.8,-735.6,-0.3,-663.3,-1008.3,-801.0,0,3744,0,35,0, 
2.0833,-538.5,-853.2,-740.7,-595.8,-708.3,-890.4,-807.9,-506.4,32900.4,-863.7,-857.4,-908.1,-913.2,-607.2,-671.7,-781.8,-6.9,-6.0,-629.1,-748.5,-0.6,-672.6,-1017.6,-798.6,0,3750,0,36,0, 
2.0867,-624.9,-834.9,-707.1,-581.7,-699.9,-882.3,-799.5,-492.0,28158.0,-843.6,-821.7,-884.4,-900.6,-597.0,-635.4,-765.6,-6.9,-6.0,-597.0,-729.9,-0.9,-650.7,-1000.5,-795.9,0,3756,0,37,0, 
2.0900,-718.8,-806.7,-710.7,-570.6,-681.6,-868.5,-784.2,-469.5,-25416.3,-791.1,-787.5,-857.1,-882.0,-575.4,-609.9,-751.2,-7.2,-5.7,-564.9,-711.9,-0.9,-624.6,-1005.0,-790.2,0,3762,0,38,0, 
2.0933,-699.6,-813.6,-700.8,-559.2,-674.7,-861.3,-782.1,-466.8,-54685.8,-802.8,-788.7,-847.8,-902.1,-577.8,-631.8,-746.1,-6.9,-5.4,-564.9,-702.3,-0.6,-618.6,-998.4,-783.3,0,3768,0,39,0, 
2.0967,-580.5,-831.0,-724.8,-576.6,-694.2,-878.1,-799.2,-488.7,-20303.4,-840.0,-834.6,-885.6,-916.2,-565.8,-645.9,-777.9,-7.2,-6.0,-603.9,-730.5,-0.9,-654.6,-1012.8,-785.1,0,3774,0,40,0, 
2.1000,-539.7,-861.0,-742.5,-585.3,-712.8,-895.5,-814.2,-508.5,30158.7,-860.4,-850.2,-904.5,-916.5,-565.8,-634.8,-783.9,-6.6,-6.0,-613.2,-747.3,-0.9,-675.9,-1023.0,-788.7,0,3780,0,41,0, 
2.1033,-627.3,-822.3,-722.4,-578.7,-706.5,-890.1,-805.8,-496.8,25268.1,-839.4,-816.9,-877.2,-927.3,-561.0,-635.4,-764.1,-6.9,-5.7,-592.2,-730.8,-0.6,-658.5,-1008.0,-793.5,0,3786,0,42,0, 
2.1067,-729.3,-822.0,-707.4,-558.9,-683.4,-871.5,-790.8,-479.7,-28232.1,-803.1,-788.4,-852.0,-903.9,-546.3,-615.9,-752.4,-6.9,-6.3,-559.2,-708.9,-0.9,-622.2,-994.8,-780.6,0,3792,0,43,0, 
2.1100,-706.5,-837.0,-719.4,-564.3,-684.9,-871.5,-784.2,-480.9,-57946.2,-814.8,-806.4,-868.8,-890.1,-539.1,-610.5,-730.8,-6.9,-5.4,-573.0,-719.7,-0.9,-634.2,-982.5,-780.9,0,3798,0,44,0, 
2.1133,-594.6,-852.9,-745.2,-583.8,-707.1,-888.3,-801.0,-504.0,-23045.1,-867.9,-853.8,-910.5,-927.0,-548.1,-636.0,-739.8,-6.6,-6.0,-618.6,-753.3,-0.9,-676.2,-999.0,-793.5,0,3804,0,45,0, 
