Time,P3,C3,F3,Fz,F4,C4,P4,Cz,CM,A1,Fp1,Fp2,T3,T5,O1,O2,X3,X2,F7,F8,X1,A2,T6,T4,Trigger,Time_Offset,ADC_Status,ADC_Sequence,Event,Comments
0.0033,5.1,-445.2,-96.9,240.6,-23.4,28.8,-282.3,176.7,296.4,-525.9,359.7,241.8,-1220.4,-1382.4,-634.5,160.2,-6.9,-6.0,-264.3,-1965.3,-0.6,-136.8,-515.4,-25.5,0,6,0,47,0, 
0.0067,8.7,-444.3,-97.5,246.9,-18.3,31.2,-281.4,174.9,148.2,-528.6,360.9,249.3,-1217.4,-1375.2,-640.5,156.0,-6.9,-5.7,-264.9,-1960.5,-0.9,-143.4,-519.0,-28.8,0,12,0,48,0, 
0.0100,0.3,-444.6,-98.1,246.3,-21.0,28.8,-277.8,174.0,296.4,-530.4,360.0,245.4,-1215.0,-1385.7,-640.2,159.9,-6.9,-5.4,-265.8,-1964.4,-0.6,-150.3,-519.3,-32.1,0,18,0,49,0, 
0.0133,7.8,-435.3,-83.1,254.1,-11.4,39.9,-269.7,184.5,370.5,-517.5,372.6,252.0,-1205.7,-1385.1,-647.4,168.6,-7.2,-6.0,-253.8,-1954.5,-0.9,-136.2,-509.7,-23.1,0,24,0,50,0, 
0.0167,2.7,-440.1,-92.7,251.7,-17.4,36.0,-281.4,180.0,296.4,-517.8,372.0,252.6,-1213.8,-1390.5,-658.8,149.4,-6.6,-5.7,-257.1,-1952.1,-0.6,-133.5,-514.5,-24.3,0,30,0,51,0, 
0.0200,-0.9,-445.5,-96.0,244.5,-22.5,32.7,-279.3,174.0,148.2,-526.5,363.0,247.5,-1221.0,-1389.9,-645.3,162.6,-7.2,-6.3,-264.6,-1956.3,-0.6,-134.7,-511.2,-26.4,0,36,0,52,0, 
0.0233,0.6,-447.0,-98.7,240.3,-25.2,27.0,-284.7,170.1,222.3,-527.4,359.4,242.7,-1221.3,-1382.7,-633.6,159.6,-6.9,-6.0,-264.6,-1962.3,-0.6,-143.4,-530.4,-30.6,0,42,0,53,0, 
0.0267,3.3,-447.3,-97.8,240.6,-21.9,31.5,-281.4,173.7,296.4,-528.3,357.6,242.1,-1218.6,-1378.8,-637.2,157.8,-6.6,-6.0,-266.1,-1964.4,-0.9,-143.1,-521.1,-29.7,0,48,0,54,0, 
0.0300,2.4,-448.8,-96.6,243.9,-19.2,32.7,-273.3,174.0,370.5,-521.4,364.5,249.9,-1217.1,-1388.7,-649.5,156.0,-6.9,-5.7,-261.3,-1955.4,-0.6,-135.3,-521.1,-21.9,0,54,0,55,0, 
0.0333,-1.8,-452.4,-102.9,238.5,-24.9,26.7,-280.2,166.8,296.4,-525.0,359.1,240.3,-1218.6,-1389.3,-637.2,151.2,-6.9,-5.7,-267.6,-1966.5,-0.9,-146.7,-526.2,-31.5,0,60,0,56,0, 
0.0367,-0.3,-449.7,-95.7,242.1,-24.0,31.2,-278.4,170.7,222.3,-525.3,366.9,247.5,-1220.7,-1401.6,-644.1,156.9,-6.9,-6.0,-260.1,-1956.0,-0.6,-144.0,-519.6,-30.0,0,66,0,57,0, 
0.0400,2.1,-443.1,-90.9,248.7,-19.2,34.5,-280.5,174.0,148.2,-522.9,365.4,244.2,-1214.7,-1401.0,-642.9,160.8,-6.3,-5.7,-264.9,-1956.3,-0.6,-140.1,-516.6,-24.6,0,72,0,58,0, 
0.0433,3.0,-442.8,-87.9,252.3,-13.5,37.8,-274.5,176.1,148.2,-519.3,363.6,251.1,-1216.5,-1401.9,-647.7,158.7,-6.9,-6.0,-260.4,-1953.6,-1.2,-141.3,-515.4,-21.9,0,78,0,59,0, 
0.0467,0.0,-443.4,-93.0,251.4,-11.7,34.8,-277.5,175.5,296.4,-523.8,357.3,248.7,-1223.7,-1400.4,-640.5,167.1,-6.9,-5.7,-262.2,-1956.0,-0.6,-143.1,-507.9,-19.5,0,84,0,60,0, 
0.0500,1.5,-441.6,-94.8,253.8,-8.7,39.6,-280.2,177.3,296.4,-523.8,362.4,257.1,-1228.2,-1407.3,-644.7,163.2,-6.9,-6.3,-262.5,-1947.3,-0.9,-138.0,-515.1,-18.0,0,90,0,61,0, 
0.0533,0.9,-438.3,-87.0,258.0,-5.7,39.6,-275.4,180.3,222.3,-525.0,367.8,255.9,-1226.1,-1408.2,-644.7,157.2,-6.9,-6.0,-259.8,-1948.8,-0.3,-136.2,-514.5,-16.8,0,96,0,62,0, 
0.0567,-6.6,-447.3,-100.2,250.5,-11.4,37.5,-279.9,169.2,148.2,-532.2,365.4,248.7,-1237.2,-1421.1,-645.6,162.6,-6.9,-5.7,-265.8,-1958.1,-0.9,-140.4,-522.0,-21.0,0,102,0,63,0, 
0.0600,-6.3,-448.5,-95.4,252.9,-9.3,38.7,-278.4,171.3,222.3,-531.6,371.4,255.0,-1233.0,-1406.4,-643.8,162.6,-6.9,-5.7,-262.2,-1950.3,-0.6,-138.6,-519.3,-18.6,0,108,0,64,0, 
0.0633,-1.8,-444.3,-87.3,255.0,-7.8,39.3,-280.5,174.0,370.5,-531.0,366.3,257.1,-1228.8,-1406.4,-640.5,165.0,-6.9,-5.7,-262.5,-1945.8,-0.9,-136.5,-520.5,-14.7,0,114,0,65,0, 
0.0667,-3.3,-450.0,-100.5,245.4,-17.1,27.6,-283.2,166.2,296.4,-544.5,355.2,249.9,-1230.0,-1387.2,-623.7,156.6,-7.2,-5.7,-267.0,-1953.9,-0.6,-148.5,-527.7,-25.8,0,120,0,66,0, 
0.0700,1.5,-447.9,-101.7,243.9,-16.8,27.6,-279.6,167.4,296.4,-540.3,362.4,252.3,-1229.4,-1384.5,-615.9,167.1,-7.2,-5.7,-264.9,-1952.1,-1.2,-148.5,-524.4,-23.1,0,126,0,67,0, 
0.0733,-5.4,-438.0,-85.2,259.8,0.9,38.4,-273.0,180.0,148.2,-515.1,379.5,266.4,-1219.2,-1403.4,-647.1,167.4,-7.2,-6.0,-251.1,-1940.4,-0.9,-131.7,-510.0,-11.4,0,132,0,68,0, 
0.0767,-3.3,-445.8,-84.6,257.4,-6.3,33.0,-279.9,172.5,370.5,-522.3,378.0,260.1,-1217.7,-1397.7,-641.4,175.5,-6.9,-5.7,-252.3,-1945.2,-0.6,-139.2,-518.7,-18.3,0,138,0,69,0, 
0.0800,-3.6,-442.2,-82.5,261.3,-3.0,37.5,-273.0,174.3,370.5,-514.5,380.1,266.4,-1218.3,-1398.0,-635.4,184.8,-6.9,-5.7,-243.0,-1941.6,-0.6,-134.7,-512.1,-13.8,0,144,0,70,0, 
0.0833,0.0,-431.7,-70.5,277.5,10.5,48.6,-264.6,180.3,296.4,-501.3,390.3,275.7,-1209.3,-1404.3,-655.2,175.2,-6.9,-5.4,-229.8,-1929.0,-0.9,-114.0,-505.8,1.5,0,150,0,71,0, 
0.0867,-6.9,-441.6,-85.5,261.3,-3.9,35.7,-277.2,171.3,148.2,-514.2,371.1,267.3,-1217.7,-1397.4,-635.4,183.9,-6.9,-5.7,-245.1,-1942.8,-0.6,-131.1,-521.1,-14.1,0,156,0,72,0, 
0.0900,-8.1,-448.2,-92.7,253.8,-14.1,28.2,-279.0,164.1,222.3,-528.0,369.3,251.1,-1230.0,-1401.9,-628.8,177.3,-7.2,-5.7,-255.9,-1954.2,-0.6,-141.6,-523.8,-23.1,0,162,0,73,0, 
0.0933,-8.1,-447.6,-90.9,253.5,-13.5,26.7,-282.0,163.8,296.4,-521.1,368.7,253.2,-1225.8,-1401.0,-639.6,161.7,-6.6,-5.4,-253.8,-1953.6,-0.9,-136.2,-528.9,-25.2,0,168,0,74,0, 
0.0967,-3.3,-439.2,-79.5,260.7,-6.3,34.5,-278.1,172.5,444.6,-512.4,381.9,264.6,-1213.2,-1390.2,-649.8,154.2,-7.2,-6.0,-242.1,-1942.5,-0.3,-126.0,-528.0,-16.2,0,174,0,75,0, 
0.1000,-4.8,-438.6,-79.8,261.6,-9.9,33.6,-276.3,170.4,370.5,-515.1,381.0,262.8,-1214.4,-1397.4,-647.7,163.8,-6.9,-5.7,-244.5,-1946.7,-0.6,-130.8,-517.5,-15.9,0,180,0,76,0, 
0.1033,-5.4,-447.9,-90.9,250.2,-20.1,23.4,-282.6,162.6,222.3,-527.7,363.6,246.3,-1216.2,-1388.4,-635.7,163.8,-7.5,-6.0,-261.3,-1958.7,-0.9,-146.7,-529.8,-25.2,0,186,0,77,0, 
0.1067,-8.7,-445.8,-88.2,253.5,-15.6,29.1,-279.6,165.0,148.2,-523.8,374.4,256.8,-1219.8,-1407.9,-653.7,160.8,-6.6,-5.7,-252.6,-1950.3,-0.3,-132.6,-520.5,-22.2,0,192,0,78,0, 
0.1100,-5.4,-442.2,-84.6,260.7,-8.7,37.8,-271.5,171.9,222.3,-507.9,388.8,267.6,-1217.4,-1415.7,-660.0,165.9,-6.9,-5.7,-234.6,-1936.8,-0.6,-123.0,-514.5,-13.2,0,198,0,79,0, 
0.1133,-8.1,-447.9,-81.6,259.5,-12.3,31.5,-277.2,167.7,370.5,-516.6,376.2,260.1,-1219.2,-1411.5,-659.4,156.6,-6.9,-5.7,-247.5,-1949.1,-1.2,-132.3,-516.9,-21.0,0,204,0,80,0, 
0.1167,-6.9,-452.4,-82.8,256.2,-14.4,28.8,-281.7,166.2,222.3,-522.0,373.2,254.4,-1223.4,-1410.6,-653.1,159.3,-6.9,-5.7,-250.5,-1953.0,-0.6,-141.6,-523.5,-26.4,0,210,0,81,0, 
0.1200,-3.6,-450.9,-85.8,261.9,-4.8,34.8,-276.6,168.6,148.2,-519.3,371.4,266.4,-1226.4,-1404.3,-649.2,155.4,-6.6,-6.0,-247.8,-1942.8,-0.9,-129.9,-517.2,-20.4,0,216,0,82,0, 
0.1233,-12.3,-453.6,-91.2,255.3,-9.6,28.5,-285.0,165.9,222.3,-520.5,369.6,252.9,-1230.3,-1412.4,-652.2,149.7,-6.9,-5.7,-251.4,-1954.2,-0.6,-141.0,-524.4,-27.6,0,222,0,83,0, 
0.1267,-9.9,-462.6,-96.3,242.1,-21.3,16.2,-294.0,156.3,148.2,-537.9,363.3,241.5,-1236.9,-1401.9,-632.7,147.6,-6.9,-5.7,-261.0,-1967.4,-0.6,-156.9,-534.9,-42.6,0,228,0,84,0, 
0.1300,-15.9,-465.0,-94.2,251.4,-14.1,23.1,-287.1,157.5,444.6,-539.1,363.6,248.4,-1234.2,-1404.3,-655.5,148.2,-7.2,-5.7,-259.5,-1959.3,-0.6,-149.4,-527.4,-34.2,0,234,0,85,0, 
0.1333,-16.5,-460.8,-90.3,259.2,-3.3,33.3,-278.1,162.6,296.4,-525.0,372.3,259.5,-1231.2,-1415.4,-666.3,154.2,-7.2,-6.0,-249.3,-1948.8,-0.6,-134.4,-516.0,-23.4,0,240,0,86,0, 
0.1367,-18.0,-463.2,-94.8,251.4,-9.6,27.3,-283.2,158.4,222.3,-523.2,378.3,256.8,-1230.6,-1411.2,-658.5,152.7,-7.5,-6.0,-251.4,-1954.5,-0.6,-136.5,-521.7,-30.6,0,246,0,87,0, 
0.1400,-21.6,-467.1,-102.0,243.6,-15.3,21.9,-290.7,147.6,74.1,-531.9,370.5,252.3,-1232.4,-1404.0,-654.9,141.3,-6.9,-5.4,-258.6,-1965.9,-0.6,-142.2,-525.6,-37.2,0,252,0,88,0, 
0.1433,-15.6,-463.2,-99.0,245.4,-14.4,24.9,-289.2,149.1,370.5,-529.8,371.1,249.6,-1228.5,-1396.2,-643.2,150.6,-6.9,-5.7,-256.5,-1963.5,-0.9,-142.5,-524.4,-35.7,0,258,0,89,0, 
0.1467,-14.1,-465.0,-96.9,245.4,-18.0,24.9,-286.2,154.5,370.5,-528.3,368.7,252.9,-1227.0,-1397.7,-645.6,150.3,-7.2,-6.0,-255.9,-1962.0,-0.6,-143.1,-519.0,-36.9,0,264,0,90,0, 
0.1500,-15.3,-464.1,-94.2,246.3,-14.1,23.7,-289.5,155.1,222.3,-527.1,360.9,255.9,-1224.9,-1397.4,-647.7,142.5,-6.9,-5.7,-253.8,-1961.7,-0.6,-143.1,-530.1,-36.9,0,270,0,91,0, 
0.1533,-14.4,-466.5,-90.6,248.1,-17.1,23.7,-290.7,157.5,148.2,-527.1,365.4,245.7,-1220.4,-1392.9,-648.9,141.6,-7.2,-5.7,-253.8,-1968.3,-0.9,-144.9,-527.7,-37.5,0,276,0,92,0, 
0.1567,-16.2,-469.5,-91.5,247.8,-18.9,20.4,-290.1,151.8,222.3,-532.5,364.8,246.3,-1228.8,-1384.8,-646.8,133.8,-6.9,-5.7,-257.7,-1968.6,-0.9,-147.6,-528.6,-39.3,0,282,0,93,0, 
0.1600,-16.8,-473.1,-96.9,239.7,-21.6,18.9,-296.4,149.1,222.3,-537.6,363.0,241.8,-1236.0,-1391.4,-644.7,127.2,-7.2,-5.7,-264.0,-1974.0,-0.9,-147.9,-535.2,-42.6,0,288,0,94,0, 
0.1633,-12.3,-473.7,-104.1,233.7,-25.8,19.5,-298.2,149.7,296.4,-543.3,357.3,236.7,-1231.2,-1377.3,-635.1,135.0,-6.9,-5.7,-269.7,-1981.5,-0.6,-155.4,-530.1,-47.4,0,294,0,95,0, 
0.1667,-14.7,-472.2,-94.8,241.2,-20.1,24.9,-291.6,153.3,296.4,-531.6,369.3,244.2,-1232.7,-1403.4,-644.4,150.0,-6.6,-6.0,-260.1,-1974.6,-0.6,-145.8,-523.5,-38.7,0,300,0,96,0, 
0.1700,-6.9,-467.4,-86.7,249.0,-12.3,30.6,-288.0,157.5,148.2,-520.8,373.2,255.0,-1221.3,-1392.3,-635.4,140.4,-6.9,-5.7,-251.1,-1964.7,-0.6,-134.4,-527.4,-33.9,0,306,0,97,0, 
0.1733,-10.8,-469.5,-89.1,248.4,-12.3,30.3,-284.7,157.2,222.3,-521.7,371.1,252.6,-1218.9,-1392.9,-647.1,119.1,-7.2,-6.0,-255.6,-1965.9,-0.3,-132.6,-528.6,-30.6,0,312,0,98,0, 
0.1767,-15.6,-473.4,-92.7,239.7,-21.3,22.2,-287.4,152.4,296.4,-532.2,360.6,237.6,-1222.2,-1395.6,-648.9,122.1,-7.2,-5.7,-267.3,-1979.1,-0.6,-143.1,-533.4,-39.6,0,318,0,99,0, 
0.1800,-11.1,-470.4,-89.7,241.8,-13.2,28.8,-280.5,157.5,370.5,-525.0,366.6,249.6,-1224.6,-1397.7,-646.5,127.2,-6.6,-6.3,-258.6,-1968.6,-0.6,-131.7,-527.4,-29.4,0,324,0,100,0, 
0.1833,-16.5,-478.2,-97.8,233.4,-22.5,21.0,-292.2,151.2,222.3,-545.4,356.7,234.6,-1230.9,-1398.6,-646.8,126.9,-7.2,-6.3,-270.9,-1986.3,-0.6,-147.6,-530.4,-41.4,0,330,0,101,0, 
0.1867,-15.3,-473.4,-90.6,241.5,-14.1,22.8,-289.8,156.0,148.2,-536.1,362.1,240.0,-1222.5,-1401.0,-638.4,123.3,-6.6,-5.7,-262.5,-1980.3,-0.6,-145.2,-528.0,-40.2,0,336,0,102,0, 
0.1900,-14.7,-476.1,-95.1,237.9,-15.3,22.5,-292.8,156.0,148.2,-539.4,360.3,238.8,-1228.5,-1401.0,-636.9,126.0,-6.9,-5.4,-268.5,-1980.0,-0.6,-155.1,-532.8,-48.0,0,342,0,103,0, 
0.1933,-10.2,-475.8,-97.5,233.4,-19.8,16.8,-293.1,157.5,296.4,-546.3,353.4,234.3,-1233.0,-1395.0,-631.5,110.4,-6.6,-5.7,-275.1,-1987.5,-0.6,-160.8,-543.9,-51.3,0,348,0,104,0, 
0.1967,-4.8,-471.0,-96.0,240.6,-12.6,23.1,-288.0,163.2,296.4,-535.2,362.4,244.8,-1226.7,-1389.3,-650.7,95.1,-6.6,-6.0,-265.2,-1973.1,-0.6,-149.1,-535.2,-42.3,0,354,0,105,0, 
0.2000,-3.9,-463.5,-87.0,245.7,-4.8,34.5,-278.1,168.6,296.4,-528.0,369.9,251.7,-1225.5,-1407.9,-664.2,119.4,-6.9,-6.0,-256.2,-1968.9,-0.3,-141.0,-520.8,-31.5,0,360,0,106,0, 
0.2033,-14.7,-480.6,-102.6,229.5,-20.4,18.9,-292.2,153.3,222.3,-544.2,352.5,239.7,-1239.3,-1429.2,-649.2,121.2,-6.9,-6.0,-275.4,-1983.3,-0.6,-153.6,-536.1,-48.3,0,366,0,107,0, 
0.2067,-2.1,-466.5,-82.2,247.8,0.3,37.5,-283.5,170.4,222.3,-523.8,370.5,257.4,-1222.2,-1408.5,-657.6,112.2,-6.6,-6.0,-254.4,-1963.2,-0.6,-131.4,-522.9,-27.6,0,372,0,108,0, 
0.2100,1.8,-464.7,-81.9,247.8,2.1,39.9,-284.4,174.0,148.2,-522.6,373.8,257.1,-1218.0,-1407.3,-667.8,114.0,-6.9,-5.7,-252.3,-1961.4,-0.3,-130.8,-518.7,-26.1,0,378,0,109,0, 
0.2133,-1.2,-468.3,-92.4,239.7,-7.5,30.3,-284.7,159.9,444.6,-534.9,364.5,250.8,-1222.2,-1409.1,-649.5,117.0,-6.9,-5.7,-263.1,-1971.0,-0.6,-140.4,-524.4,-35.7,0,384,0,110,0, 
0.2167,-6.3,-475.8,-96.6,230.7,-15.6,26.4,-292.2,156.9,370.5,-542.1,359.4,244.2,-1232.1,-1411.2,-652.8,115.2,-7.2,-5.7,-272.1,-1977.3,-0.6,-149.1,-525.0,-42.9,0,390,0,111,0, 
0.2200,-6.3,-469.8,-86.7,240.3,-5.4,33.9,-291.3,164.4,222.3,-526.5,363.3,251.7,-1225.8,-1417.2,-665.4,106.8,-7.8,-6.0,-260.7,-1967.1,-0.6,-130.5,-520.8,-31.5,0,396,0,112,0, 
0.2233,-3.9,-467.7,-83.4,238.8,-0.9,35.1,-288.3,167.1,148.2,-533.1,371.1,255.0,-1222.8,-1410.3,-651.9,106.5,-6.9,-5.7,-256.2,-1965.3,-0.6,-134.1,-525.0,-30.9,0,402,0,113,0, 
0.2267,-5.4,-472.8,-93.9,231.6,-8.1,28.2,-290.7,162.3,296.4,-539.1,360.9,247.8,-1225.8,-1401.0,-651.3,111.9,-7.5,-5.4,-264.0,-1973.4,-0.6,-147.0,-532.2,-41.4,0,408,0,114,0, 
0.2300,-10.2,-474.3,-96.9,234.3,-9.0,29.1,-284.7,166.8,222.3,-538.8,358.5,247.2,-1233.9,-1411.2,-647.1,119.1,-7.5,-6.6,-267.9,-1975.5,-0.6,-147.0,-524.1,-41.4,0,414,0,115,0, 
0.2333,-11.7,-476.1,-99.3,233.4,-14.7,27.9,-286.8,164.7,370.5,-539.4,359.7,244.5,-1234.8,-1410.6,-647.7,123.6,-6.6,-5.7,-267.3,-1977.3,-0.6,-144.6,-528.0,-35.4,0,420,0,116,0, 
0.2367,-9.9,-476.7,-98.7,232.2,-11.7,28.2,-292.8,165.6,148.2,-534.9,360.6,245.7,-1227.9,-1398.6,-643.8,112.8,-6.9,-5.7,-266.1,-1976.4,-0.6,-142.5,-534.9,-39.9,0,426,0,117,0, 
0.2400,-8.7,-478.2,-102.3,233.4,-11.1,27.3,-294.6,163.8,148.2,-528.6,363.9,246.3,-1227.0,-1397.1,-643.2,112.5,-6.9,-5.7,-258.3,-1971.0,-0.9,-140.1,-532.8,-37.2,0,432,0,118,0, 
0.2433,-6.3,-474.3,-92.1,238.8,-5.4,33.6,-285.9,164.7,222.3,-528.9,369.3,252.0,-1224.0,-1398.3,-636.3,120.9,-7.2,-6.0,-257.1,-1967.4,-0.6,-139.5,-523.8,-33.6,0,438,0,119,0, 
0.2467,-6.9,-471.6,-87.0,244.2,-3.3,36.3,-283.8,167.4,296.4,-528.3,372.0,258.3,-1223.7,-1401.0,-645.3,124.5,-6.6,-6.0,-252.6,-1959.0,-0.6,-133.8,-518.1,-25.5,0,444,0,120,0, 
0.2500,-11.7,-473.7,-96.9,236.1,-9.0,30.0,-295.8,162.9,148.2,-530.1,365.4,249.0,-1227.6,-1410.0,-650.1,123.6,-6.6,-5.7,-257.4,-1967.1,-0.9,-139.2,-531.0,-34.2,0,450,0,121,0, 
0.2533,-6.9,-470.7,-93.3,237.6,-9.0,32.4,-294.0,166.5,74.1,-528.3,372.0,249.3,-1220.7,-1397.7,-644.7,117.9,-6.6,-6.0,-255.3,-1966.2,-0.6,-135.3,-529.5,-34.5,0,456,0,122,0, 
0.2567,-6.0,-473.7,-94.8,236.1,-12.9,29.7,-292.2,163.5,296.4,-542.4,367.2,246.0,-1226.4,-1389.3,-631.8,128.4,-6.9,-6.0,-258.6,-1968.9,-1.2,-143.4,-535.2,-36.0,0,462,0,123,0, 
0.2600,-4.5,-473.4,-94.5,236.1,-7.8,28.8,-293.1,167.4,370.5,-540.9,352.8,249.3,-1225.2,-1388.7,-632.4,126.6,-6.6,-6.0,-262.5,-1969.8,-0.6,-143.1,-531.0,-36.9,0,468,0,124,0, 
0.2633,-7.5,-470.7,-86.1,246.3,1.2,34.2,-291.6,167.4,296.4,-527.4,370.5,252.3,-1223.4,-1410.9,-659.7,123.3,-6.6,-6.0,-250.5,-1966.2,-0.9,-134.1,-528.0,-30.3,0,474,0,125,0, 
0.2667,-6.9,-476.1,-96.6,235.2,-5.4,26.4,-300.0,165.6,370.5,-541.8,360.3,243.6,-1230.3,-1398.0,-640.2,119.1,-6.3,-5.7,-262.5,-1974.3,-1.2,-150.0,-534.0,-40.5,0,480,0,126,0, 
0.2700,-7.5,-478.5,-93.9,238.5,-9.9,29.4,-292.2,165.0,0.0,-539.4,364.2,243.6,-1233.6,-1411.8,-654.3,123.6,-7.2,-5.7,-263.1,-1976.1,-0.3,-148.8,-535.5,-39.0,0,486,0,127,0, 
0.2733,-10.5,-479.7,-99.9,233.7,-9.9,27.0,-297.9,164.4,222.3,-536.4,359.4,241.2,-1234.2,-1418.7,-660.3,108.6,-6.6,-5.7,-265.8,-1973.4,-0.3,-147.3,-538.2,-38.1,0,492,0,128,0, 
0.2767,-15.9,-489.9,-115.8,219.6,-22.8,16.5,-297.3,155.1,148.2,-559.8,343.5,228.0,-1249.5,-1413.3,-647.1,114.6,-6.9,-6.3,-279.6,-1988.4,-0.9,-158.7,-551.7,-52.8,0,498,0,129,0, 
0.2800,-9.3,-480.9,-110.1,223.8,-15.9,25.8,-290.7,161.7,222.3,-555.0,345.3,233.4,-1240.2,-1406.4,-637.2,121.2,-6.9,-5.7,-279.9,-1981.8,-0.3,-156.0,-538.8,-43.5,0,504,0,130,0, 
0.2833,-11.7,-478.2,-99.9,231.6,-8.1,28.5,-288.9,161.1,222.3,-545.1,357.0,240.0,-1238.1,-1410.0,-656.1,123.6,-7.2,-5.7,-267.3,-1973.4,-0.3,-145.5,-532.5,-35.7,0,510,0,131,0, 
0.2867,-6.0,-476.4,-104.7,226.8,-13.5,24.3,-292.8,158.7,148.2,-549.6,347.1,234.0,-1231.8,-1395.0,-632.4,122.1,-7.2,-5.7,-271.5,-1975.8,-0.9,-151.8,-538.5,-41.1,0,516,0,132,0, 
0.2900,-13.2,-478.2,-104.4,223.8,-15.3,18.9,-291.9,158.7,74.1,-547.2,348.6,234.9,-1233.3,-1407.9,-658.5,132.9,-6.9,-6.0,-272.4,-1973.1,-0.6,-148.5,-532.2,-37.8,0,522,0,133,0, 
0.2933,-6.0,-465.9,-90.0,240.0,-3.3,30.9,-288.9,171.9,222.3,-526.5,368.1,251.4,-1220.1,-1401.0,-654.0,111.0,-7.2,-6.0,-255.9,-1959.3,-0.6,-130.8,-525.3,-25.8,0,528,0,134,0, 
0.2967,-3.6,-463.8,-85.5,243.0,-1.5,33.0,-288.6,174.6,296.4,-520.8,369.0,253.5,-1211.1,-1396.8,-657.6,117.6,-6.6,-5.7,-251.7,-1959.0,-1.2,-126.0,-514.5,-22.5,0,534,0,135,0, 
0.3000,-1.8,-462.3,-88.5,241.5,-5.1,36.0,-282.6,171.6,296.4,-522.3,371.1,248.4,-1213.2,-1387.5,-645.0,123.0,-6.9,-5.4,-250.8,-1963.8,-0.6,-134.4,-530.1,-27.0,0,540,0,136,0, 
0.3033,3.0,-462.9,-81.3,241.2,-4.5,34.5,-286.5,170.4,148.2,-526.5,370.2,249.0,-1218.0,-1386.9,-636.6,128.7,-6.6,-5.7,-257.1,-1962.3,-0.6,-129.6,-525.9,-26.4,0,546,0,137,0, 
0.3067,-1.5,-463.8,-87.0,237.3,-11.4,28.2,-290.4,170.1,296.4,-533.7,358.5,244.5,-1221.6,-1386.6,-635.7,124.5,-7.2,-6.0,-265.5,-1971.3,-0.3,-138.3,-534.9,-33.0,0,552,0,138,0, 
0.3100,-8.7,-467.4,-83.1,241.2,-9.0,29.4,-288.3,168.6,296.4,-525.6,356.7,246.6,-1225.2,-1407.3,-658.2,134.7,-6.3,-6.3,-256.2,-1970.1,-0.9,-132.9,-530.7,-31.2,0,558,0,139,0, 
0.3133,-15.9,-471.6,-89.4,236.7,-10.5,29.4,-287.7,164.4,370.5,-531.3,362.7,240.3,-1230.6,-1414.5,-659.7,143.1,-6.9,-5.7,-257.4,-1970.7,-0.9,-139.8,-535.2,-32.7,0,564,0,140,0, 
0.3167,-13.5,-472.8,-91.2,234.3,-18.3,22.2,-293.1,165.9,370.5,-540.3,347.7,229.2,-1231.5,-1397.4,-648.0,135.3,-6.6,-6.3,-267.9,-1982.4,-0.6,-150.3,-538.5,-39.9,0,570,0,141,0, 
0.3200,-12.3,-473.7,-95.4,232.5,-16.8,24.6,-292.5,165.0,148.2,-540.9,352.8,232.2,-1235.4,-1405.8,-644.7,126.3,-6.9,-6.0,-267.9,-1981.8,-0.3,-144.0,-537.0,-39.0,0,576,0,142,0, 
0.3233,-9.0,-468.9,-89.7,234.9,-15.3,30.6,-290.4,165.9,222.3,-537.9,357.3,235.8,-1231.2,-1396.2,-639.9,138.6,-6.6,-6.3,-261.6,-1978.2,-1.2,-143.4,-528.6,-30.6,0,582,0,143,0, 
0.3267,-5.4,-462.3,-85.2,238.8,-8.1,31.5,-283.2,166.5,296.4,-527.7,362.4,243.3,-1223.1,-1387.2,-652.2,118.5,-6.9,-5.7,-256.8,-1969.2,-0.6,-137.4,-530.4,-30.6,0,588,0,144,0, 
0.3300,-7.5,-462.0,-83.7,245.1,-4.8,33.9,-285.0,168.6,370.5,-522.9,366.0,246.9,-1230.0,-1405.5,-656.4,132.3,-6.9,-5.7,-249.9,-1967.7,-0.9,-131.4,-525.9,-26.7,0,594,0,145,0, 
0.3333,-11.1,-465.6,-89.4,236.4,-16.8,26.4,-285.3,165.0,222.3,-534.3,358.5,239.7,-1227.9,-1403.4,-644.4,129.9,-7.2,-6.0,-259.5,-1974.3,-0.6,-146.7,-528.6,-33.6,0,600,0,146,0, 
0.3367,-12.9,-466.2,-89.1,239.4,-12.0,30.3,-289.2,165.3,148.2,-531.9,358.5,243.0,-1227.6,-1403.1,-643.8,129.0,-7.2,-5.7,-260.4,-1966.2,-0.6,-143.1,-537.3,-31.8,0,606,0,147,0, 
0.3400,-15.3,-463.8,-78.9,249.3,-2.4,39.3,-284.1,177.0,222.3,-526.2,371.1,254.4,-1225.5,-1409.4,-669.6,136.8,-7.2,-5.7,-252.9,-1955.7,-0.6,-130.5,-519.9,-20.4,0,612,0,148,0, 
0.3433,-14.7,-466.8,-87.9,242.1,-7.5,34.5,-289.2,167.4,222.3,-534.6,363.0,244.5,-1233.9,-1404.6,-666.6,138.3,-7.2,-6.0,-259.5,-1970.1,-1.2,-138.6,-528.0,-25.8,0,618,0,149,0, 
0.3467,-15.6,-468.6,-94.5,234.9,-10.2,31.8,-291.6,164.4,444.6,-539.4,350.4,240.0,-1236.6,-1402.5,-653.4,134.1,-6.6,-6.0,-264.6,-1968.6,-0.9,-137.7,-532.5,-28.2,0,624,0,150,0, 
0.3500,-12.3,-466.8,-93.0,237.9,-6.9,36.0,-289.8,168.3,222.3,-532.8,354.3,245.7,-1230.9,-1400.4,-645.0,143.1,-6.6,-6.0,-262.8,-1965.0,-0.3,-138.0,-525.0,-21.9,0,630,0,151,0, 
0.3533,-7.5,-464.7,-94.8,237.9,-6.9,39.6,-284.1,168.6,222.3,-536.4,362.1,242.4,-1226.7,-1395.3,-640.8,151.8,-6.9,-5.4,-262.8,-1970.1,-0.9,-138.3,-522.6,-20.4,0,636,0,152,0, 
0.3567,-12.3,-468.9,-100.2,231.6,-12.6,33.6,-294.9,158.7,148.2,-543.6,345.0,234.9,-1230.9,-1389.3,-642.0,145.2,-6.9,-6.0,-270.3,-1976.4,-0.3,-146.1,-528.0,-25.5,0,642,0,153,0, 
0.3600,-17.4,-471.6,-96.9,226.8,-16.2,30.9,-293.7,157.8,296.4,-542.1,350.7,226.2,-1233.9,-1395.3,-648.0,141.3,-6.6,-5.7,-272.4,-1980.9,-0.9,-146.7,-530.7,-34.2,0,648,0,154,0, 
0.3633,-15.0,-469.8,-95.4,234.0,-14.7,32.4,-293.1,162.6,370.5,-543.6,354.9,234.0,-1230.6,-1394.7,-643.8,145.2,-6.6,-5.7,-268.5,-1974.0,-0.6,-145.2,-530.1,-32.1,0,654,0,155,0, 
0.3667,-15.3,-465.6,-94.2,233.7,-15.6,33.9,-293.1,165.3,296.4,-536.1,354.9,239.7,-1221.6,-1398.6,-655.8,141.9,-6.9,-6.0,-264.9,-1969.2,-0.3,-141.0,-524.7,-30.9,0,660,0,156,0, 
0.3700,-13.8,-466.2,-90.3,228.6,-15.9,29.4,-296.4,164.1,148.2,-538.2,351.3,236.4,-1225.2,-1395.6,-649.5,147.0,-6.9,-5.7,-267.9,-1973.7,-0.6,-147.9,-531.0,-33.6,0,666,0,157,0, 
0.3733,-13.2,-471.3,-96.3,224.4,-23.1,21.0,-293.7,159.9,148.2,-544.5,347.1,231.6,-1232.4,-1389.6,-641.1,144.9,-6.9,-5.7,-271.8,-1972.5,-0.6,-151.5,-539.1,-37.5,0,672,0,158,0, 
0.3767,-21.0,-478.5,-107.1,220.5,-31.5,16.8,-299.4,154.8,296.4,-555.0,343.2,223.2,-1239.0,-1386.9,-642.3,136.8,-6.6,-5.7,-285.6,-1982.4,-1.2,-158.7,-549.0,-46.2,0,678,0,159,0, 
0.3800,-19.8,-477.9,-108.0,219.6,-28.2,13.5,-304.2,154.5,296.4,-552.6,338.4,220.8,-1236.0,-1389.6,-640.2,142.2,-7.2,-5.7,-286.2,-1988.4,-0.6,-162.0,-546.0,-49.5,0,684,0,160,0, 
0.3833,-15.6,-469.2,-87.9,235.2,-10.8,26.4,-293.7,168.3,148.2,-532.5,353.1,240.6,-1229.1,-1398.9,-656.1,140.7,-6.6,-5.4,-267.9,-1965.9,-0.9,-142.8,-531.3,-30.6,0,690,0,161,0, 
0.3867,-14.1,-467.4,-88.2,239.4,-5.7,27.3,-292.5,167.7,74.1,-529.5,352.5,239.4,-1222.2,-1395.9,-654.0,129.6,-6.9,-6.0,-261.6,-1966.5,-0.9,-141.0,-531.9,-32.4,0,696,0,162,0, 
0.3900,-14.1,-472.8,-94.2,231.6,-15.6,23.7,-294.3,161.7,74.1,-543.6,341.1,231.9,-1227.0,-1389.0,-637.2,132.0,-6.9,-6.0,-275.4,-1973.4,-0.9,-147.0,-530.4,-36.0,0,702,0,163,0, 
0.3933,-14.1,-466.8,-86.1,237.6,-7.5,30.3,-292.5,165.3,296.4,-531.6,355.8,240.9,-1223.7,-1393.2,-651.0,144.6,-7.2,-5.7,-267.6,-1966.5,-0.9,-138.0,-520.5,-31.2,0,708,0,164,0, 
0.3967,-11.4,-462.0,-85.2,237.6,-5.4,31.8,-291.6,170.4,296.4,-524.7,364.5,243.3,-1222.8,-1403.1,-656.7,149.7,-6.9,-5.7,-258.0,-1965.3,-0.6,-137.1,-530.1,-29.1,0,714,0,165,0, 
0.4000,-23.7,-467.4,-90.6,234.3,-13.2,30.6,-291.0,164.7,222.3,-530.4,358.5,238.2,-1225.8,-1408.2,-664.8,139.5,-6.9,-5.7,-264.3,-1969.2,-1.2,-141.0,-532.8,-31.5,0,720,0,166,0, 
0.4033,-18.6,-466.8,-93.0,229.8,-11.4,28.8,-298.5,166.2,74.1,-531.6,362.1,241.2,-1226.7,-1400.4,-651.6,141.6,-6.6,-6.0,-260.7,-1974.0,-0.6,-144.3,-536.7,-33.0,0,726,0,167,0, 
0.4067,-17.7,-467.1,-88.8,233.1,-12.3,26.4,-299.1,158.7,222.3,-532.2,354.0,240.6,-1220.4,-1382.7,-652.2,121.5,-7.2,-6.3,-260.4,-1971.6,-0.3,-144.0,-535.2,-35.4,0,732,0,168,0, 
0.4100,-17.1,-465.6,-84.6,235.5,-7.8,31.5,-291.6,169.8,148.2,-524.4,360.9,237.0,-1225.8,-1397.1,-661.5,132.9,-6.6,-5.7,-253.8,-1968.3,-0.9,-136.2,-534.3,-31.8,0,738,0,169,0, 
0.4133,-24.9,-479.4,-105.3,224.1,-23.1,18.3,-304.8,157.2,222.3,-546.6,346.8,224.1,-1236.0,-1395.3,-648.0,129.0,-7.2,-6.0,-269.7,-1986.0,-0.6,-162.3,-545.7,-45.6,0,744,0,170,0, 
0.4167,-18.6,-474.9,-95.7,229.2,-21.0,21.6,-306.6,160.2,148.2,-541.2,350.4,227.4,-1230.3,-1393.2,-653.7,135.3,-6.6,-5.7,-266.7,-1983.9,-0.6,-156.6,-539.7,-46.8,0,750,0,171,0, 
0.4200,-21.0,-479.1,-105.9,219.0,-29.4,13.5,-305.7,153.0,222.3,-553.5,342.3,218.7,-1238.4,-1403.1,-642.9,136.2,-6.9,-5.7,-273.0,-1988.1,-0.6,-171.3,-547.8,-57.0,0,756,0,172,0, 
0.4233,-21.9,-473.7,-93.3,231.3,-15.9,21.3,-303.3,163.2,74.1,-544.2,354.9,234.3,-1230.3,-1403.7,-664.5,131.1,-6.9,-6.3,-264.3,-1974.0,-0.6,-154.5,-542.1,-46.5,0,762,0,173,0, 
0.4267,-18.9,-469.5,-94.5,232.5,-13.2,25.5,-297.0,165.3,296.4,-542.7,354.0,232.2,-1230.0,-1401.3,-665.7,127.2,-6.9,-6.0,-264.9,-1980.0,-0.9,-153.9,-539.7,-41.1,0,768,0,174,0, 
0.4300,-23.4,-471.6,-91.2,230.1,-11.7,24.3,-300.6,166.8,370.5,-536.7,354.6,234.9,-1232.7,-1413.0,-678.9,126.6,-6.6,-5.7,-258.6,-1975.8,-0.3,-147.3,-537.3,-40.2,0,774,0,175,0, 
0.4333,-24.6,-473.7,-91.5,230.1,-13.2,23.1,-304.2,164.4,370.5,-530.7,357.0,237.3,-1230.3,-1414.5,-675.3,126.9,-6.6,-6.0,-255.3,-1972.2,-0.6,-150.0,-536.1,-40.2,0,780,0,176,0, 
0.4367,-22.2,-477.3,-98.7,223.2,-24.3,15.3,-306.0,158.1,148.2,-544.8,350.1,230.1,-1233.6,-1406.7,-659.4,133.5,-6.9,-6.0,-266.4,-1981.8,-0.6,-163.2,-544.8,-49.8,0,786,0,177,0, 
0.4400,-24.3,-478.2,-96.9,219.6,-22.5,15.0,-306.0,155.4,148.2,-545.4,354.3,226.8,-1231.2,-1409.4,-656.7,128.4,-6.9,-5.7,-265.5,-1984.2,-0.6,-159.3,-551.4,-51.0,0,792,0,178,0, 
0.4433,-18.0,-471.0,-90.6,222.9,-11.1,25.5,-293.4,164.4,222.3,-533.7,355.8,235.5,-1221.3,-1404.6,-660.9,130.5,-6.9,-5.7,-255.9,-1969.8,-0.6,-146.7,-544.8,-38.4,0,798,0,179,0, 
0.4467,-16.2,-468.9,-88.8,224.7,-9.6,24.9,-296.4,168.6,296.4,-534.3,356.7,239.1,-1222.5,-1394.7,-658.2,123.3,-6.6,-6.0,-256.2,-1971.0,-0.6,-150.0,-542.7,-40.8,0,804,0,180,0, 
0.4500,-16.8,-472.2,-97.5,219.3,-15.3,27.6,-292.8,166.8,148.2,-547.2,352.5,232.2,-1229.7,-1393.2,-645.0,132.9,-6.6,-5.7,-267.3,-1975.2,-0.9,-157.5,-537.6,-45.6,0,810,0,181,0, 
0.4533,-20.4,-473.1,-91.2,225.0,-10.2,26.7,-288.0,166.5,74.1,-537.6,363.0,234.9,-1231.5,-1411.5,-664.2,137.1,-6.9,-6.0,-258.9,-1972.2,-0.6,-150.9,-537.0,-40.2,0,816,0,182,0, 
0.4567,-19.8,-469.2,-90.3,231.9,-7.5,33.9,-285.9,169.8,222.3,-529.8,361.5,237.9,-1229.1,-1413.3,-663.3,139.2,-6.9,-5.7,-260.1,-1966.8,-0.6,-143.7,-530.4,-31.2,0,822,0,183,0, 
0.4600,-19.2,-474.9,-97.5,227.4,-11.7,25.2,-289.5,165.6,148.2,-540.0,355.5,237.0,-1233.6,-1406.1,-665.4,129.3,-6.9,-5.7,-262.8,-1975.2,-0.6,-148.2,-532.5,-34.2,0,828,0,184,0, 
0.4633,-30.6,-483.9,-106.8,217.8,-22.5,21.6,-288.0,158.1,222.3,-554.7,342.3,226.2,-1245.3,-1419.3,-672.3,141.0,-7.2,-6.0,-275.7,-1985.4,-0.9,-153.9,-535.2,-41.4,0,834,0,185,0, 
0.4667,-26.7,-480.9,-105.3,219.0,-22.2,22.2,-289.2,158.4,74.1,-550.2,346.2,227.7,-1244.7,-1412.7,-666.3,134.7,-6.9,-6.0,-274.8,-1980.9,-0.9,-156.6,-536.4,-41.7,0,840,0,186,0, 
0.4700,-25.5,-482.1,-110.4,223.5,-23.7,21.9,-287.1,159.9,74.1,-549.3,338.7,221.7,-1242.9,-1420.8,-664.2,137.4,-7.2,-6.0,-276.0,-1983.3,-0.3,-157.2,-536.4,-44.4,0,846,0,187,0, 
0.4733,-22.8,-481.2,-104.4,220.8,-21.9,18.9,-290.7,156.9,74.1,-553.5,333.0,220.2,-1237.5,-1405.5,-648.9,136.8,-6.9,-5.7,-280.2,-1983.3,-0.6,-159.0,-540.9,-44.7,0,852,0,188,0, 
0.4767,-24.9,-483.9,-110.1,216.3,-27.9,16.2,-293.1,153.9,296.4,-559.2,327.3,215.7,-1240.2,-1392.0,-648.3,142.2,-6.9,-5.4,-290.4,-1993.8,-0.9,-170.1,-542.4,-50.1,0,858,0,189,0, 
0.4800,-20.1,-481.8,-102.0,223.8,-21.6,17.1,-287.1,160.2,296.4,-555.0,343.5,216.3,-1240.5,-1405.8,-655.2,133.8,-6.6,-6.0,-279.0,-1988.7,-0.6,-159.6,-539.1,-43.2,0,864,0,190,0, 
0.4833,-23.1,-481.8,-99.6,224.1,-19.5,21.6,-291.6,159.9,148.2,-553.5,335.1,219.9,-1240.8,-1408.8,-659.4,129.0,-7.2,-5.7,-280.5,-1986.9,-0.6,-157.5,-534.0,-43.8,0,870,0,191,0, 
0.4867,-22.5,-480.9,-96.9,225.6,-18.0,21.9,-297.0,162.3,74.1,-543.6,347.1,225.6,-1239.6,-1416.9,-673.2,126.3,-6.9,-6.3,-274.2,-1979.4,-0.6,-154.2,-534.9,-39.0,0,876,0,192,0, 
0.4900,-21.9,-484.2,-102.9,223.8,-21.6,17.7,-297.3,161.7,296.4,-550.2,343.5,224.1,-1241.7,-1407.0,-656.1,124.5,-7.2,-6.0,-276.0,-1983.0,-0.6,-159.0,-531.6,-45.0,0,882,0,193,0, 
0.4933,-14.4,-483.3,-99.6,220.8,-23.4,18.9,-297.3,158.7,222.3,-552.6,336.6,224.7,-1239.3,-1395.9,-637.5,136.5,-6.6,-6.0,-275.4,-1984.2,-0.3,-163.2,-542.1,-46.8,0,888,0,194,0, 
0.4967,-13.8,-471.0,-92.1,230.4,-14.7,24.3,-293.4,166.2,296.4,-547.2,347.7,229.8,-1233.0,-1387.5,-632.1,120.0,-7.2,-6.0,-270.6,-1977.0,-0.6,-154.2,-541.5,-39.9,0,894,0,195,0, 
0.5000,-16.8,-477.6,-92.1,230.7,-13.2,24.0,-298.8,161.7,296.4,-546.6,343.8,230.4,-1236.6,-1401.3,-651.3,127.5,-6.6,-5.1,-272.1,-1971.9,-0.6,-152.1,-538.8,-41.4,0,900,0,196,0, 
0.5033,-14.4,-470.7,-87.0,235.5,-9.9,25.8,-292.2,166.2,74.1,-541.5,350.1,230.7,-1229.7,-1398.9,-668.1,129.9,-6.6,-6.3,-266.1,-1971.6,-0.6,-149.1,-537.0,-37.2,0,906,0,197,0, 
0.5067,-12.9,-474.9,-91.8,230.1,-18.0,20.1,-300.0,161.4,74.1,-545.1,352.2,229.8,-1231.2,-1392.3,-649.8,132.9,-6.6,-6.0,-268.2,-1975.5,-0.9,-159.0,-544.2,-46.2,0,912,0,198,0, 
0.5100,-19.8,-481.2,-106.8,222.3,-22.8,14.7,-296.7,155.1,222.3,-556.5,337.5,221.1,-1236.6,-1405.2,-658.8,129.3,-6.9,-5.7,-278.7,-1989.3,-0.6,-164.4,-544.5,-51.3,0,918,0,199,0, 
0.5133,-20.1,-477.9,-100.5,231.6,-15.3,22.5,-293.4,160.5,370.5,-541.2,348.0,228.9,-1232.4,-1411.5,-667.8,136.8,-7.2,-5.7,-272.4,-1977.9,-0.9,-147.6,-537.6,-39.9,0,924,0,200,0, 
0.5167,-18.0,-472.5,-93.6,234.9,-7.8,28.5,-286.5,163.2,296.4,-535.8,353.1,240.9,-1227.9,-1406.1,-664.8,143.7,-7.2,-6.0,-260.7,-1968.0,-0.9,-144.6,-530.1,-36.0,0,930,0,201,0, 
0.5200,-15.9,-469.2,-93.0,234.6,-9.9,26.1,-290.7,165.9,222.3,-536.4,346.2,235.5,-1225.5,-1403.7,-657.6,136.5,-6.9,-6.3,-268.8,-1970.1,-0.9,-151.2,-534.9,-40.5,0,936,0,202,0, 
0.5233,-24.9,-478.5,-112.2,217.8,-25.8,11.1,-300.0,153.6,148.2,-561.3,330.6,215.4,-1237.8,-1399.5,-642.0,135.9,-7.2,-6.0,-285.0,-1986.3,-0.3,-169.5,-547.5,-56.7,0,942,0,203,0, 
0.5267,-21.3,-475.8,-103.8,226.5,-19.5,19.8,-294.9,157.8,296.4,-553.2,338.4,226.5,-1237.2,-1404.3,-648.3,141.9,-6.3,-5.4,-280.8,-1981.5,-0.6,-161.4,-540.6,-46.8,0,948,0,204,0, 
0.5300,-24.0,-474.3,-100.2,230.7,-12.9,22.2,-291.3,156.3,296.4,-548.4,339.3,228.6,-1233.3,-1410.0,-666.3,141.0,-6.9,-6.0,-274.8,-1980.0,-0.9,-163.5,-531.0,-45.0,0,954,0,205,0, 
0.5333,-19.8,-467.7,-85.8,240.3,-9.9,25.2,-289.8,160.8,74.1,-540.6,351.6,229.5,-1227.0,-1407.6,-660.6,127.2,-6.6,-6.0,-266.7,-1974.6,-0.6,-155.1,-538.5,-41.4,0,960,0,206,0, 
0.5367,-16.2,-462.9,-87.0,240.0,-6.3,26.4,-291.0,161.7,148.2,-541.2,359.4,231.3,-1226.7,-1412.7,-665.4,129.0,-6.9,-6.0,-264.3,-1976.4,-0.3,-150.6,-534.6,-40.2,0,966,0,207,0, 
0.5400,-14.4,-466.8,-92.7,234.0,-15.6,20.7,-293.1,160.8,296.4,-549.3,349.2,223.5,-1235.1,-1404.0,-654.3,127.8,-6.6,-5.7,-272.7,-1981.8,-1.2,-158.7,-545.1,-44.7,0,972,0,208,0, 
0.5433,-22.5,-469.2,-96.0,234.6,-16.5,19.5,-297.9,156.0,222.3,-548.1,343.5,226.8,-1234.2,-1408.2,-665.1,135.3,-6.9,-6.0,-268.2,-1980.3,-0.6,-158.1,-545.1,-48.3,0,978,0,209,0, 
0.5467,-17.4,-463.5,-87.9,238.5,-12.9,22.8,-294.6,160.5,370.5,-543.6,350.4,230.4,-1227.0,-1404.0,-661.5,133.2,-6.9,-5.4,-267.0,-1976.1,-0.9,-153.3,-545.4,-43.2,0,984,0,210,0, 
0.5500,-13.2,-460.5,-85.5,237.0,-11.7,21.3,-297.9,166.8,222.3,-541.8,353.7,229.2,-1223.4,-1401.0,-657.3,131.4,-6.9,-5.7,-265.5,-1980.3,-0.6,-153.0,-540.6,-41.7,0,990,0,211,0, 
0.5533,-17.1,-464.1,-88.2,234.0,-15.6,21.0,-298.8,164.4,222.3,-537.6,352.8,234.3,-1227.9,-1405.5,-664.8,132.3,-6.9,-5.7,-264.3,-1974.3,-0.9,-150.6,-535.8,-42.0,0,996,0,212,0, 
0.5567,-20.1,-470.4,-100.5,225.3,-23.4,13.8,-300.6,156.9,222.3,-544.8,346.8,231.0,-1234.8,-1407.9,-659.1,135.9,-7.2,-6.0,-272.7,-1978.5,-0.9,-160.5,-543.3,-49.2,0,1002,0,213,0, 
0.5600,-18.3,-469.5,-103.5,219.9,-25.2,11.7,-301.2,151.2,296.4,-550.8,344.1,225.9,-1236.3,-1394.1,-651.3,137.1,-7.2,-6.3,-276.6,-1981.5,-0.9,-163.2,-548.1,-47.4,0,1008,0,214,0, 
0.5633,-15.0,-473.4,-105.9,214.8,-30.6,7.8,-301.5,147.9,222.3,-556.5,341.4,219.0,-1238.7,-1392.0,-647.1,140.4,-7.2,-6.0,-278.4,-1986.6,-0.9,-165.6,-548.7,-49.8,0,1014,0,215,0, 
0.5667,-26.1,-479.1,-112.2,210.6,-32.4,6.3,-300.9,147.0,74.1,-563.1,328.8,209.4,-1246.8,-1405.2,-651.9,147.3,-6.6,-6.0,-293.1,-1994.4,-0.9,-169.8,-549.6,-53.1,0,1020,0,216,0, 
0.5700,-19.8,-471.3,-105.0,219.0,-24.6,16.2,-293.1,155.1,148.2,-555.9,333.6,215.1,-1242.3,-1404.3,-653.7,153.0,-7.2,-6.0,-285.0,-1988.7,-0.6,-168.0,-540.3,-48.0,0,1026,0,217,0, 
0.5733,-18.0,-467.7,-95.1,232.2,-15.6,20.7,-288.0,161.7,148.2,-544.5,343.5,227.7,-1232.7,-1400.7,-667.5,142.2,-6.9,-5.7,-272.1,-1976.7,-0.9,-155.1,-531.3,-36.9,0,1032,0,218,0, 
0.5767,-14.1,-464.4,-94.2,231.0,-21.6,13.8,-293.4,157.2,444.6,-546.0,345.9,220.8,-1233.3,-1390.8,-645.6,136.8,-7.2,-5.7,-272.4,-1979.4,-0.6,-160.8,-539.1,-44.1,0,1038,0,219,0, 
0.5800,-12.6,-468.6,-99.3,231.9,-16.8,14.1,-288.9,160.8,370.5,-548.1,342.3,221.4,-1239.3,-1397.7,-641.1,139.8,-6.9,-6.0,-277.5,-1982.4,-0.9,-157.2,-538.2,-45.0,0,1044,0,220,0, 
0.5833,-17.7,-473.7,-101.1,230.4,-17.1,15.6,-292.2,153.9,148.2,-551.4,339.9,220.5,-1237.2,-1403.7,-662.4,144.3,-6.3,-5.7,-276.9,-1983.3,-0.9,-164.4,-537.9,-45.6,0,1050,0,221,0, 
0.5867,-17.7,-473.4,-97.2,230.4,-20.7,16.2,-291.9,155.4,222.3,-556.8,339.0,214.8,-1241.1,-1410.3,-661.8,151.8,-6.6,-5.4,-281.7,-1990.2,-0.3,-168.0,-529.5,-46.5,0,1056,0,222,0, 
0.5900,-11.7,-463.8,-93.3,236.1,-18.9,19.5,-292.2,162.0,148.2,-548.4,343.2,224.4,-1235.7,-1398.3,-657.0,144.6,-6.9,-5.7,-278.1,-1980.9,-0.6,-161.7,-538.5,-43.8,0,1062,0,223,0, 
0.5933,-15.3,-468.3,-98.7,231.9,-23.4,17.7,-294.3,158.7,296.4,-546.3,339.6,221.7,-1233.9,-1398.9,-658.8,153.0,-7.2,-6.3,-279.3,-1979.7,-0.9,-168.6,-536.4,-46.8,0,1068,0,224,0, 
0.5967,-16.5,-464.7,-96.3,235.2,-16.8,20.7,-291.9,158.4,370.5,-545.7,331.8,223.5,-1230.3,-1391.7,-657.9,155.1,-6.9,-6.3,-279.9,-1975.2,-0.6,-160.5,-534.0,-41.1,0,1074,0,225,0, 
0.6000,-15.3,-462.6,-88.2,241.5,-10.5,25.5,-290.7,166.5,222.3,-534.0,347.7,234.0,-1228.8,-1392.3,-669.0,131.7,-7.2,-6.0,-267.0,-1961.7,-0.6,-145.8,-525.9,-33.6,0,1080,0,226,0, 
0.6033,-18.0,-471.6,-97.5,230.1,-18.0,15.9,-290.4,158.7,148.2,-542.7,349.2,221.7,-1236.3,-1402.5,-660.6,144.9,-6.3,-5.4,-273.6,-1979.1,-0.9,-157.8,-543.3,-42.6,0,1086,0,227,0, 
0.6067,-12.9,-463.5,-93.3,233.4,-17.7,17.4,-292.2,164.1,222.3,-544.8,335.7,215.7,-1232.4,-1392.0,-654.3,135.0,-6.9,-5.7,-275.4,-1982.4,-0.3,-159.6,-540.6,-40.8,0,1092,0,228,0, 
0.6100,-15.0,-466.8,-94.8,231.0,-16.8,16.8,-295.5,162.9,222.3,-545.1,337.5,219.6,-1231.5,-1390.2,-659.1,139.5,-6.9,-5.7,-276.0,-1976.4,-0.6,-159.3,-541.8,-43.5,0,1098,0,229,0, 
0.6133,-17.1,-465.0,-95.1,228.9,-16.5,21.0,-294.0,166.2,370.5,-546.0,344.7,224.4,-1235.7,-1398.3,-656.7,146.4,-6.6,-5.4,-273.6,-1974.3,-0.6,-158.4,-533.7,-42.0,0,1104,0,230,0, 
0.6167,-23.4,-473.7,-112.5,218.1,-30.9,8.4,-301.5,156.0,148.2,-561.9,333.9,207.9,-1246.2,-1389.9,-648.6,139.2,-6.9,-5.7,-287.7,-1994.4,-0.6,-183.0,-545.7,-57.9,0,1110,0,231,0, 
0.6200,-15.6,-462.6,-98.7,232.2,-19.2,17.4,-297.3,168.6,148.2,-546.9,343.2,221.7,-1236.6,-1387.2,-655.2,143.4,-7.2,-6.0,-273.9,-1978.8,-0.6,-165.9,-546.6,-45.6,0,1116,0,232,0, 
0.6233,-27.3,-472.8,-114.3,214.2,-39.6,-0.9,-297.6,152.4,148.2,-566.1,318.3,202.2,-1248.3,-1398.0,-642.3,149.4,-6.9,-5.7,-296.4,-1998.3,-0.9,-184.2,-560.4,-65.7,0,1122,0,233,0, 
0.6267,-23.1,-463.8,-101.7,226.5,-30.0,12.0,-292.5,165.6,296.4,-549.3,330.6,216.0,-1235.7,-1398.6,-660.3,149.4,-6.9,-6.3,-284.4,-1987.5,-0.6,-168.9,-549.3,-53.1,0,1128,0,234,0, 
0.6300,-23.1,-462.9,-102.6,234.6,-23.1,18.3,-286.8,164.7,74.1,-540.3,343.8,219.3,-1231.8,-1425.3,-686.7,158.7,-6.9,-6.0,-273.0,-1980.9,-0.9,-157.8,-537.9,-42.9,0,1134,0,235,0, 
0.6333,-25.5,-465.3,-103.8,228.9,-21.6,17.7,-290.7,164.4,370.5,-537.6,340.2,224.4,-1238.7,-1420.2,-673.8,160.2,-7.2,-5.7,-276.0,-1977.6,-0.6,-153.3,-531.9,-42.6,0,1140,0,236,0, 
0.6367,-27.9,-462.6,-97.8,233.4,-21.3,19.8,-290.4,165.3,74.1,-535.8,349.8,229.5,-1234.5,-1419.3,-676.5,156.0,-7.2,-6.0,-268.8,-1970.1,-0.6,-145.8,-531.6,-39.3,0,1146,0,237,0, 
0.6400,-28.5,-470.1,-100.2,226.5,-25.8,12.6,-293.4,159.6,148.2,-541.8,347.4,225.3,-1239.3,-1416.6,-664.8,158.7,-6.9,-5.7,-274.2,-1974.6,-0.9,-155.4,-539.7,-45.0,0,1152,0,238,0, 
0.6433,-22.5,-464.4,-93.9,236.1,-22.8,14.4,-292.2,163.5,296.4,-537.3,347.4,229.5,-1235.4,-1415.4,-665.7,157.5,-6.3,-5.7,-268.2,-1971.0,-0.9,-153.3,-541.5,-39.6,0,1158,0,239,0, 
0.6467,-27.6,-470.4,-99.6,227.1,-24.0,11.4,-296.4,156.6,370.5,-548.1,340.5,221.7,-1242.6,-1410.9,-656.7,158.7,-7.2,-6.0,-274.8,-1976.4,-0.6,-162.0,-546.0,-48.3,0,1164,0,240,0, 
0.6500,-26.1,-470.4,-99.9,230.7,-20.7,15.3,-288.9,165.3,222.3,-546.6,343.5,224.4,-1242.3,-1413.6,-656.4,163.8,-6.9,-5.7,-274.8,-1974.3,-0.3,-163.2,-539.4,-47.1,0,1170,0,241,0, 
0.6533,-10.2,-452.7,-83.4,246.3,-2.7,31.8,-277.8,178.5,74.1,-526.8,351.6,243.6,-1222.5,-1391.7,-644.7,163.5,-6.6,-5.7,-258.3,-1958.4,-1.2,-143.1,-527.7,-28.2,0,1176,0,242,0, 
0.6567,-16.5,-459.6,-96.0,243.3,-11.7,24.0,-285.3,171.0,222.3,-537.3,350.4,240.6,-1229.7,-1398.0,-642.3,163.8,-7.2,-6.0,-263.7,-1962.3,-0.9,-149.4,-531.9,-36.6,0,1182,0,243,0, 
0.6600,-14.7,-454.2,-95.4,241.8,-12.0,23.7,-285.6,169.8,222.3,-540.3,357.0,231.6,-1230.9,-1392.3,-641.7,159.6,-6.6,-5.7,-264.0,-1965.9,-0.6,-147.6,-529.8,-36.9,0,1188,0,244,0, 
0.6633,-9.0,-450.3,-86.1,243.0,-10.5,22.2,-284.7,169.8,296.4,-534.9,345.6,233.1,-1229.7,-1384.8,-633.9,159.3,-6.9,-6.0,-268.2,-1967.7,-0.9,-151.5,-525.0,-39.3,0,1194,0,245,0, 
0.6667,-13.2,-450.3,-82.8,250.5,-1.8,24.9,-285.3,172.5,222.3,-522.0,358.5,241.8,-1227.9,-1399.2,-658.5,152.7,-6.6,-5.7,-257.1,-1958.7,-0.6,-144.0,-524.1,-33.9,0,1200,0,246,0, 
0.6700,-16.8,-448.2,-78.3,252.6,0.3,30.9,-281.4,177.0,296.4,-522.6,366.6,247.8,-1225.8,-1403.7,-670.2,158.4,-6.9,-5.7,-254.4,-1953.3,-0.9,-134.7,-519.9,-28.2,0,1206,0,247,0, 
0.6733,-18.3,-455.1,-87.3,243.3,-12.3,19.8,-287.1,164.4,222.3,-534.0,358.2,237.9,-1231.8,-1392.6,-657.6,157.2,-6.6,-6.0,-263.4,-1964.4,-0.9,-148.5,-526.8,-36.6,0,1212,0,248,0, 
0.6767,-15.0,-449.1,-79.2,251.4,-8.4,23.1,-278.7,171.3,296.4,-527.7,357.3,240.3,-1226.7,-1394.1,-653.4,161.4,-7.2,-6.0,-261.3,-1962.6,-0.9,-144.0,-527.1,-33.0,0,1218,0,249,0, 
0.6800,-17.1,-454.5,-78.0,246.6,-10.5,20.7,-284.7,163.8,296.4,-527.1,358.2,237.3,-1228.8,-1395.3,-655.2,152.4,-7.2,-6.0,-261.9,-1964.1,-0.6,-145.2,-531.9,-36.3,0,1224,0,250,0, 
0.6833,-11.4,-450.0,-77.4,250.2,-6.3,25.2,-280.8,169.8,148.2,-530.4,363.9,237.0,-1224.9,-1392.9,-648.0,156.3,-7.2,-6.0,-261.3,-1962.0,-0.6,-132.6,-525.9,-32.4,0,1230,0,251,0, 
0.6867,-14.1,-454.2,-84.3,247.2,-6.9,24.6,-279.3,170.1,74.1,-528.6,358.8,236.7,-1231.2,-1391.7,-647.7,157.8,-6.9,-5.4,-265.2,-1963.5,-0.9,-140.1,-525.9,-35.4,0,1236,0,252,0, 
0.6900,-12.3,-453.3,-84.9,245.7,-9.3,25.8,-276.6,173.4,296.4,-531.6,355.8,238.5,-1228.8,-1398.6,-642.6,160.2,-6.9,-6.0,-262.8,-1962.3,-0.9,-149.1,-526.5,-33.0,0,1242,0,253,0, 
0.6933,-17.7,-453.9,-87.3,246.6,-10.2,23.1,-283.8,172.8,370.5,-530.7,351.6,235.2,-1225.8,-1392.6,-653.7,155.7,-6.6,-6.0,-267.0,-1968.9,-0.9,-147.9,-522.9,-35.7,0,1248,0,254,0, 
0.6967,-23.4,-458.4,-95.1,234.0,-24.0,12.0,-285.0,167.4,222.3,-546.9,339.0,207.3,-1237.2,-1407.0,-655.5,157.5,-6.9,-6.0,-279.6,-2002.5,-0.6,-170.7,-536.1,-52.8,0,1254,0,255,0, 
0.7000,-26.4,-465.9,-110.7,222.6,-33.6,6.9,-291.3,158.7,296.4,-554.4,315.0,192.0,-1245.6,-1408.8,-645.9,169.8,-6.9,-6.3,-301.8,-2012.1,-0.9,-175.2,-541.2,-56.7,0,1260,0,0,0, 
0.7033,-29.4,-470.4,-116.1,216.6,-37.8,5.7,-300.9,150.9,148.2,-555.6,315.6,203.7,-1247.1,-1398.6,-631.5,165.3,-6.9,-5.7,-301.8,-1989.0,-0.9,-171.0,-546.3,-60.3,0,1266,0,1,0, 
0.7067,-19.2,-453.0,-93.9,237.6,-12.9,28.5,-289.2,166.5,222.3,-514.8,353.1,238.2,-1221.9,-1395.9,-660.0,130.5,-6.9,-6.3,-267.0,-1946.7,-0.6,-132.9,-528.0,-30.3,0,1272,0,2,0, 
0.7100,-26.4,-463.5,-109.2,219.9,-29.7,15.6,-297.0,157.2,222.3,-525.9,320.1,207.9,-1236.3,-1400.7,-657.9,150.0,-7.5,-6.3,-297.3,-1974.3,-0.9,-139.2,-528.6,-38.1,0,1278,0,3,0, 
0.7133,-22.5,-467.4,-120.9,210.3,-42.0,11.1,-292.8,152.4,296.4,-540.9,295.8,185.1,-1239.0,-1386.3,-635.1,166.5,-6.9,-5.7,-323.7,-1992.3,-0.6,-147.6,-530.1,-47.7,0,1284,0,4,0, 
0.7167,-21.0,-467.1,-121.8,208.5,-43.8,11.1,-295.5,152.7,222.3,-536.4,293.1,182.4,-1234.5,-1385.4,-635.7,154.2,-7.2,-6.0,-322.8,-1994.4,-0.6,-139.5,-537.6,-42.6,0,1290,0,5,0, 
0.7200,-17.1,-468.3,-122.7,202.5,-45.9,4.2,-290.4,156.0,0.0,-542.1,287.7,175.5,-1236.0,-1377.0,-623.4,143.1,-6.9,-5.7,-325.5,-2000.4,-0.9,-148.5,-546.0,-50.1,0,1296,0,6,0, 
0.7233,-22.8,-470.7,-123.3,202.8,-43.5,9.9,-296.7,157.2,148.2,-549.9,272.7,171.3,-1241.7,-1381.5,-630.9,150.0,-6.3,-6.0,-336.6,-2001.0,-0.6,-140.4,-540.9,-43.2,0,1302,0,7,0, 
0.7267,-19.5,-471.0,-123.9,203.7,-44.7,9.0,-292.2,150.9,296.4,-544.8,283.8,175.5,-1243.8,-1378.2,-633.9,157.8,-6.6,-5.7,-329.4,-1995.9,-0.6,-141.6,-538.5,-44.1,0,1308,0,8,0, 
0.7300,-17.7,-468.9,-122.4,208.5,-40.5,14.1,-294.0,155.7,296.4,-539.7,293.4,184.2,-1240.2,-1374.9,-631.5,157.5,-6.6,-5.7,-322.2,-1987.8,-0.6,-131.4,-537.9,-40.8,0,1314,0,9,0, 
0.7333,-29.7,-468.6,-112.2,215.4,-30.0,23.7,-282.9,161.7,148.2,-524.7,288.9,192.3,-1240.8,-1427.4,-686.7,162.9,-7.2,-5.7,-320.4,-1980.9,-0.3,-116.7,-529.5,-30.0,0,1320,0,10,0, 
0.7367,-34.2,-471.3,-114.0,215.4,-33.3,19.5,-289.2,161.1,148.2,-530.4,289.5,186.6,-1248.6,-1431.3,-674.4,170.1,-6.9,-5.7,-317.4,-1988.4,-0.9,-131.4,-534.0,-33.9,0,1326,0,11,0, 
0.7400,-28.8,-459.0,-97.8,226.2,-22.8,27.9,-285.6,167.7,148.2,-517.2,309.3,201.0,-1233.0,-1406.4,-673.8,150.6,-6.9,-5.7,-302.1,-1971.0,-0.6,-114.6,-531.6,-25.8,0,1332,0,12,0, 
0.7433,-28.5,-460.8,-102.6,225.0,-27.0,23.1,-294.0,166.8,296.4,-521.1,306.6,195.6,-1233.0,-1401.6,-658.2,141.9,-6.9,-5.4,-310.2,-1980.9,-0.6,-121.8,-537.9,-30.3,0,1338,0,13,0, 
0.7467,-28.8,-465.0,-109.2,218.1,-30.0,18.0,-291.6,165.6,370.5,-529.8,298.5,189.0,-1238.4,-1391.4,-636.6,156.6,-6.9,-6.0,-314.4,-1988.4,-0.6,-132.0,-538.5,-37.8,0,1344,0,14,0, 
0.7500,-30.6,-464.4,-109.5,214.5,-36.0,15.6,-294.3,161.4,222.3,-525.0,303.9,186.6,-1240.2,-1393.5,-635.1,152.1,-6.9,-5.7,-310.8,-1989.9,-0.6,-135.9,-542.1,-41.7,0,1350,0,15,0, 
0.7533,-26.7,-458.1,-106.8,218.4,-28.8,22.5,-291.3,163.8,0.0,-519.0,302.4,191.1,-1234.5,-1400.7,-655.8,151.2,-7.2,-6.0,-305.7,-1983.3,-0.9,-128.4,-534.3,-37.8,0,1356,0,16,0, 
0.7567,-27.9,-460.5,-107.7,217.5,-36.6,20.7,-287.1,161.7,148.2,-521.7,294.9,185.1,-1240.8,-1406.1,-659.1,161.1,-7.2,-6.0,-312.9,-1987.5,-0.6,-129.9,-534.9,-41.1,0,1362,0,17,0, 
0.7600,-30.3,-460.5,-110.4,216.9,-36.3,18.0,-292.8,160.8,222.3,-521.7,296.4,188.1,-1238.4,-1403.4,-656.7,163.8,-7.2,-5.7,-315.3,-1985.4,-1.2,-129.9,-534.6,-35.7,0,1368,0,18,0, 
0.7633,-32.7,-464.1,-110.1,212.7,-39.9,18.0,-291.6,154.5,370.5,-524.7,288.9,186.9,-1239.3,-1404.0,-651.6,168.3,-6.9,-5.7,-319.2,-1985.4,-0.3,-131.4,-537.9,-32.1,0,1374,0,19,0, 
0.7667,-22.5,-457.2,-105.0,220.8,-31.5,21.9,-284.4,163.2,222.3,-516.0,295.8,192.9,-1231.8,-1400.1,-643.5,164.7,-6.9,-5.7,-312.3,-1981.2,-0.6,-121.5,-528.0,-27.6,0,1380,0,20,0, 
0.7700,-29.4,-461.1,-110.1,216.9,-38.1,19.8,-292.5,157.8,74.1,-525.0,293.7,187.5,-1234.2,-1404.6,-647.7,161.1,-7.2,-6.0,-318.0,-1979.1,-0.6,-128.1,-528.6,-29.7,0,1386,0,21,0, 
0.7733,-27.6,-461.7,-110.4,217.8,-37.2,20.7,-291.6,158.4,0.0,-527.4,291.6,183.6,-1237.5,-1406.1,-641.1,165.0,-6.9,-5.4,-320.7,-1982.4,-0.6,-130.2,-530.4,-34.5,0,1392,0,22,0, 
0.7767,-25.5,-460.5,-104.4,220.2,-35.7,20.7,-287.4,158.1,148.2,-527.4,297.6,184.8,-1234.8,-1402.8,-645.6,167.1,-7.2,-6.0,-316.8,-1985.1,-0.6,-131.7,-529.8,-35.7,0,1398,0,23,0, 
0.7800,-21.3,-456.6,-102.0,225.0,-24.0,25.5,-281.7,167.1,296.4,-523.2,303.0,189.0,-1232.1,-1399.5,-640.5,167.7,-6.9,-6.0,-312.0,-1978.5,-0.6,-123.6,-520.2,-30.9,0,1404,0,24,0, 
0.7833,-23.1,-454.5,-99.0,231.9,-23.7,25.5,-282.6,167.1,148.2,-518.1,304.5,195.6,-1230.3,-1398.6,-639.3,162.6,-6.9,-5.7,-305.7,-1968.9,-0.6,-122.4,-529.5,-26.7,0,1410,0,25,0, 
0.7867,-27.0,-457.5,-103.2,229.5,-23.1,22.2,-288.3,167.4,74.1,-524.7,301.5,192.6,-1230.6,-1396.8,-641.1,158.7,-6.9,-5.4,-305.7,-1978.8,-0.3,-126.0,-530.7,-33.0,0,1416,0,26,0, 
0.7900,-26.7,-456.9,-96.0,234.3,-23.4,22.2,-291.0,165.9,148.2,-524.4,304.2,189.9,-1227.0,-1396.5,-642.9,161.1,-6.9,-5.7,-308.4,-1978.8,-0.6,-126.3,-534.0,-32.7,0,1422,0,27,0, 
0.7933,-24.9,-454.2,-97.5,231.3,-21.3,21.3,-284.1,164.7,222.3,-519.9,309.3,198.0,-1227.0,-1398.6,-637.2,160.8,-6.9,-6.0,-302.4,-1971.3,-0.9,-123.0,-532.5,-30.6,0,1428,0,28,0, 
0.7967,-31.2,-460.8,-101.1,228.0,-24.3,22.5,-287.4,159.9,296.4,-520.2,306.0,193.5,-1234.2,-1404.6,-645.0,160.5,-6.9,-5.4,-304.5,-1972.8,-0.9,-125.1,-531.9,-32.4,0,1434,0,29,0, 
0.8000,-34.5,-467.1,-107.7,218.1,-36.9,10.8,-293.4,156.3,296.4,-538.5,291.6,177.6,-1243.8,-1400.4,-638.1,153.9,-6.6,-6.0,-319.8,-1989.6,-0.6,-141.0,-543.0,-46.5,0,1440,0,30,0, 
0.8033,-30.0,-461.1,-110.4,215.1,-37.5,10.2,-298.2,156.0,74.1,-539.7,285.0,179.4,-1239.0,-1399.8,-636.6,152.1,-6.6,-5.7,-320.7,-1989.6,-0.6,-146.4,-547.5,-48.6,0,1446,0,31,0, 
0.8067,-29.4,-465.6,-109.2,217.2,-37.8,8.7,-293.7,154.5,222.3,-539.4,294.6,182.1,-1242.9,-1396.5,-634.2,155.1,-7.2,-6.0,-317.1,-1987.5,-0.6,-144.6,-552.6,-46.8,0,1452,0,32,0, 
0.8100,-27.6,-461.7,-104.4,222.6,-33.3,15.0,-291.9,163.2,370.5,-532.5,297.0,182.7,-1241.4,-1404.6,-648.9,148.5,-7.2,-5.7,-315.9,-1984.5,-0.9,-132.3,-546.0,-41.7,0,1458,0,33,0, 
0.8133,-29.7,-462.0,-111.6,217.5,-42.0,7.2,-289.8,155.1,296.4,-539.7,289.8,175.2,-1242.3,-1392.6,-640.2,154.2,-7.2,-6.0,-323.4,-1989.0,-0.6,-143.1,-546.0,-45.0,0,1464,0,34,0, 
0.8167,-33.3,-466.2,-113.7,217.5,-38.4,7.5,-289.2,156.0,148.2,-539.7,289.2,178.5,-1247.7,-1416.0,-661.5,156.6,-6.3,-6.3,-324.3,-1983.9,-0.9,-142.5,-548.1,-43.5,0,1470,0,35,0, 
0.8200,-31.5,-464.4,-113.7,218.7,-34.5,12.6,-290.7,157.2,-148.2,-531.0,293.4,183.9,-1244.7,-1424.1,-667.5,144.9,-7.2,-6.0,-319.5,-1979.4,-0.6,-133.8,-541.2,-39.0,0,1476,0,36,0, 
0.8233,-28.5,-473.7,-128.7,208.5,-45.9,1.2,-294.6,145.2,74.1,-545.4,285.9,173.1,-1250.4,-1413.9,-644.1,149.4,-6.9,-6.0,-327.6,-1993.2,-0.6,-152.1,-549.3,-51.0,0,1482,0,37,0, 
0.8267,-29.1,-475.2,-128.4,203.4,-50.1,-2.7,-295.5,142.2,222.3,-551.7,283.8,176.1,-1249.5,-1391.7,-633.9,141.9,-6.9,-6.0,-330.6,-1990.5,-0.6,-156.3,-555.3,-55.8,0,1488,0,38,0, 
0.8300,-27.6,-470.4,-120.6,214.8,-39.6,9.0,-290.7,150.9,296.4,-541.8,287.7,183.0,-1244.4,-1403.7,-651.6,146.1,-6.6,-6.0,-322.8,-1980.0,-0.3,-144.9,-548.7,-44.1,0,1494,0,39,0, 
0.8333,-31.8,-471.3,-115.2,215.7,-39.6,12.3,-288.9,150.9,222.3,-533.1,294.9,183.3,-1245.9,-1419.3,-665.1,142.8,-6.9,-6.0,-316.8,-1982.1,-0.6,-138.6,-544.8,-41.7,0,1500,0,40,0, 
0.8367,-32.7,-473.1,-120.9,212.4,-46.5,3.3,-297.9,145.8,74.1,-542.7,295.5,180.6,-1249.2,-1416.6,-653.1,137.1,-7.2,-6.0,-320.7,-1986.6,0.0,-149.7,-556.2,-52.8,0,1506,0,41,0, 
0.8400,-30.0,-474.3,-122.1,210.9,-48.0,1.2,-303.0,148.5,222.3,-546.3,295.5,177.0,-1245.9,-1401.6,-639.6,134.1,-6.6,-6.0,-323.4,-1993.8,-0.6,-152.4,-560.4,-54.3,0,1512,0,42,0, 
0.8433,-27.3,-475.5,-122.4,211.5,-51.0,-0.6,-298.8,147.6,222.3,-554.7,290.7,175.5,-1242.6,-1400.1,-621.6,137.4,-7.2,-5.7,-325.2,-1993.2,-0.6,-156.9,-564.0,-54.9,0,1518,0,43,0, 
0.8467,-26.4,-457.5,-98.1,232.2,-26.4,21.3,-285.6,165.6,296.4,-521.7,313.5,199.8,-1228.5,-1411.8,-677.4,142.8,-6.9,-6.0,-298.2,-1968.3,-0.6,-126.6,-540.9,-32.4,0,1524,0,44,0, 
0.8500,-26.1,-457.5,-100.5,230.7,-23.1,24.0,-284.1,168.6,222.3,-516.9,313.5,199.8,-1237.5,-1428.3,-683.7,151.5,-6.9,-6.0,-298.8,-1968.9,-0.6,-122.7,-533.4,-30.6,0,1530,0,45,0, 
0.8533,-29.7,-462.9,-108.0,221.1,-33.0,15.3,-287.4,161.7,148.2,-527.1,306.9,191.4,-1242.3,-1412.1,-660.6,155.7,-6.6,-6.0,-305.1,-1973.4,-0.6,-133.5,-540.3,-39.6,0,1536,0,46,0, 
0.8567,-34.5,-469.2,-117.0,213.3,-37.8,9.3,-288.0,151.8,74.1,-537.6,301.8,187.2,-1249.2,-1411.8,-657.0,146.7,-7.2,-5.7,-316.2,-1980.0,-0.6,-138.3,-546.9,-47.1,0,1542,0,47,0, 
0.8600,-31.8,-469.2,-115.5,213.3,-38.4,12.0,-288.6,151.5,74.1,-536.4,297.9,191.7,-1245.3,-1404.0,-650.4,144.9,-6.3,-6.0,-317.4,-1975.8,-0.6,-132.3,-545.7,-44.7,0,1548,0,48,0, 
0.8633,-27.9,-473.4,-121.8,204.3,-42.9,6.0,-294.6,148.2,296.4,-538.5,295.2,180.9,-1248.3,-1411.2,-646.8,143.7,-7.2,-6.0,-319.2,-1983.3,-0.6,-145.2,-545.7,-51.3,0,1554,0,49,0, 
0.8667,-24.3,-468.9,-118.2,207.3,-33.9,14.4,-288.9,153.3,370.5,-536.4,300.6,192.0,-1244.1,-1405.5,-645.6,155.7,-7.2,-6.0,-312.6,-1971.9,-0.6,-133.5,-531.3,-42.6,0,1560,0,50,0, 
0.8700,-28.8,-473.1,-123.3,200.7,-40.5,6.3,-298.2,147.9,-74.1,-538.8,294.9,185.1,-1248.0,-1413.0,-654.0,148.5,-6.9,-5.4,-321.0,-1980.0,-0.9,-137.1,-537.3,-47.1,0,1566,0,51,0, 
0.8733,-28.8,-474.0,-126.0,203.4,-42.0,9.3,-305.4,147.6,222.3,-545.7,286.5,183.0,-1249.5,-1407.9,-653.4,146.7,-6.9,-6.3,-326.1,-1985.1,-0.9,-140.4,-537.6,-50.1,0,1572,0,52,0, 
0.8767,-32.1,-479.1,-127.5,199.2,-46.8,5.7,-305.1,146.4,222.3,-551.4,285.6,177.3,-1253.1,-1406.4,-651.3,150.9,-6.0,-5.7,-326.4,-1992.9,-0.6,-151.8,-544.8,-55.8,0,1578,0,53,0, 
0.8800,-34.5,-483.0,-129.3,201.6,-52.2,-2.4,-308.7,143.7,222.3,-555.9,282.3,167.4,-1254.6,-1413.9,-644.7,150.3,-6.9,-6.3,-331.8,-2001.3,-0.9,-162.6,-549.3,-62.7,0,1584,0,54,0, 
0.8833,-19.5,-473.1,-114.3,219.9,-36.9,11.4,-301.2,155.1,222.3,-541.5,294.9,184.8,-1241.1,-1396.8,-639.6,126.9,-6.6,-5.7,-320.7,-1984.8,-0.6,-149.1,-542.1,-53.4,0,1590,0,55,0, 
0.8867,-22.5,-467.4,-106.5,223.2,-29.1,15.9,-296.7,162.0,148.2,-534.3,303.0,191.1,-1240.5,-1402.2,-660.9,130.5,-7.2,-6.3,-313.5,-1978.2,-0.9,-140.7,-534.3,-45.6,0,1596,0,56,0, 
0.8900,-26.7,-468.6,-105.3,221.4,-28.5,20.1,-297.6,162.0,74.1,-532.5,306.9,196.8,-1240.2,-1412.4,-675.3,131.7,-6.6,-5.7,-311.4,-1974.6,-0.9,-136.5,-536.7,-45.9,0,1602,0,57,0, 
0.8933,-31.2,-477.3,-113.4,210.3,-36.6,7.8,-302.4,151.5,222.3,-541.8,294.9,189.3,-1248.0,-1410.0,-671.7,125.4,-7.2,-6.3,-323.7,-1985.7,-0.6,-147.0,-549.6,-52.8,0,1608,0,58,0, 
0.8967,-26.1,-477.3,-123.0,212.1,-41.4,7.5,-297.0,150.3,296.4,-547.8,293.4,183.6,-1243.8,-1393.8,-653.7,132.0,-6.9,-5.7,-323.4,-1989.9,-0.9,-153.6,-555.0,-57.9,0,1614,0,59,0, 
0.9000,-31.8,-480.9,-115.5,216.9,-35.7,7.2,-301.5,147.9,148.2,-549.0,298.2,190.8,-1250.7,-1409.7,-661.5,126.3,-6.9,-6.0,-322.5,-1985.4,-0.9,-147.3,-555.9,-54.3,0,1620,0,60,0, 
0.9033,-29.7,-478.2,-109.2,219.0,-29.7,10.5,-294.9,152.1,0.0,-554.4,294.6,192.6,-1253.4,-1409.4,-662.7,129.6,-7.2,-6.0,-327.0,-1985.7,-0.6,-147.0,-545.4,-49.8,0,1626,0,61,0, 
0.9067,-27.3,-480.9,-121.5,213.0,-36.6,5.7,-300.6,153.9,0.0,-567.3,277.8,167.7,-1257.6,-1406.7,-661.5,122.4,-6.9,-5.7,-351.3,-2009.7,-0.6,-163.5,-558.0,-60.0,0,1632,0,62,0, 
0.9100,-29.1,-480.3,-117.6,214.5,-37.8,6.0,-299.4,151.2,222.3,-557.1,279.3,167.1,-1252.5,-1397.1,-655.8,115.5,-6.6,-5.7,-341.1,-2009.7,-0.9,-157.8,-562.5,-60.9,0,1638,0,63,0, 
0.9133,-26.7,-477.9,-108.3,218.7,-31.5,5.4,-298.5,141.9,296.4,-540.3,313.2,196.8,-1244.4,-1392.9,-643.2,119.4,-6.9,-6.0,-304.2,-1980.0,-0.3,-146.1,-559.5,-54.9,0,1644,0,64,0, 
0.9167,-32.4,-479.7,-101.4,223.2,-21.9,13.2,-295.2,147.9,296.4,-528.9,313.8,203.1,-1241.4,-1409.4,-670.2,114.3,-6.9,-5.7,-300.3,-1977.0,-0.9,-139.8,-555.3,-49.2,0,1650,0,65,0, 
0.9200,-28.5,-483.9,-106.8,222.3,-28.8,8.7,-297.6,146.1,148.2,-539.4,287.7,177.0,-1239.0,-1393.8,-656.1,116.4,-6.9,-5.7,-311.7,-2009.7,-0.6,-148.8,-560.1,-57.6,0,1656,0,66,0, 
0.9233,-32.7,-489.0,-113.4,219.0,-33.9,6.6,-303.6,141.9,148.2,-539.1,282.9,170.4,-1246.2,-1411.2,-660.6,111.6,-6.6,-6.0,-318.6,-2016.3,-0.9,-144.9,-556.8,-60.0,0,1662,0,67,0, 
0.9267,-30.9,-485.7,-112.8,217.5,-36.6,5.7,-297.9,142.5,148.2,-533.7,290.4,170.4,-1244.1,-1393.5,-657.0,110.1,-6.9,-5.4,-314.7,-2013.6,-0.6,-139.8,-553.8,-58.2,0,1668,0,68,0, 
0.9300,-33.9,-500.4,-133.5,198.6,-52.5,-9.9,-306.3,129.3,148.2,-561.3,270.3,152.7,-1256.4,-1390.8,-631.5,108.9,-6.9,-5.7,-339.3,-2031.0,-0.9,-162.6,-567.3,-73.8,0,1674,0,69,0, 
0.9333,-33.6,-496.2,-126.3,204.0,-42.9,-0.3,-305.4,134.4,222.3,-548.4,276.3,163.5,-1254.9,-1399.8,-648.6,110.7,-6.9,-6.0,-329.7,-2021.1,-0.9,-149.4,-563.4,-67.8,0,1680,0,70,0, 
0.9367,-39.6,-492.0,-114.9,210.0,-36.3,6.9,-299.7,141.6,148.2,-537.6,287.1,167.7,-1248.3,-1430.7,-679.8,134.1,-6.9,-5.7,-317.4,-2017.2,-0.6,-146.4,-550.5,-57.6,0,1686,0,71,0, 
0.9400,-31.2,-484.5,-108.9,212.4,-33.9,6.3,-295.2,146.4,74.1,-524.1,298.5,173.4,-1236.9,-1412.4,-676.5,100.2,-7.2,-6.0,-306.3,-2010.0,-0.6,-135.3,-547.5,-54.0,0,1692,0,72,0, 
0.9433,-27.0,-477.6,-99.9,217.8,-24.9,14.7,-297.0,151.8,296.4,-512.7,303.3,179.1,-1229.7,-1404.9,-681.6,88.5,-6.9,-5.7,-302.1,-2004.3,-0.6,-126.0,-543.3,-45.9,0,1698,0,73,0, 
0.9467,-30.6,-486.6,-108.6,208.5,-31.5,7.8,-298.8,145.8,370.5,-524.1,294.3,171.6,-1237.2,-1407.6,-674.7,91.8,-6.9,-6.3,-313.8,-2014.8,-1.2,-130.2,-555.3,-53.4,0,1704,0,74,0, 
0.9500,-26.7,-481.8,-102.3,218.4,-23.7,15.9,-301.5,151.2,148.2,-517.2,301.5,182.7,-1230.0,-1407.3,-669.9,85.8,-7.5,-5.7,-306.3,-2002.5,-0.6,-126.3,-548.1,-44.1,0,1710,0,75,0, 
0.9533,-29.1,-489.3,-108.0,211.8,-29.4,7.5,-304.5,144.0,148.2,-525.3,291.0,174.6,-1237.8,-1416.9,-672.0,89.4,-6.9,-6.0,-314.7,-2013.3,-0.9,-135.6,-552.9,-56.1,0,1716,0,76,0, 
0.9567,-31.8,-495.6,-109.8,210.0,-33.3,3.9,-307.5,142.2,74.1,-534.0,288.9,171.6,-1243.8,-1406.4,-664.8,93.0,-7.2,-5.4,-315.0,-2014.5,-0.3,-141.6,-558.9,-57.6,0,1722,0,77,0, 
0.9600,-32.1,-501.0,-118.5,198.0,-47.1,-5.1,-310.2,136.5,222.3,-549.9,282.3,157.5,-1247.4,-1399.8,-651.6,95.1,-6.9,-6.3,-324.9,-2024.4,-0.3,-155.4,-562.5,-68.4,0,1728,0,78,0, 
0.9633,-30.9,-491.4,-103.5,216.9,-29.7,9.9,-298.8,146.7,222.3,-529.2,301.2,178.8,-1233.3,-1410.9,-673.8,103.2,-6.6,-5.7,-306.6,-2004.9,-0.9,-134.7,-547.5,-50.4,0,1734,0,79,0, 
0.9667,-30.6,-490.2,-107.4,210.9,-30.9,10.5,-296.1,146.1,74.1,-535.5,298.5,177.0,-1238.1,-1421.1,-660.3,111.6,-7.2,-6.3,-312.0,-2010.3,-0.9,-141.9,-543.9,-53.1,0,1740,0,80,0, 
0.9700,-25.8,-487.8,-107.1,210.6,-31.5,12.0,-298.8,151.2,74.1,-534.0,293.1,171.3,-1236.3,-1404.0,-660.6,98.7,-6.9,-6.0,-313.2,-2012.4,-0.6,-138.6,-544.8,-51.9,0,1746,0,81,0, 
0.9733,-25.5,-486.6,-112.2,209.1,-32.4,9.3,-300.3,144.9,74.1,-536.1,291.3,174.0,-1239.9,-1401.6,-656.1,94.2,-7.2,-6.3,-312.0,-2008.2,-0.9,-139.8,-545.4,-54.0,0,1752,0,82,0, 
0.9767,-25.5,-486.9,-114.3,204.3,-37.2,7.5,-293.4,147.6,296.4,-540.3,292.5,172.2,-1237.5,-1399.2,-654.6,97.2,-6.9,-6.0,-316.5,-2013.0,-0.6,-140.7,-546.3,-55.5,0,1758,0,83,0, 
0.9800,-27.9,-486.3,-113.7,205.5,-33.3,10.8,-297.6,147.6,296.4,-538.2,292.8,175.2,-1236.6,-1398.0,-657.3,96.6,-6.9,-5.7,-317.1,-2008.8,-0.9,-139.5,-546.3,-53.4,0,1764,0,84,0, 
0.9833,-29.7,-487.5,-112.2,205.2,-32.4,11.1,-298.2,146.4,370.5,-537.6,293.1,171.6,-1236.3,-1403.1,-660.0,105.0,-6.6,-5.7,-315.3,-2012.1,-0.9,-143.7,-545.4,-54.0,0,1770,0,85,0, 
0.9867,-29.1,-489.9,-111.9,208.5,-33.3,7.8,-295.5,144.0,-74.1,-538.2,294.3,174.0,-1239.6,-1401.3,-662.4,99.0,-6.6,-5.7,-310.8,-2011.5,-0.6,-138.9,-547.2,-55.5,0,1776,0,86,0, 
0.9900,-27.9,-485.1,-106.8,211.5,-29.7,7.8,-292.8,150.6,148.2,-534.6,295.2,179.4,-1232.7,-1391.1,-659.1,96.3,-7.2,-5.7,-308.4,-2006.7,-0.9,-137.4,-543.6,-53.1,0,1782,0,87,0, 
0.9933,-29.7,-485.4,-108.6,216.6,-24.6,7.5,-301.5,147.6,222.3,-539.1,297.9,184.2,-1236.9,-1395.9,-651.3,102.3,-7.2,-6.0,-308.7,-2006.1,-0.6,-135.3,-542.7,-53.1,0,1788,0,88,0, 
0.9967,-30.0,-489.0,-110.1,214.5,-33.6,4.5,-306.6,144.9,222.3,-544.5,292.5,175.5,-1238.7,-1388.1,-644.1,101.7,-7.2,-6.0,-313.5,-2011.2,-0.3,-150.3,-548.7,-59.4,0,1794,0,89,0, 
1.0000,-29.7,-483.3,-99.6,218.1,-30.9,9.3,-305.4,150.0,148.2,-532.8,301.2,178.5,-1229.4,-1391.1,-654.3,108.3,-7.2,-6.0,-306.9,-2008.5,-0.6,-138.6,-543.0,-54.0,0,1800,0,90,0, 
1.0033,-34.2,-486.9,-108.0,214.5,-28.2,9.3,-302.7,145.8,296.4,-532.5,299.4,177.0,-1230.6,-1405.5,-657.0,113.1,-6.6,-6.0,-305.7,-2007.0,-0.9,-138.0,-545.7,-56.1,0,1806,0,91,0, 
1.0067,-31.2,-483.9,-104.7,219.6,-24.3,16.8,-297.6,149.4,148.2,-525.9,305.1,184.8,-1230.6,-1407.0,-667.5,110.1,-7.5,-5.7,-299.4,-1999.2,-0.9,-132.3,-547.2,-50.4,0,1812,0,92,0, 
1.0100,-33.0,-487.8,-109.5,216.3,-28.5,12.3,-301.5,148.5,222.3,-534.3,299.7,178.8,-1236.6,-1400.1,-662.4,111.3,-7.2,-6.0,-307.2,-2006.7,-0.6,-139.2,-546.3,-54.3,0,1818,0,93,0, 
1.0133,-38.4,-491.4,-115.5,211.8,-32.4,6.0,-306.0,145.2,148.2,-535.8,294.0,175.2,-1241.1,-1395.9,-672.9,93.3,-6.9,-5.4,-312.0,-2010.9,-0.6,-142.5,-562.8,-57.6,0,1824,0,94,0, 
1.0167,-36.6,-496.8,-123.9,199.2,-43.5,0.3,-304.2,135.3,222.3,-551.7,276.6,159.3,-1245.3,-1392.3,-649.8,102.9,-7.2,-6.0,-326.7,-2024.1,-0.6,-163.8,-569.4,-68.1,0,1830,0,95,0, 
1.0200,-36.3,-499.8,-126.9,198.0,-40.5,0.6,-304.2,137.1,74.1,-558.3,282.6,161.1,-1251.9,-1404.0,-653.7,108.3,-6.9,-6.0,-326.1,-2020.5,-0.6,-156.0,-567.3,-63.9,0,1836,0,96,0, 
1.0233,-32.4,-493.2,-119.4,201.6,-40.5,4.2,-302.7,141.3,74.1,-551.4,287.1,163.5,-1242.6,-1403.1,-659.1,108.3,-6.6,-5.7,-321.3,-2018.1,-0.6,-153.0,-557.7,-59.7,0,1842,0,97,0, 
1.0267,-29.4,-489.6,-105.3,213.0,-27.3,14.1,-296.7,147.3,222.3,-531.0,289.8,182.1,-1235.1,-1425.0,-682.2,94.5,-6.9,-5.7,-310.8,-2001.3,-0.6,-135.9,-549.0,-49.8,0,1848,0,98,0, 
1.0300,-36.9,-497.4,-117.6,200.7,-38.4,8.1,-304.2,143.7,148.2,-547.2,278.1,170.4,-1243.5,-1431.6,-675.0,108.6,-6.6,-5.4,-321.9,-2011.8,-0.6,-142.5,-553.8,-57.3,0,1854,0,99,0, 
1.0333,-28.5,-492.3,-112.2,204.6,-38.4,7.5,-302.4,142.5,222.3,-543.9,291.0,174.0,-1244.7,-1419.9,-671.1,97.8,-7.2,-5.7,-314.1,-2006.1,-0.6,-144.3,-558.6,-54.3,0,1860,0,100,0, 
1.0367,-29.4,-488.7,-114.3,205.5,-40.5,4.8,-308.7,143.7,74.1,-542.7,286.5,174.3,-1238.1,-1413.6,-658.8,106.2,-6.9,-5.7,-313.2,-2007.6,-0.6,-146.1,-563.1,-59.7,0,1866,0,101,0, 
1.0400,-26.1,-496.8,-128.1,192.0,-55.2,-6.0,-311.4,133.8,0.0,-564.9,269.7,155.7,-1241.7,-1390.8,-614.4,105.0,-6.9,-6.3,-327.9,-2028.6,-0.6,-166.8,-578.7,-73.5,0,1872,0,102,0, 
1.0433,-31.2,-490.2,-112.5,206.7,-39.3,10.8,-305.7,146.4,148.2,-540.3,292.8,173.7,-1236.9,-1411.2,-675.0,109.5,-6.9,-5.7,-311.4,-2011.8,-0.9,-147.9,-559.5,-56.7,0,1878,0,103,0, 
1.0467,-31.8,-483.0,-98.7,220.5,-21.3,23.4,-292.5,153.0,222.3,-520.2,314.1,192.9,-1236.3,-1435.8,-711.0,126.3,-6.6,-5.7,-291.0,-1984.8,-0.9,-123.6,-546.0,-39.9,0,1884,0,104,0, 
1.0500,-32.4,-490.2,-109.5,207.6,-32.1,13.5,-308.1,144.9,222.3,-534.6,302.4,181.5,-1243.2,-1414.5,-682.8,102.0,-7.2,-6.0,-301.2,-2002.8,-0.6,-140.4,-559.8,-50.7,0,1890,0,105,0, 
1.0533,-27.0,-487.5,-109.8,208.8,-33.6,14.4,-299.1,147.0,74.1,-531.6,297.9,179.1,-1242.0,-1411.5,-675.9,105.6,-6.9,-5.7,-303.9,-2002.5,-0.6,-137.7,-549.0,-46.2,0,1896,0,106,0, 
1.0567,-23.4,-483.3,-111.3,205.8,-36.6,13.8,-299.4,147.0,148.2,-534.0,297.6,175.5,-1239.0,-1408.2,-665.7,108.6,-7.2,-6.0,-306.3,-2003.1,-0.3,-137.1,-552.9,-48.9,0,1902,0,107,0, 
1.0600,-23.7,-487.5,-116.4,202.8,-42.6,9.0,-299.1,145.8,370.5,-537.6,285.0,172.2,-1242.3,-1401.0,-661.8,108.0,-7.2,-6.0,-315.9,-2007.3,-0.6,-146.4,-553.5,-54.6,0,1908,0,108,0, 
1.0633,-24.0,-486.3,-118.2,199.8,-45.3,8.7,-298.8,146.4,296.4,-540.0,289.8,174.6,-1240.5,-1398.6,-653.7,110.4,-6.6,-5.7,-312.9,-2010.0,-0.9,-143.7,-550.8,-55.2,0,1914,0,109,0, 
1.0667,-23.7,-483.9,-115.5,199.5,-44.4,11.1,-296.4,150.3,148.2,-537.6,290.1,176.7,-1234.8,-1387.5,-653.4,119.1,-7.2,-6.0,-308.1,-2003.4,-1.2,-140.7,-545.7,-52.8,0,1920,0,110,0, 
1.0700,-23.7,-482.7,-116.7,202.2,-40.8,13.8,-293.1,152.1,74.1,-534.0,289.5,181.5,-1235.7,-1399.5,-660.9,121.8,-6.9,-6.3,-309.6,-1999.5,-0.3,-133.2,-543.9,-46.8,0,1926,0,111,0, 
1.0733,-21.9,-483.0,-115.5,198.6,-42.0,12.6,-294.6,154.8,148.2,-540.9,283.8,178.2,-1232.7,-1391.4,-656.7,134.1,-6.9,-5.4,-310.2,-1999.8,-0.9,-139.8,-538.2,-47.4,0,1932,0,112,0, 
1.0767,-23.7,-483.3,-116.1,200.7,-42.3,9.6,-297.6,147.6,222.3,-534.0,288.6,177.3,-1236.6,-1393.5,-660.6,122.4,-6.9,-6.0,-307.5,-1999.8,-0.6,-138.9,-545.1,-48.9,0,1938,0,113,0, 
1.0800,-21.6,-482.1,-116.4,196.5,-41.1,12.3,-301.2,148.2,296.4,-537.9,288.0,175.8,-1234.2,-1381.2,-654.3,120.0,-6.6,-6.0,-309.3,-2005.8,-0.6,-137.1,-552.3,-48.6,0,1944,0,114,0, 
1.0833,-18.9,-477.3,-112.2,204.9,-35.1,13.5,-297.6,154.2,148.2,-531.6,293.7,184.5,-1228.8,-1389.3,-651.3,127.2,-6.9,-5.4,-303.0,-1998.9,-0.9,-133.5,-550.2,-47.1,0,1950,0,115,0, 
1.0867,-17.7,-477.9,-112.2,198.6,-39.6,9.6,-293.7,151.8,0.0,-534.0,293.7,172.8,-1231.5,-1378.8,-641.1,116.7,-7.2,-5.7,-303.0,-2005.8,-0.6,-138.3,-556.5,-50.7,0,1956,0,116,0, 
1.0900,-21.0,-477.3,-107.7,205.8,-32.4,16.2,-294.3,157.2,148.2,-526.8,298.5,182.7,-1236.3,-1395.9,-669.3,119.4,-6.6,-5.7,-302.7,-1995.9,-0.9,-131.4,-536.4,-39.9,0,1962,0,117,0, 
1.0933,-26.1,-483.3,-120.3,197.4,-42.6,8.4,-297.9,145.8,148.2,-540.6,284.7,169.2,-1242.0,-1404.6,-668.7,124.2,-7.2,-6.0,-316.2,-2007.9,-0.3,-143.4,-546.9,-50.4,0,1968,0,118,0, 
1.0967,-30.6,-487.8,-122.7,196.8,-45.0,3.6,-295.5,141.6,222.3,-547.8,285.0,164.1,-1247.4,-1406.7,-660.6,125.7,-6.9,-6.0,-312.3,-2016.6,-0.9,-150.0,-551.7,-53.4,0,1974,0,119,0, 
1.1000,-31.2,-486.9,-126.6,197.4,-44.1,7.8,-295.2,144.3,148.2,-545.1,290.1,170.4,-1251.9,-1406.7,-659.1,129.9,-6.3,-6.0,-314.4,-2010.3,-0.3,-150.0,-545.1,-52.5,0,1980,0,120,0, 
1.1033,-28.2,-483.3,-119.1,201.0,-45.0,10.8,-293.4,147.6,222.3,-546.3,285.9,167.4,-1248.3,-1405.2,-664.2,127.2,-7.2,-6.0,-318.0,-2010.9,-0.9,-152.4,-548.4,-50.7,0,1986,0,121,0, 
1.1067,-30.0,-478.8,-120.6,199.2,-48.9,10.5,-288.0,151.8,74.1,-544.2,279.3,159.3,-1245.0,-1399.8,-653.1,131.4,-6.9,-6.0,-322.5,-2019.0,-0.3,-145.8,-541.5,-50.4,0,1992,0,122,0, 
1.1100,-24.6,-475.5,-115.8,202.5,-45.0,12.3,-291.0,150.3,222.3,-538.5,291.3,170.1,-1238.7,-1388.4,-650.7,126.6,-7.2,-5.4,-308.7,-2007.3,-1.2,-136.8,-535.5,-44.7,0,1998,0,123,0, 
1.1133,-24.0,-476.4,-117.0,200.1,-45.6,9.6,-290.4,148.8,296.4,-537.3,296.7,180.9,-1236.0,-1382.4,-642.6,132.3,-6.6,-5.7,-304.5,-2001.0,0.0,-149.1,-540.6,-50.1,0,2004,0,124,0, 
1.1167,-24.0,-479.4,-119.1,204.3,-45.3,7.2,-289.2,141.3,296.4,-543.6,286.5,177.6,-1241.4,-1384.8,-642.3,128.1,-7.2,-5.7,-310.8,-2004.6,-1.5,-148.8,-542.1,-51.0,0,2010,0,125,0, 
1.1200,-25.5,-478.2,-118.2,206.7,-44.7,8.1,-289.8,143.1,0.0,-537.0,297.3,183.0,-1239.0,-1398.6,-653.1,129.3,-6.9,-6.3,-303.9,-1995.3,-0.6,-141.9,-543.6,-47.1,0,2016,0,126,0, 
1.1233,-20.7,-466.8,-100.2,216.3,-30.3,19.8,-282.9,157.5,74.1,-525.9,310.2,190.5,-1227.3,-1388.1,-658.2,133.2,-6.9,-6.0,-294.3,-1984.5,-0.9,-128.7,-530.1,-38.4,0,2022,0,127,0, 
1.1267,-26.7,-471.3,-110.1,212.4,-34.8,15.0,-286.5,150.3,148.2,-529.2,301.8,185.1,-1233.9,-1392.9,-651.3,137.7,-6.6,-6.0,-301.8,-1993.2,-0.9,-137.1,-537.3,-40.8,0,2028,0,128,0, 
1.1300,-26.4,-474.6,-110.4,215.4,-33.3,14.4,-289.8,150.3,370.5,-525.6,305.1,190.8,-1230.6,-1391.1,-654.9,139.2,-6.9,-5.4,-296.1,-1992.0,-0.9,-129.6,-531.6,-39.3,0,2034,0,129,0, 
1.1333,-22.2,-473.1,-109.5,218.7,-28.8,17.4,-285.6,145.2,148.2,-526.2,303.3,188.4,-1229.7,-1386.9,-644.7,138.6,-6.9,-6.0,-297.3,-1987.5,-0.9,-125.1,-529.5,-38.7,0,2040,0,130,0, 
1.1367,-19.8,-476.4,-114.0,212.7,-37.8,7.8,-293.4,141.6,148.2,-534.6,297.6,179.4,-1229.7,-1376.1,-622.8,129.9,-6.9,-6.3,-303.3,-1996.8,-0.9,-135.6,-539.4,-46.2,0,2046,0,131,0, 
1.1400,-18.0,-471.0,-102.9,216.6,-31.8,14.7,-291.0,148.8,148.2,-524.4,305.4,190.2,-1224.9,-1381.2,-647.7,133.5,-6.6,-6.0,-292.8,-1989.3,-0.6,-122.4,-530.7,-38.4,0,2052,0,132,0, 
1.1433,-14.1,-467.7,-103.5,219.0,-28.5,17.1,-291.3,153.3,296.4,-523.5,305.4,188.7,-1221.6,-1381.8,-640.2,136.8,-6.9,-6.0,-291.3,-1985.1,-0.9,-121.5,-527.7,-37.5,0,2058,0,133,0, 
1.1467,-18.0,-467.4,-98.4,225.0,-23.7,17.7,-296.1,152.1,296.4,-516.6,313.2,195.6,-1221.0,-1373.4,-646.8,132.9,-6.9,-6.0,-282.9,-1978.8,-0.6,-114.3,-528.3,-33.0,0,2064,0,134,0, 
1.1500,-20.7,-468.0,-102.6,225.0,-24.9,17.4,-294.3,156.0,296.4,-516.6,312.9,198.9,-1221.6,-1384.5,-664.5,133.8,-7.2,-5.7,-286.5,-1979.7,-0.6,-117.3,-529.8,-32.7,0,2070,0,135,0, 
1.1533,-18.6,-468.0,-100.5,225.6,-23.1,20.1,-295.5,159.0,0.0,-511.5,321.9,199.8,-1223.4,-1397.4,-666.9,131.1,-6.9,-5.7,-285.3,-1980.9,-0.6,-118.8,-531.6,-32.7,0,2076,0,136,0, 
1.1567,-21.0,-474.6,-110.7,212.1,-33.0,8.4,-300.6,150.3,74.1,-531.9,297.0,186.3,-1226.7,-1380.0,-641.7,132.9,-7.2,-6.0,-304.2,-1990.2,-0.3,-134.4,-542.1,-46.8,0,2082,0,137,0, 
1.1600,-25.5,-482.1,-118.8,203.4,-43.2,1.5,-303.0,142.8,74.1,-539.7,290.1,174.3,-1235.1,-1394.1,-650.4,133.2,-6.9,-5.7,-312.0,-1997.7,-0.6,-141.3,-549.3,-52.5,0,2088,0,138,0, 
1.1633,-21.6,-473.7,-109.2,214.5,-32.7,14.7,-294.6,155.1,444.6,-525.9,309.3,189.0,-1227.9,-1404.9,-667.8,128.4,-6.9,-5.7,-297.6,-1983.0,-0.6,-120.6,-536.4,-37.5,0,2094,0,139,0, 
1.1667,-18.6,-474.9,-111.0,214.2,-34.2,14.4,-291.6,152.7,148.2,-525.3,305.1,189.3,-1226.1,-1395.9,-658.8,134.7,-6.9,-5.4,-301.2,-1989.0,-0.6,-128.1,-537.0,-39.0,0,2100,0,140,0, 
1.1700,-19.2,-477.3,-114.9,205.8,-44.1,8.4,-303.3,155.4,74.1,-534.3,292.2,178.5,-1229.1,-1389.6,-649.5,122.1,-6.6,-5.7,-304.8,-1995.9,-1.2,-135.9,-544.2,-46.8,0,2106,0,141,0, 
1.1733,-16.5,-480.3,-119.1,202.5,-50.4,3.3,-310.2,145.2,0.0,-544.2,284.4,170.4,-1230.0,-1380.6,-628.8,123.6,-6.9,-6.0,-311.1,-2005.5,-0.9,-144.6,-553.5,-56.1,0,2112,0,142,0, 
1.1767,-21.9,-483.6,-116.7,200.7,-49.8,1.5,-309.0,141.0,222.3,-538.8,294.9,174.0,-1233.0,-1399.2,-648.0,133.8,-6.6,-5.7,-305.4,-2000.7,-1.2,-142.2,-547.5,-52.8,0,2118,0,143,0, 
1.1800,-17.1,-475.2,-105.9,206.1,-36.9,12.6,-288.6,150.9,222.3,-525.3,309.0,185.7,-1225.5,-1393.5,-659.4,153.9,-6.9,-5.7,-291.9,-1987.8,-0.6,-127.2,-536.4,-41.4,0,2124,0,144,0, 
1.1833,-20.4,-473.7,-105.0,209.4,-39.0,12.6,-297.0,153.3,222.3,-519.6,316.5,186.3,-1224.9,-1385.1,-658.2,111.9,-7.2,-5.7,-291.0,-1992.0,-0.6,-127.5,-544.8,-42.3,0,2130,0,145,0, 
1.1867,-21.0,-476.1,-114.9,204.6,-43.8,8.7,-300.6,150.3,148.2,-525.9,306.0,182.1,-1228.8,-1387.8,-654.3,108.9,-6.9,-6.0,-295.8,-1997.1,-0.6,-136.5,-546.9,-47.4,0,2136,0,146,0, 
1.1900,-21.3,-476.1,-110.7,207.3,-41.1,10.8,-300.9,147.6,74.1,-524.1,308.4,185.7,-1229.7,-1390.2,-666.9,115.8,-6.9,-5.7,-294.0,-1994.7,-0.9,-129.6,-546.9,-43.8,0,2142,0,147,0, 
1.1933,-24.9,-485.4,-118.8,198.6,-48.6,1.2,-309.0,138.9,148.2,-537.3,291.0,168.9,-1237.5,-1390.8,-648.6,118.5,-6.9,-6.0,-307.5,-2009.1,-0.9,-141.9,-548.4,-56.1,0,2148,0,148,0, 
1.1967,-11.7,-473.4,-108.6,213.0,-33.3,14.7,-300.6,153.0,296.4,-518.7,301.8,182.7,-1226.1,-1383.0,-655.8,123.0,-6.6,-6.0,-294.3,-1992.6,-0.6,-128.4,-536.7,-40.8,0,2154,0,149,0, 
1.2000,-15.6,-474.3,-115.2,210.0,-32.7,10.8,-299.1,153.6,370.5,-525.6,301.5,185.1,-1232.4,-1393.2,-652.2,124.5,-6.9,-5.7,-295.5,-1992.9,-0.6,-131.1,-537.0,-44.4,0,2160,0,150,0, 
1.2033,-17.7,-474.9,-112.5,210.6,-27.3,12.9,-306.3,156.0,148.2,-528.0,305.7,189.3,-1230.0,-1393.8,-660.3,119.1,-7.2,-6.0,-295.2,-1985.7,-0.6,-128.7,-537.6,-42.9,0,2166,0,151,0, 
1.2067,-15.0,-476.1,-116.1,207.9,-31.5,5.7,-306.6,156.9,74.1,-526.8,305.4,187.2,-1229.4,-1386.6,-654.6,120.0,-6.9,-5.4,-294.3,-1995.9,-0.6,-133.5,-549.9,-53.7,0,2172,0,152,0, 
1.2100,-13.5,-480.3,-118.5,204.6,-36.0,2.4,-311.4,153.3,148.2,-534.6,305.4,180.6,-1234.2,-1375.5,-644.7,114.0,-6.3,-5.7,-297.9,-2001.0,-0.6,-142.8,-551.7,-57.3,0,2178,0,153,0, 
1.2133,-16.2,-481.5,-121.2,204.0,-36.6,-0.6,-309.3,147.0,222.3,-530.4,299.4,182.1,-1233.6,-1383.9,-648.0,113.7,-6.9,-5.7,-299.7,-1999.2,-0.9,-144.6,-557.4,-56.4,0,2184,0,154,0, 
1.2167,-21.0,-484.8,-121.2,206.7,-39.0,3.9,-309.6,147.0,222.3,-534.6,296.1,180.9,-1236.9,-1394.1,-664.2,117.6,-6.9,-5.7,-304.8,-1998.6,-0.9,-143.4,-553.8,-53.7,0,2190,0,155,0, 
1.2200,-15.6,-483.3,-124.5,202.2,-43.2,5.7,-309.9,153.0,74.1,-538.5,295.8,171.9,-1241.1,-1392.6,-648.3,121.5,-6.9,-5.4,-306.6,-2002.2,-0.9,-144.9,-553.5,-56.1,0,2196,0,156,0, 
1.2233,-18.9,-481.8,-118.5,207.0,-39.9,5.4,-312.6,155.4,74.1,-538.2,303.3,175.8,-1240.8,-1402.5,-660.6,117.6,-6.9,-5.7,-303.0,-2000.1,-0.6,-141.0,-550.2,-52.2,0,2202,0,157,0, 
1.2267,-16.8,-486.6,-123.3,196.8,-45.9,5.7,-304.2,150.6,296.4,-543.0,288.3,166.5,-1241.4,-1386.9,-649.2,118.8,-6.9,-5.4,-311.7,-2010.0,-0.9,-149.7,-541.8,-54.3,0,2208,0,158,0, 
1.2300,-20.4,-488.4,-123.9,199.8,-44.1,3.0,-308.1,147.6,296.4,-550.2,283.5,163.5,-1246.2,-1391.7,-649.8,128.1,-6.6,-5.7,-316.8,-2011.5,-1.2,-149.7,-548.7,-53.4,0,2214,0,159,0, 
1.2333,-18.6,-481.5,-112.8,208.5,-33.6,12.9,-301.2,155.7,148.2,-536.4,292.2,177.3,-1237.8,-1395.6,-645.3,126.0,-6.6,-5.7,-301.5,-1999.2,-0.6,-139.8,-543.3,-44.4,0,2220,0,160,0, 
1.2367,-15.9,-482.7,-118.5,203.1,-35.1,3.6,-307.2,150.3,74.1,-544.2,293.4,166.8,-1240.5,-1393.5,-640.2,125.4,-6.9,-6.0,-309.0,-2007.6,-0.6,-154.2,-552.3,-50.7,0,2226,0,161,0, 
1.2400,-15.9,-488.7,-123.6,199.8,-40.5,1.8,-309.3,150.0,0.0,-553.8,286.5,163.8,-1245.3,-1387.8,-647.7,126.0,-6.9,-6.3,-317.4,-2013.9,-0.6,-154.5,-552.6,-52.2,0,2232,0,162,0, 
1.2433,-21.6,-484.2,-116.7,207.6,-33.6,11.1,-309.0,153.3,296.4,-538.5,294.0,174.6,-1241.7,-1397.4,-677.4,121.8,-6.9,-6.0,-305.1,-2001.6,-0.6,-138.0,-545.1,-45.0,0,2238,0,163,0, 
1.2467,-19.5,-481.8,-111.3,212.4,-29.1,15.6,-300.6,155.7,222.3,-536.1,295.2,180.6,-1237.5,-1389.6,-666.0,124.5,-7.2,-5.4,-298.2,-1994.7,-0.6,-135.9,-541.8,-41.1,0,2244,0,164,0, 
1.2500,-17.4,-483.3,-116.4,205.5,-33.6,11.1,-306.0,152.4,148.2,-539.1,292.2,172.2,-1236.3,-1400.4,-661.2,124.5,-6.6,-5.7,-303.9,-2003.1,-0.6,-141.6,-544.2,-46.2,0,2250,0,165,0, 
1.2533,-26.7,-486.9,-118.2,207.3,-30.3,9.6,-307.2,147.3,148.2,-540.0,283.5,177.6,-1238.7,-1408.2,-669.6,123.3,-6.9,-6.0,-305.4,-1997.4,-0.3,-144.9,-548.4,-47.1,0,2256,0,166,0, 
1.2567,-16.8,-480.9,-114.0,210.6,-30.0,9.6,-301.5,151.2,148.2,-544.5,287.4,175.8,-1239.3,-1392.0,-654.9,127.2,-6.9,-5.4,-307.5,-1999.2,-0.3,-147.3,-544.8,-49.2,0,2262,0,167,0, 
1.2600,-15.9,-474.6,-105.6,222.3,-19.8,18.9,-293.4,159.9,296.4,-528.9,304.8,180.6,-1231.8,-1390.8,-680.1,118.5,-6.9,-5.4,-294.3,-1991.1,-0.9,-134.7,-534.9,-39.9,0,2268,0,168,0, 
1.2633,-22.8,-484.5,-117.0,210.9,-29.4,11.4,-299.4,150.3,222.3,-541.5,295.2,171.9,-1241.4,-1401.6,-668.4,124.5,-6.9,-5.7,-307.8,-2000.7,-0.3,-147.0,-542.7,-49.5,0,2274,0,169,0, 
1.2667,-24.9,-478.2,-108.0,219.6,-20.4,19.2,-301.5,153.0,222.3,-531.0,310.5,182.4,-1239.6,-1407.0,-681.3,120.6,-6.9,-5.7,-294.0,-1993.8,-0.9,-143.1,-541.2,-41.4,0,2280,0,170,0, 
1.2700,-21.3,-481.5,-113.4,214.2,-25.2,14.7,-302.4,152.1,74.1,-544.2,290.4,172.8,-1241.7,-1405.2,-672.0,132.0,-6.9,-5.7,-309.6,-2001.3,-0.3,-150.6,-546.6,-46.2,0,2286,0,171,0, 
1.2733,-15.3,-474.0,-111.0,216.3,-26.1,13.8,-302.7,159.6,148.2,-542.4,291.9,177.0,-1238.4,-1396.5,-662.4,132.6,-6.9,-6.0,-307.2,-1996.5,-0.6,-149.4,-549.0,-45.3,0,2292,0,172,0, 
1.2767,-13.2,-470.4,-106.5,219.6,-20.7,18.9,-295.5,162.6,222.3,-536.1,303.3,179.1,-1237.5,-1387.2,-658.8,123.9,-6.9,-5.7,-294.6,-1989.3,-0.6,-140.7,-544.2,-38.1,0,2298,0,173,0, 
1.2800,-12.9,-468.3,-104.7,224.4,-18.0,19.5,-302.1,160.2,222.3,-535.8,303.3,182.1,-1233.3,-1386.0,-662.1,118.5,-7.2,-6.0,-294.6,-1987.5,-0.6,-138.0,-547.8,-38.4,0,2304,0,174,0, 
1.2833,-11.1,-471.0,-104.4,223.8,-15.9,17.7,-300.6,159.9,148.2,-534.3,302.4,184.8,-1233.6,-1379.1,-662.7,125.1,-7.5,-6.0,-295.2,-1989.3,-0.6,-135.6,-548.4,-39.6,0,2310,0,175,0, 
1.2867,-12.6,-469.2,-106.2,225.3,-18.9,14.7,-300.3,154.2,-74.1,-538.2,305.7,185.4,-1232.7,-1379.4,-658.5,127.2,-6.9,-5.7,-292.5,-1989.6,-0.9,-138.9,-549.0,-40.8,0,2316,0,176,0, 
1.2900,-13.2,-467.1,-97.8,227.4,-18.3,22.5,-301.5,154.8,74.1,-527.4,308.4,189.3,-1230.9,-1387.2,-664.8,125.7,-6.9,-5.7,-288.9,-1982.1,-0.9,-128.7,-548.1,-33.6,0,2322,0,177,0, 
1.2933,-11.4,-471.0,-107.4,222.0,-20.7,16.2,-304.8,153.6,222.3,-530.1,296.7,187.8,-1229.7,-1378.2,-655.8,123.3,-7.2,-5.7,-294.9,-1982.1,-0.6,-129.9,-546.6,-36.3,0,2328,0,178,0, 
1.2967,-15.9,-474.0,-113.7,213.6,-31.2,9.6,-307.2,151.2,222.3,-538.5,294.0,180.0,-1233.0,-1381.8,-655.5,121.5,-7.2,-5.7,-304.8,-1991.1,-0.9,-141.3,-555.3,-45.3,0,2334,0,179,0, 
1.3000,-19.5,-477.3,-123.3,206.1,-35.7,6.6,-312.6,146.1,222.3,-543.9,294.6,171.9,-1241.1,-1386.0,-660.3,119.1,-6.9,-5.7,-305.7,-2000.1,-0.6,-150.9,-555.9,-52.8,0,2340,0,180,0, 
1.3033,-19.8,-470.7,-116.1,205.8,-33.9,14.4,-306.3,158.4,148.2,-531.9,292.2,175.8,-1241.4,-1399.2,-672.3,123.6,-6.9,-5.7,-301.2,-1992.9,-0.6,-135.9,-556.8,-43.5,0,2346,0,181,0, 
1.3067,-23.1,-478.8,-122.7,200.4,-41.7,11.1,-307.5,147.9,222.3,-537.0,285.6,170.4,-1246.5,-1398.0,-666.6,118.5,-6.6,-5.4,-310.2,-1999.8,-0.3,-142.2,-564.0,-50.7,0,2352,0,182,0, 
1.3100,-22.8,-479.1,-124.5,193.8,-45.6,8.4,-309.0,144.6,222.3,-546.0,282.0,169.8,-1251.3,-1397.7,-654.6,124.8,-6.6,-5.7,-311.1,-1998.9,-1.2,-146.1,-565.2,-54.9,0,2358,0,183,0, 
1.3133,-24.3,-486.0,-133.8,182.7,-57.0,-6.0,-317.4,137.7,222.3,-560.1,266.7,153.3,-1258.8,-1389.0,-638.7,119.7,-6.6,-6.0,-326.1,-2017.8,0.0,-168.3,-575.1,-69.0,0,2364,0,184,0, 
1.3167,-21.3,-476.4,-121.5,197.4,-41.4,8.4,-309.0,148.2,74.1,-543.6,285.9,165.6,-1248.6,-1391.4,-669.6,125.7,-6.9,-5.7,-311.1,-2002.2,-1.2,-150.3,-558.3,-51.6,0,2370,0,185,0, 
1.3200,-26.1,-478.2,-122.1,203.4,-34.8,8.7,-310.8,149.1,148.2,-542.1,294.9,168.6,-1248.0,-1407.6,-680.1,126.0,-7.2,-6.0,-309.3,-2005.5,0.0,-150.0,-565.8,-53.1,0,2376,0,186,0, 
1.3233,-22.2,-474.9,-117.9,210.9,-30.0,13.5,-307.2,149.4,148.2,-539.7,293.4,176.4,-1241.7,-1392.0,-665.4,108.9,-6.9,-5.7,-306.3,-1993.2,-0.9,-142.2,-564.0,-52.2,0,2382,0,187,0, 
1.3267,-17.1,-469.5,-118.8,210.0,-32.7,11.1,-308.1,150.9,222.3,-536.7,297.3,178.5,-1235.1,-1375.8,-661.8,110.7,-6.6,-5.7,-302.4,-1992.3,-0.3,-143.4,-559.5,-54.0,0,2388,0,188,0, 
1.3300,-21.3,-475.2,-125.1,205.2,-32.7,7.5,-314.7,140.4,222.3,-549.3,286.8,173.7,-1236.9,-1381.8,-654.9,113.1,-7.2,-5.4,-310.2,-1999.8,-0.3,-150.6,-557.1,-56.7,0,2394,0,189,0, 
1.3333,-20.4,-482.1,-133.8,202.2,-41.4,-0.3,-323.1,138.6,74.1,-557.4,279.3,161.1,-1242.0,-1379.7,-642.6,120.6,-7.2,-6.0,-319.8,-2012.7,-0.3,-162.9,-562.5,-64.5,0,2400,0,190,0, 
1.3367,-16.2,-472.2,-121.8,208.8,-32.7,7.5,-312.6,143.4,148.2,-547.2,289.8,171.9,-1236.3,-1391.1,-649.5,132.3,-6.6,-5.7,-306.3,-1998.9,-0.9,-151.5,-554.4,-52.8,0,2406,0,191,0, 
1.3400,-28.8,-483.3,-130.2,200.1,-44.4,-4.2,-318.3,136.5,0.0,-547.2,288.0,166.2,-1246.2,-1403.7,-672.0,126.6,-7.2,-6.0,-309.3,-2008.2,-0.6,-158.4,-562.5,-63.0,0,2412,0,192,0, 
1.3433,-30.3,-477.9,-122.1,203.7,-36.6,7.2,-308.4,141.0,148.2,-534.6,290.4,170.1,-1243.2,-1416.6,-687.9,133.8,-6.9,-5.7,-300.9,-2004.3,-0.9,-147.0,-547.5,-55.5,0,2418,0,193,0, 
1.3467,-22.2,-467.1,-111.6,209.4,-29.1,10.8,-309.9,145.8,222.3,-525.0,299.7,177.6,-1233.6,-1399.2,-683.4,111.3,-7.2,-6.0,-294.6,-1994.4,-0.6,-140.7,-554.1,-46.5,0,2424,0,194,0, 
1.3500,-23.4,-469.8,-120.6,204.0,-34.8,9.9,-311.7,147.9,74.1,-531.3,304.8,176.4,-1233.9,-1398.9,-667.8,119.1,-6.9,-5.4,-300.0,-1994.7,-0.9,-142.2,-549.6,-48.9,0,2430,0,195,0, 
1.3533,-15.0,-468.0,-117.6,204.3,-38.4,8.1,-316.8,146.7,0.0,-535.2,296.4,171.3,-1234.5,-1386.6,-650.4,117.0,-7.2,-5.7,-300.0,-2003.7,-0.9,-151.2,-554.1,-53.7,0,2436,0,196,0, 
1.3567,-21.3,-468.9,-117.0,203.1,-37.5,7.8,-309.3,146.1,148.2,-535.5,283.5,166.5,-1232.1,-1383.0,-668.4,121.8,-6.6,-5.4,-306.6,-2002.5,-0.6,-148.8,-554.4,-53.4,0,2442,0,197,0, 
1.3600,-16.8,-466.5,-117.3,214.2,-27.0,15.6,-302.4,152.1,222.3,-529.2,292.8,177.6,-1232.4,-1392.6,-666.9,135.9,-6.9,-6.3,-297.3,-1991.7,-0.9,-138.0,-544.5,-43.2,0,2448,0,198,0, 
1.3633,-21.6,-474.3,-121.2,207.9,-32.7,12.6,-304.8,147.6,222.3,-540.0,292.2,172.8,-1239.0,-1394.1,-665.1,136.5,-6.9,-5.7,-304.5,-1995.3,-0.6,-150.6,-543.3,-47.7,0,2454,0,199,0, 
1.3667,-21.0,-475.2,-125.1,207.6,-31.2,8.1,-315.0,143.1,0.0,-542.7,288.3,170.1,-1237.5,-1383.0,-658.8,125.7,-7.2,-6.0,-306.9,-1996.5,-0.6,-150.0,-555.0,-53.4,0,2460,0,200,0, 
1.3700,-25.5,-476.1,-126.9,201.0,-37.8,2.1,-309.9,141.6,74.1,-546.9,282.0,169.8,-1240.8,-1392.6,-661.2,123.0,-7.2,-5.4,-313.8,-1996.8,-0.3,-154.8,-558.0,-58.2,0,2466,0,201,0, 
1.3733,-25.2,-477.0,-125.4,197.7,-38.1,-0.6,-310.5,137.1,148.2,-552.0,275.4,163.2,-1242.9,-1391.4,-661.2,132.6,-6.9,-5.7,-316.8,-2002.8,-0.9,-160.5,-554.4,-59.7,0,2472,0,202,0, 
1.3767,-27.0,-478.8,-122.4,200.7,-37.5,1.2,-313.5,136.5,222.3,-542.7,288.9,165.3,-1243.8,-1386.9,-669.0,126.6,-6.9,-5.4,-309.3,-1996.2,-1.2,-150.0,-555.0,-55.8,0,2478,0,203,0, 
1.3800,-26.1,-476.1,-121.2,200.7,-42.6,0.0,-317.7,135.6,222.3,-546.9,287.1,165.3,-1243.2,-1382.4,-654.6,123.6,-6.6,-6.3,-312.6,-2003.1,-1.2,-157.5,-555.0,-57.0,0,2484,0,204,0, 
1.3833,-18.9,-472.2,-114.3,207.9,-37.8,3.6,-312.9,147.6,222.3,-544.8,288.0,169.8,-1235.1,-1373.7,-648.9,131.4,-6.6,-6.3,-308.4,-2001.0,-0.9,-157.8,-552.3,-54.0,0,2490,0,205,0, 
1.3867,-18.6,-471.6,-114.6,208.8,-34.5,8.4,-306.9,146.7,148.2,-545.4,286.2,169.8,-1236.0,-1381.2,-654.0,132.3,-6.6,-5.7,-305.7,-1995.6,-0.3,-150.0,-551.1,-49.5,0,2496,0,206,0, 
1.3900,-16.5,-466.8,-111.3,215.4,-28.8,10.8,-303.6,149.7,148.2,-534.0,291.0,178.8,-1228.5,-1380.0,-662.4,133.5,-6.9,-6.0,-296.1,-1985.7,-0.6,-142.2,-549.3,-45.9,0,2502,0,207,0, 
1.3933,-17.1,-466.2,-110.1,216.0,-30.6,10.8,-308.4,155.4,74.1,-532.8,297.3,178.2,-1227.6,-1384.8,-669.6,131.7,-6.9,-6.0,-297.6,-1986.3,-0.6,-144.0,-550.8,-46.8,0,2508,0,208,0, 
1.3967,-20.1,-467.7,-110.4,215.4,-32.7,6.9,-310.5,150.6,296.4,-537.9,294.0,175.8,-1230.6,-1381.2,-659.7,136.8,-6.9,-5.7,-301.5,-1986.3,-0.9,-144.3,-549.0,-44.7,0,2514,0,209,0, 
1.4000,-15.3,-470.7,-116.4,210.6,-35.1,6.0,-312.0,150.6,148.2,-541.8,292.2,176.7,-1230.3,-1380.3,-654.9,139.2,-7.2,-6.0,-305.4,-1990.8,-0.9,-149.1,-554.7,-50.7,0,2520,0,210,0, 
1.4033,-10.8,-468.3,-115.5,208.5,-37.2,3.3,-310.2,150.6,148.2,-540.6,285.9,168.0,-1224.6,-1367.4,-637.8,133.8,-6.9,-6.0,-306.3,-1996.2,-0.6,-152.4,-557.4,-51.6,0,2526,0,211,0, 
1.4067,-4.8,-455.7,-99.0,225.3,-21.6,18.3,-302.1,159.9,74.1,-518.1,313.2,189.0,-1215.3,-1378.5,-663.9,133.5,-6.6,-5.7,-285.6,-1975.5,-0.9,-131.1,-542.1,-36.9,0,2532,0,212,0, 
1.4100,-10.2,-462.3,-103.2,221.7,-27.6,12.6,-300.9,160.5,296.4,-527.4,308.1,188.4,-1222.2,-1377.9,-667.2,136.5,-6.9,-6.3,-290.4,-1976.1,-0.9,-137.7,-544.2,-40.5,0,2538,0,213,0, 
1.4133,-9.0,-468.9,-115.5,210.3,-40.5,6.0,-302.4,153.9,148.2,-547.8,299.7,180.9,-1229.1,-1368.0,-640.2,144.3,-6.6,-5.4,-300.3,-1986.6,-0.3,-145.8,-546.6,-48.0,0,2544,0,214,0, 
1.4167,-14.4,-478.8,-127.8,194.4,-55.2,-10.2,-317.1,141.9,148.2,-569.4,278.4,157.5,-1234.5,-1356.3,-622.5,144.6,-6.9,-6.0,-322.2,-2009.1,-1.2,-168.6,-563.1,-63.9,0,2550,0,215,0, 
1.4200,-14.4,-463.8,-110.7,212.7,-35.4,10.8,-302.7,158.1,0.0,-538.8,286.5,173.4,-1224.0,-1393.8,-665.1,131.4,-7.2,-5.7,-305.1,-1989.9,-0.9,-140.1,-546.9,-43.8,0,2556,0,216,0, 
1.4233,-24.3,-472.8,-112.5,205.8,-42.9,1.8,-311.7,149.4,74.1,-536.7,292.2,167.4,-1236.9,-1396.5,-672.3,134.7,-6.9,-5.7,-300.6,-1996.2,-0.9,-147.3,-551.7,-48.9,0,2562,0,217,0, 
1.4267,-24.6,-465.9,-98.4,217.2,-27.9,13.5,-303.3,153.9,148.2,-514.8,316.8,193.2,-1233.0,-1407.9,-689.1,138.3,-6.9,-5.7,-279.0,-1975.2,-0.9,-132.9,-544.8,-38.7,0,2568,0,218,0, 
1.4300,-31.2,-471.6,-112.8,207.0,-35.7,5.4,-303.6,149.1,222.3,-525.9,303.9,178.8,-1239.6,-1404.6,-674.4,148.5,-6.6,-5.4,-288.9,-1985.1,-0.6,-138.3,-546.9,-43.5,0,2574,0,219,0, 
1.4333,-25.2,-468.3,-109.8,213.3,-33.9,9.9,-302.7,151.5,148.2,-528.9,298.5,177.9,-1232.4,-1384.8,-665.1,133.8,-6.9,-5.7,-291.0,-1988.4,-0.9,-138.3,-550.2,-40.2,0,2580,0,220,0, 
1.4367,-24.6,-468.3,-108.6,212.4,-35.1,10.2,-303.9,151.2,0.0,-529.2,296.1,172.5,-1233.9,-1387.2,-655.8,134.7,-6.6,-6.0,-291.0,-1992.0,-0.6,-139.2,-553.2,-40.5,0,2586,0,221,0, 
1.4400,-23.4,-471.9,-115.8,206.4,-39.9,7.5,-306.6,146.1,74.1,-543.3,288.9,168.9,-1238.4,-1386.3,-658.5,131.4,-6.9,-6.0,-299.7,-1993.8,-0.3,-147.3,-554.1,-49.2,0,2592,0,222,0, 
1.4433,-23.7,-474.6,-116.7,204.3,-43.5,6.6,-309.9,146.7,222.3,-546.3,295.8,163.2,-1242.9,-1389.3,-660.0,151.8,-7.2,-6.3,-304.2,-1999.8,-1.2,-153.0,-547.8,-49.2,0,2598,0,223,0, 
1.4467,-30.6,-475.8,-116.7,205.8,-44.7,3.0,-310.8,141.9,296.4,-545.4,284.4,165.9,-1249.2,-1402.5,-676.5,141.3,-6.6,-5.4,-307.5,-2001.9,-0.9,-155.4,-552.9,-53.1,0,2604,0,224,0, 
1.4500,-21.6,-464.1,-105.0,221.1,-29.1,15.6,-299.7,155.1,148.2,-528.0,292.5,177.0,-1233.0,-1390.8,-672.9,138.9,-6.6,-5.7,-291.3,-1985.7,-0.9,-135.6,-546.0,-38.1,0,2610,0,225,0, 
1.4533,-14.4,-460.8,-105.6,220.2,-28.5,11.4,-302.1,154.5,0.0,-525.9,294.3,179.1,-1230.3,-1375.2,-664.8,129.0,-6.9,-6.0,-289.2,-1985.4,-0.9,-137.1,-546.0,-41.7,0,2616,0,226,0, 
1.4567,-17.1,-467.7,-113.4,213.6,-35.4,7.8,-309.3,151.8,148.2,-537.6,287.1,170.1,-1235.7,-1379.4,-655.8,130.2,-7.2,-5.7,-300.6,-1997.1,-0.6,-149.7,-551.7,-48.6,0,2622,0,227,0, 
1.4600,-10.8,-456.3,-104.4,222.3,-30.6,7.8,-306.6,157.2,222.3,-533.1,298.8,171.9,-1231.8,-1370.4,-657.0,123.0,-6.6,-5.7,-292.8,-1994.4,-0.3,-143.1,-554.7,-45.3,0,2628,0,228,0, 
1.4633,-12.3,-460.5,-102.6,223.2,-30.6,10.5,-304.8,155.1,370.5,-529.5,300.6,168.6,-1230.9,-1377.0,-660.0,132.3,-6.6,-5.4,-294.0,-1995.9,-0.9,-145.2,-553.5,-43.8,0,2634,0,229,0, 
1.4667,-8.4,-453.3,-95.4,228.9,-24.0,13.2,-296.4,159.9,148.2,-526.8,307.5,173.4,-1220.1,-1366.5,-645.3,132.9,-6.9,-6.3,-283.2,-1991.4,-0.9,-148.8,-548.4,-43.2,0,2640,0,230,0, 
1.4700,-16.8,-456.3,-99.0,226.5,-21.9,14.4,-298.5,156.6,222.3,-528.9,302.1,174.9,-1224.0,-1376.4,-660.3,133.5,-7.2,-5.7,-285.0,-1990.2,-0.9,-146.1,-545.7,-44.1,0,2646,0,231,0, 
1.4733,-17.4,-461.7,-109.5,217.2,-32.1,4.2,-303.3,148.8,74.1,-540.9,289.8,163.2,-1237.2,-1377.9,-653.1,137.7,-7.2,-5.7,-298.8,-2006.4,-0.6,-159.0,-557.4,-53.4,0,2652,0,232,0, 
1.4767,-12.3,-459.9,-109.8,217.5,-29.4,9.3,-295.2,154.2,222.3,-539.4,287.4,163.2,-1234.8,-1370.1,-652.2,141.9,-6.6,-5.7,-297.6,-2004.0,-0.6,-155.7,-558.9,-48.6,0,2658,0,233,0, 
1.4800,-24.3,-469.8,-124.5,210.0,-38.4,2.4,-306.0,143.4,296.4,-541.8,280.2,160.5,-1244.1,-1385.7,-669.0,127.2,-6.9,-5.7,-304.8,-2007.9,-0.9,-158.4,-564.3,-53.7,0,2664,0,234,0, 
1.4833,-22.5,-469.5,-128.1,203.7,-43.5,-0.6,-306.6,143.1,222.3,-544.2,285.6,153.6,-1244.4,-1377.0,-655.8,134.7,-7.2,-6.0,-309.9,-2010.9,-0.9,-165.6,-566.1,-56.1,0,2670,0,235,0, 
1.4867,-27.3,-474.3,-135.3,198.9,-47.7,0.0,-305.7,142.2,0.0,-546.9,279.3,153.0,-1246.5,-1395.9,-682.2,131.7,-7.2,-6.0,-311.7,-2009.4,-1.2,-159.6,-560.1,-53.7,0,2676,0,236,0, 
1.4900,-11.4,-456.6,-111.9,213.3,-34.5,15.3,-292.2,157.2,74.1,-535.5,293.1,166.2,-1230.3,-1384.2,-669.0,148.8,-6.6,-5.7,-297.9,-1996.5,-0.6,-142.8,-546.0,-39.0,0,2682,0,237,0, 
1.4933,-9.3,-459.3,-117.9,209.4,-39.3,9.9,-300.0,151.8,296.4,-542.7,289.5,159.3,-1232.1,-1371.9,-647.7,141.0,-7.5,-6.0,-300.9,-2004.0,-0.6,-147.9,-554.7,-44.4,0,2688,0,238,0, 
1.4967,-5.1,-453.0,-106.8,215.1,-34.5,14.7,-297.3,160.2,296.4,-536.7,293.1,171.9,-1227.3,-1366.5,-648.9,147.0,-6.9,-5.7,-294.6,-1991.4,-1.2,-138.0,-548.1,-37.2,0,2694,0,239,0, 
1.5000,-9.9,-458.1,-110.7,213.3,-35.7,13.8,-294.9,157.2,148.2,-538.2,293.7,168.6,-1230.0,-1375.8,-673.2,135.3,-7.2,-6.0,-294.9,-1994.1,-1.2,-140.7,-545.1,-38.4,0,2700,0,240,0, 
1.5033,-3.6,-452.1,-101.7,222.9,-24.3,19.5,-295.5,162.0,74.1,-526.2,300.6,174.6,-1227.0,-1363.5,-658.2,133.5,-6.9,-5.7,-291.0,-1987.8,-0.6,-132.3,-538.5,-34.8,0,2706,0,241,0, 
1.5067,-11.1,-455.1,-107.1,221.7,-29.7,15.6,-294.3,158.4,0.0,-534.3,296.1,169.5,-1228.5,-1371.9,-666.0,138.3,-6.6,-6.0,-296.4,-1990.5,-0.6,-141.3,-549.6,-38.7,0,2712,0,242,0, 
1.5100,-9.6,-453.0,-109.8,220.2,-32.1,18.0,-294.9,160.2,222.3,-532.8,300.6,172.8,-1227.9,-1370.7,-662.1,138.9,-6.9,-5.7,-293.7,-1989.6,-0.9,-134.4,-543.6,-34.8,0,2718,0,243,0, 
1.5133,-12.3,-458.7,-117.0,212.4,-39.3,14.1,-301.5,152.1,370.5,-541.8,288.9,164.4,-1233.0,-1365.3,-646.8,156.0,-6.9,-6.0,-301.5,-1995.9,-0.6,-146.1,-546.3,-43.5,0,2724,0,244,0, 
1.5167,-8.4,-452.1,-110.7,217.5,-34.5,17.4,-300.6,160.8,148.2,-528.0,288.0,168.3,-1228.5,-1364.1,-651.3,143.1,-6.6,-5.7,-292.5,-1990.2,-0.6,-139.5,-548.1,-34.5,0,2730,0,245,0, 
1.5200,-3.0,-446.1,-100.8,229.8,-26.1,22.2,-294.3,164.1,0.0,-522.6,293.7,178.8,-1224.0,-1360.5,-652.5,129.9,-6.9,-5.7,-286.8,-1982.1,-0.9,-128.1,-543.6,-27.9,0,2736,0,246,0, 
1.5233,-7.5,-449.1,-106.8,224.4,-28.5,20.4,-295.5,160.8,148.2,-525.9,300.9,179.1,-1228.8,-1372.8,-655.5,139.2,-6.6,-5.4,-289.2,-1983.0,-0.6,-136.2,-545.7,-32.1,0,2742,0,247,0, 
1.5267,-12.0,-450.6,-107.7,223.2,-26.1,18.6,-294.0,160.2,370.5,-525.9,306.3,181.5,-1230.6,-1371.3,-660.0,140.4,-6.9,-6.0,-288.3,-1980.0,-0.6,-133.5,-545.7,-32.4,0,2748,0,248,0, 
1.5300,-14.1,-452.1,-111.3,222.3,-30.3,19.8,-290.4,161.4,296.4,-530.1,303.6,178.8,-1233.3,-1376.4,-664.2,130.8,-6.9,-5.4,-288.0,-1981.5,-0.6,-134.4,-541.5,-32.4,0,2754,0,249,0, 
1.5333,-12.3,-458.1,-112.2,218.7,-33.0,14.4,-292.5,156.3,296.4,-534.0,298.2,170.4,-1236.0,-1370.1,-653.4,132.6,-6.9,-5.7,-291.9,-1990.2,-0.6,-142.2,-551.4,-39.6,0,2760,0,250,0, 
1.5367,-13.5,-467.4,-124.5,210.3,-40.8,8.1,-303.3,147.6,74.1,-547.2,280.8,162.6,-1242.6,-1353.0,-636.0,134.7,-6.6,-6.0,-300.0,-1998.3,-0.6,-153.3,-559.8,-51.0,0,2766,0,251,0, 
1.5400,-8.4,-462.3,-117.6,214.8,-37.8,8.4,-297.0,150.9,148.2,-538.5,284.1,168.3,-1238.4,-1353.9,-638.7,129.9,-7.2,-5.7,-294.3,-1991.4,-0.6,-150.0,-561.6,-47.7,0,2772,0,252,0, 
1.5433,-19.2,-465.6,-110.7,221.7,-31.8,15.0,-296.1,153.9,296.4,-528.0,297.9,178.2,-1233.6,-1368.0,-675.6,126.3,-6.6,-5.4,-286.5,-1982.7,-0.6,-135.9,-549.6,-39.9,0,2778,0,253,0, 
1.5467,-22.5,-471.0,-124.8,211.5,-41.1,7.2,-300.6,145.2,296.4,-538.5,285.9,165.3,-1239.9,-1377.9,-654.0,134.4,-6.9,-5.4,-298.5,-1995.3,-0.9,-147.3,-556.8,-50.7,0,2784,0,254,0, 
1.5500,-18.6,-464.4,-119.1,212.4,-37.8,7.8,-304.8,148.5,74.1,-535.8,290.4,165.3,-1235.7,-1359.0,-654.9,132.9,-7.2,-6.0,-296.7,-1996.8,-0.6,-149.7,-558.3,-47.4,0,2790,0,255,0, 
1.5533,-18.0,-459.6,-117.6,218.1,-33.3,17.1,-298.2,156.3,74.1,-527.7,300.9,172.5,-1230.3,-1377.6,-681.3,134.1,-7.2,-5.7,-289.5,-1986.9,-0.3,-140.4,-544.5,-39.6,0,2796,0,0,0, 
1.5567,-18.0,-460.5,-120.0,216.9,-39.9,11.4,-300.6,150.6,0.0,-540.9,287.4,166.8,-1233.0,-1363.5,-665.1,138.0,-6.9,-6.0,-301.5,-1990.8,-0.9,-146.7,-548.7,-45.0,0,2802,0,1,0, 
1.5600,-21.6,-463.5,-122.1,213.9,-41.1,9.9,-300.9,153.3,222.3,-544.8,288.3,162.0,-1236.6,-1374.3,-666.9,141.0,-6.6,-5.7,-305.4,-1996.5,-0.9,-154.5,-547.2,-50.4,0,2808,0,2,0, 
1.5633,-16.8,-463.2,-123.9,209.7,-43.2,11.4,-299.1,145.8,148.2,-547.2,291.3,161.1,-1239.9,-1365.6,-659.4,143.7,-7.2,-5.7,-300.6,-1996.5,-0.9,-153.0,-551.4,-52.8,0,2814,0,3,0, 
1.5667,-13.2,-460.5,-121.8,212.1,-39.9,11.4,-305.7,154.8,296.4,-549.0,285.0,165.0,-1243.2,-1367.1,-648.3,142.5,-6.3,-5.7,-301.8,-1999.2,-0.9,-155.1,-553.2,-52.5,0,2820,0,4,0, 
1.5700,-9.6,-453.0,-108.6,220.8,-30.0,19.2,-299.1,161.4,222.3,-531.3,294.6,176.4,-1232.4,-1362.3,-667.2,133.2,-7.2,-6.3,-288.6,-1986.0,-0.6,-136.2,-542.4,-39.0,0,2826,0,5,0, 
1.5733,-15.0,-456.9,-114.9,219.0,-35.4,12.9,-306.0,156.3,148.2,-534.9,296.4,173.4,-1236.6,-1358.7,-659.1,133.8,-6.9,-6.0,-291.3,-1989.9,-0.9,-143.1,-549.9,-48.6,0,2832,0,6,0, 
1.5767,-17.1,-460.2,-122.4,216.3,-41.7,7.8,-310.5,150.6,222.3,-536.4,286.8,167.4,-1235.1,-1359.9,-654.3,137.1,-7.2,-5.7,-297.6,-1994.4,-0.6,-145.2,-550.5,-53.1,0,2838,0,7,0, 
1.5800,-17.7,-460.8,-121.8,213.6,-38.7,4.5,-310.5,154.5,222.3,-538.5,277.8,159.9,-1236.3,-1356.0,-650.1,136.5,-6.6,-5.7,-300.6,-1997.7,-0.9,-147.6,-548.4,-54.6,0,2844,0,8,0, 
1.5833,-15.6,-459.9,-119.4,215.4,-39.6,5.4,-305.7,152.7,222.3,-539.1,288.6,164.4,-1237.2,-1354.8,-655.8,138.6,-6.9,-6.0,-293.4,-1992.0,-0.6,-147.9,-545.1,-51.3,0,2850,0,9,0, 
1.5867,-15.9,-461.1,-118.2,216.9,-34.2,8.1,-304.5,150.0,74.1,-534.6,293.7,168.3,-1238.4,-1365.9,-648.0,138.6,-6.6,-5.7,-292.5,-1995.0,-0.6,-148.2,-546.6,-50.7,0,2856,0,10,0, 
1.5900,-19.5,-458.7,-118.2,217.5,-35.7,11.1,-306.0,156.3,74.1,-531.9,290.4,168.0,-1232.4,-1370.4,-669.6,141.0,-6.9,-6.3,-291.6,-1991.1,-1.2,-140.4,-542.1,-45.6,0,2862,0,11,0, 
1.5933,-22.2,-460.8,-126.3,210.0,-41.4,4.8,-309.3,143.4,222.3,-538.2,288.9,162.3,-1240.8,-1368.3,-659.4,145.5,-6.9,-6.0,-297.0,-1995.6,-0.9,-147.3,-548.7,-52.5,0,2868,0,12,0, 
1.5967,-30.0,-470.1,-133.8,204.3,-48.3,-3.3,-306.0,137.1,222.3,-550.5,280.5,152.1,-1247.7,-1371.9,-663.0,158.4,-7.2,-6.0,-306.3,-2003.1,-0.6,-153.3,-556.8,-59.4,0,2874,0,13,0, 
1.6000,-16.8,-460.2,-119.4,212.4,-39.6,5.4,-306.9,144.9,222.3,-542.4,282.9,160.8,-1235.7,-1362.0,-653.1,140.1,-6.6,-5.7,-302.1,-2000.4,-0.6,-153.6,-553.8,-50.7,0,2880,0,14,0, 
1.6033,-15.0,-459.6,-114.6,209.7,-39.6,2.1,-307.5,146.1,0.0,-542.1,283.8,168.0,-1236.3,-1350.3,-645.6,115.5,-6.6,-6.0,-301.8,-1995.6,-0.3,-150.6,-560.4,-52.5,0,2886,0,15,0, 
1.6067,-16.8,-460.2,-120.3,207.9,-45.0,-1.8,-308.7,144.0,148.2,-539.4,285.3,163.8,-1240.5,-1353.9,-648.0,119.1,-6.9,-5.7,-300.9,-2002.2,-0.6,-157.2,-566.7,-59.7,0,2892,0,16,0, 
1.6100,-19.5,-457.8,-113.1,215.1,-37.8,6.6,-300.6,154.8,74.1,-528.0,290.4,167.1,-1242.3,-1379.1,-676.5,132.6,-7.2,-5.7,-296.1,-1994.7,-0.6,-141.0,-554.7,-46.8,0,2898,0,17,0, 
1.6133,-20.4,-457.5,-113.1,214.8,-38.1,6.9,-300.6,155.1,222.3,-531.0,294.3,162.3,-1241.1,-1377.6,-676.5,140.7,-7.2,-5.7,-300.0,-1997.4,-0.6,-145.8,-556.2,-45.3,0,2904,0,18,0, 
1.6167,-24.3,-465.6,-128.7,206.7,-49.8,0.9,-308.7,143.7,74.1,-542.1,288.6,153.3,-1246.8,-1377.9,-669.3,137.4,-6.6,-5.7,-305.7,-2004.9,-0.6,-152.1,-562.2,-57.3,0,2910,0,19,0, 
1.6200,-21.9,-467.7,-128.1,205.2,-47.7,-1.5,-313.2,138.3,0.0,-547.2,274.5,153.3,-1247.7,-1373.4,-667.2,132.6,-6.9,-5.7,-310.5,-2002.2,-0.6,-152.7,-560.4,-55.5,0,2916,0,20,0, 
1.6233,-20.4,-459.9,-120.9,213.6,-40.5,3.3,-300.9,144.9,0.0,-537.3,277.8,159.3,-1241.7,-1369.2,-662.4,141.3,-6.6,-5.7,-305.4,-1995.3,-0.6,-145.2,-555.6,-45.9,0,2922,0,21,0, 
1.6267,-21.9,-463.8,-123.6,210.0,-42.9,4.8,-308.1,145.5,0.0,-537.3,276.6,159.9,-1238.1,-1364.7,-657.3,143.1,-6.6,-6.0,-299.7,-1994.1,-0.6,-143.7,-555.6,-46.8,0,2928,0,22,0, 
1.6300,-19.8,-460.5,-124.5,209.7,-44.1,1.5,-306.3,145.2,296.4,-538.5,285.3,160.8,-1238.1,-1361.7,-658.5,146.7,-7.2,-5.4,-299.4,-1992.9,-0.6,-142.5,-550.5,-48.3,0,2934,0,23,0, 
1.6333,-19.5,-460.2,-120.9,212.1,-41.7,6.3,-307.2,145.8,148.2,-540.6,285.9,166.2,-1235.7,-1363.5,-656.1,151.8,-7.2,-6.0,-301.2,-1994.1,-0.9,-140.4,-544.8,-48.3,0,2940,0,24,0, 
1.6367,-14.7,-459.6,-122.4,213.6,-42.3,6.9,-300.6,143.7,0.0,-534.6,285.3,161.4,-1235.1,-1353.6,-645.6,154.8,-6.9,-6.0,-297.3,-1999.2,-0.6,-142.2,-548.7,-47.7,0,2946,0,25,0, 
1.6400,-12.9,-453.3,-114.0,223.5,-34.5,11.4,-294.9,148.2,74.1,-528.3,283.5,169.5,-1230.6,-1348.5,-646.5,156.0,-6.9,-6.0,-291.9,-1988.4,-0.9,-135.9,-543.3,-43.8,0,2952,0,26,0, 
1.6433,-12.9,-458.4,-116.7,215.1,-41.1,3.3,-298.5,141.9,148.2,-529.8,285.6,162.6,-1234.8,-1356.3,-640.8,152.1,-7.2,-6.0,-293.4,-1994.4,-0.9,-139.2,-549.9,-49.2,0,2958,0,27,0, 
1.6467,-10.5,-450.9,-108.6,225.3,-27.6,12.6,-296.7,148.8,222.3,-518.7,293.1,175.5,-1224.9,-1351.5,-645.6,135.0,-6.9,-6.0,-287.7,-1980.3,-0.6,-126.9,-543.9,-38.4,0,2964,0,28,0, 
1.6500,-11.4,-449.1,-102.0,229.5,-17.7,19.2,-286.8,154.8,222.3,-508.2,300.9,182.1,-1216.5,-1362.0,-666.3,141.9,-6.9,-6.0,-282.6,-1974.6,-0.9,-114.0,-534.6,-30.0,0,2970,0,29,0, 
1.6533,-16.2,-449.7,-101.7,228.6,-21.0,17.4,-287.4,153.3,74.1,-513.0,300.6,180.0,-1214.4,-1364.1,-666.0,141.3,-6.9,-5.7,-284.1,-1974.6,-0.9,-119.4,-535.8,-33.9,0,2976,0,30,0, 
1.6567,-12.0,-457.2,-112.5,219.9,-30.3,10.5,-288.6,148.8,148.2,-529.5,293.7,169.2,-1219.8,-1351.2,-643.2,143.7,-6.9,-5.7,-295.5,-1984.5,-0.6,-131.4,-544.8,-42.9,0,2982,0,31,0, 
1.6600,-15.9,-457.2,-115.8,217.5,-31.2,10.2,-290.4,148.5,74.1,-527.1,294.6,169.2,-1222.2,-1358.7,-649.5,144.6,-6.9,-6.0,-295.5,-1987.5,-0.6,-136.2,-540.0,-47.1,0,2988,0,32,0, 
1.6633,-13.8,-461.7,-119.1,211.5,-33.6,6.3,-299.4,144.9,296.4,-537.3,287.7,163.2,-1230.0,-1358.4,-644.7,140.1,-7.2,-5.7,-303.3,-2005.8,-0.6,-144.0,-546.9,-54.3,0,2994,0,33,0, 
1.6667,-10.5,-450.3,-105.0,225.9,-18.6,19.8,-288.9,157.5,222.3,-516.0,302.4,182.7,-1222.8,-1366.2,-673.8,137.7,-7.2,-5.4,-284.1,-1981.2,-0.6,-120.3,-537.3,-38.7,0,3000,0,34,0, 
1.6700,-10.2,-462.0,-116.1,213.9,-31.2,10.5,-294.3,147.6,74.1,-534.0,290.1,166.5,-1229.7,-1363.8,-656.7,139.2,-6.6,-6.0,-299.1,-1995.6,-0.9,-141.9,-544.2,-49.5,0,3006,0,35,0, 
1.6733,-7.8,-456.9,-113.4,219.9,-24.6,17.4,-290.7,152.4,74.1,-519.9,303.9,174.3,-1223.4,-1362.6,-663.3,140.4,-6.9,-5.7,-287.7,-1988.7,-0.9,-132.0,-546.9,-43.5,0,3012,0,36,0, 
1.6767,-6.9,-457.5,-109.8,219.3,-26.7,11.7,-293.7,149.4,148.2,-527.1,292.8,169.8,-1224.3,-1366.2,-657.9,123.9,-6.6,-5.7,-298.8,-1994.7,-0.9,-135.0,-548.1,-49.5,0,3018,0,37,0, 
1.6800,-7.2,-462.6,-119.1,214.5,-31.8,5.7,-305.7,142.8,296.4,-531.6,285.0,168.3,-1228.2,-1370.1,-655.2,126.0,-6.9,-5.7,-303.6,-1996.2,-1.2,-140.4,-549.6,-55.5,0,3024,0,38,0, 
1.6833,-7.8,-464.1,-120.6,213.3,-30.3,8.1,-296.7,143.1,222.3,-528.9,288.6,163.5,-1230.0,-1377.3,-663.0,135.0,-6.9,-6.0,-301.2,-1999.5,-0.6,-145.2,-546.3,-55.5,0,3030,0,39,0, 
1.6867,-2.4,-463.2,-116.4,212.7,-31.2,8.7,-304.8,144.6,74.1,-525.0,284.7,170.7,-1222.2,-1361.1,-645.3,104.1,-7.2,-6.0,-305.7,-1996.5,-0.9,-142.5,-552.6,-55.2,0,3036,0,40,0, 
1.6900,0.0,-463.5,-117.6,215.4,-27.0,11.7,-301.2,145.8,74.1,-532.8,290.1,168.3,-1220.7,-1350.3,-655.2,113.1,-6.9,-6.0,-302.1,-2001.6,-0.3,-142.8,-545.1,-54.9,0,3042,0,41,0, 
1.6933,6.9,-458.7,-113.1,221.4,-19.2,18.6,-299.1,150.9,148.2,-528.3,294.0,174.3,-1212.6,-1340.7,-642.3,111.6,-7.2,-5.7,-298.8,-1996.5,-0.9,-141.6,-547.2,-49.8,0,3048,0,42,0, 
1.6967,-0.3,-457.5,-106.8,228.0,-12.9,21.3,-292.8,153.3,296.4,-516.3,300.6,178.2,-1212.9,-1366.8,-667.2,120.3,-7.2,-5.7,-291.6,-1992.0,-0.9,-133.5,-538.8,-45.6,0,3054,0,43,0, 
1.7000,-7.5,-468.3,-119.1,215.4,-25.2,8.7,-304.8,138.9,148.2,-533.1,282.0,162.9,-1221.9,-1365.6,-653.4,113.4,-6.9,-5.7,-305.7,-2008.2,-0.6,-145.2,-554.4,-58.2,0,3060,0,44,0, 
1.7033,-3.6,-468.3,-114.6,216.3,-21.3,10.2,-306.3,145.2,74.1,-531.6,284.7,168.6,-1220.1,-1352.4,-651.0,97.8,-7.2,-6.3,-303.6,-2003.7,-0.6,-141.6,-550.8,-55.5,0,3066,0,45,0, 
1.7067,-7.8,-470.4,-121.8,210.9,-26.7,12.3,-300.3,138.3,148.2,-536.1,281.4,162.6,-1225.2,-1354.8,-649.8,99.3,-7.2,-6.0,-312.3,-2004.6,-0.9,-149.7,-553.8,-57.3,0,3072,0,46,0, 
1.7100,-11.1,-464.7,-109.2,226.8,-12.0,23.1,-297.0,150.3,148.2,-516.9,301.2,181.2,-1222.8,-1374.3,-669.3,108.0,-6.6,-5.7,-296.7,-1990.2,-0.6,-130.8,-546.0,-45.0,0,3078,0,47,0, 
1.7133,-18.3,-474.9,-120.0,212.4,-23.7,14.4,-302.7,141.6,296.4,-531.3,284.4,165.3,-1233.6,-1374.9,-669.9,101.1,-6.9,-6.0,-312.0,-2002.5,-0.6,-142.8,-551.4,-51.0,0,3084,0,48,0, 
1.7167,-15.9,-477.0,-123.3,209.7,-27.3,16.2,-297.6,139.5,74.1,-535.5,283.2,165.0,-1235.7,-1377.0,-660.6,103.8,-7.2,-6.0,-311.1,-2002.2,-0.9,-142.8,-548.7,-50.4,0,3090,0,49,0, 
1.7200,-11.7,-472.5,-118.8,213.6,-24.0,22.8,-295.2,145.8,74.1,-528.0,291.0,175.5,-1227.3,-1374.3,-661.8,106.2,-7.2,-5.4,-302.1,-1995.3,-0.6,-138.6,-540.6,-41.1,0,3096,0,50,0, 
1.7233,-14.4,-477.6,-125.1,207.0,-28.8,15.9,-297.9,143.1,0.0,-533.1,286.8,168.6,-1232.4,-1368.9,-667.2,100.5,-6.9,-6.0,-306.0,-2002.8,-0.3,-139.8,-548.4,-45.9,0,3102,0,51,0, 
1.7267,-12.9,-480.0,-117.9,209.4,-26.7,14.4,-302.1,138.0,148.2,-532.2,297.9,171.6,-1234.2,-1372.8,-662.7,102.0,-6.9,-5.7,-300.9,-2000.1,-0.9,-141.0,-543.0,-48.3,0,3108,0,52,0, 
1.7300,-15.3,-479.4,-115.2,208.8,-27.0,15.0,-296.7,139.5,148.2,-529.2,293.4,171.6,-1234.8,-1380.3,-660.9,108.9,-6.9,-6.3,-302.7,-2002.5,-0.9,-137.4,-546.0,-46.8,0,3114,0,53,0, 
1.7333,-10.8,-478.5,-118.2,211.2,-23.4,12.6,-296.1,135.0,222.3,-529.2,288.3,171.3,-1229.7,-1370.7,-653.7,105.6,-6.9,-5.7,-300.9,-1998.3,-0.6,-134.7,-541.5,-46.8,0,3120,0,54,0, 
1.7367,-17.1,-483.0,-121.5,205.5,-29.4,12.0,-301.5,138.3,74.1,-540.3,272.1,165.0,-1233.0,-1375.8,-650.7,101.7,-6.9,-6.0,-310.2,-2004.6,-0.3,-137.4,-547.2,-49.2,0,3126,0,55,0, 
1.7400,-10.8,-475.5,-119.4,207.6,-24.6,10.5,-301.2,140.1,74.1,-534.3,285.6,168.6,-1224.0,-1367.1,-646.2,100.8,-7.2,-5.7,-301.2,-1998.0,-0.3,-134.1,-545.4,-47.4,0,3132,0,56,0, 
1.7433,-16.2,-482.4,-120.3,206.1,-27.9,10.2,-305.4,136.2,148.2,-526.2,289.5,171.3,-1230.6,-1378.2,-662.1,95.7,-6.9,-5.7,-302.4,-1999.5,-0.6,-133.5,-553.2,-47.1,0,3138,0,57,0, 
1.7467,-9.3,-480.9,-117.9,206.7,-27.9,8.4,-301.2,138.0,222.3,-531.0,292.5,171.3,-1234.5,-1368.0,-645.6,106.2,-6.9,-6.0,-302.7,-2000.4,-0.6,-138.0,-549.9,-49.5,0,3144,0,58,0, 
1.7500,-9.3,-480.6,-120.0,204.9,-27.0,8.1,-302.1,141.9,222.3,-533.1,291.3,165.3,-1231.5,-1362.3,-634.8,110.1,-6.9,-6.0,-300.6,-2003.1,-0.6,-139.2,-551.4,-48.9,0,3150,0,59,0, 
1.7533,-12.3,-478.2,-110.7,218.4,-12.9,19.8,-299.1,146.1,0.0,-513.3,300.6,184.5,-1227.9,-1395.9,-685.8,105.0,-6.9,-5.7,-287.7,-1986.3,-0.3,-116.7,-537.0,-34.2,0,3156,0,60,0, 
1.7567,-12.3,-475.8,-111.3,216.6,-13.8,19.8,-307.5,143.7,0.0,-514.5,299.7,180.6,-1223.1,-1389.3,-672.0,99.0,-6.9,-6.3,-289.2,-1988.1,-0.9,-123.3,-544.2,-37.2,0,3162,0,61,0, 
1.7600,-10.2,-476.4,-111.9,214.5,-16.5,18.0,-301.8,144.3,148.2,-512.4,308.4,184.2,-1218.0,-1384.8,-667.2,102.9,-6.9,-5.7,-285.9,-1986.3,-0.6,-122.7,-541.5,-36.3,0,3168,0,62,0, 
1.7633,-9.6,-477.0,-114.3,210.3,-14.1,17.7,-300.3,146.7,296.4,-520.8,303.0,180.6,-1219.5,-1366.8,-639.6,113.4,-7.2,-5.7,-290.1,-1991.1,-0.9,-118.8,-543.6,-36.3,0,3174,0,63,0, 
1.7667,-8.7,-476.4,-112.5,210.3,-16.5,17.4,-302.7,145.2,222.3,-514.8,303.3,182.1,-1218.9,-1365.9,-641.7,105.9,-6.9,-5.7,-288.9,-1984.5,-0.6,-114.3,-537.6,-37.5,0,3180,0,64,0, 
1.7700,-8.7,-471.9,-103.2,216.0,-6.9,22.2,-300.6,154.2,74.1,-508.8,309.9,191.1,-1214.1,-1363.5,-653.7,111.3,-6.9,-5.7,-284.4,-1972.8,-0.6,-105.3,-535.2,-28.8,0,3186,0,65,0, 
1.7733,-13.8,-475.2,-109.2,210.6,-16.2,18.3,-303.0,146.7,0.0,-516.0,299.7,185.4,-1218.3,-1359.6,-648.6,111.9,-6.9,-5.7,-290.7,-1976.7,-0.3,-118.2,-546.9,-37.2,0,3192,0,66,0, 
1.7767,-10.5,-479.4,-115.5,198.6,-27.3,6.0,-311.4,141.3,222.3,-531.0,288.6,169.8,-1223.1,-1348.8,-632.1,107.1,-6.9,-5.7,-301.8,-1993.8,-0.6,-136.2,-549.3,-50.4,0,3198,0,67,0, 
1.7800,-9.0,-481.2,-117.9,195.9,-30.3,5.1,-311.1,138.0,148.2,-529.8,294.9,171.9,-1224.9,-1348.2,-632.1,103.5,-6.9,-5.7,-301.5,-1989.6,-0.6,-133.8,-560.1,-50.1,0,3204,0,68,0, 
1.7833,-10.5,-472.2,-101.7,216.9,-9.3,19.8,-298.8,155.1,0.0,-503.1,316.2,193.2,-1221.3,-1371.9,-668.1,118.8,-6.9,-5.4,-276.6,-1970.1,-0.9,-110.7,-537.3,-30.0,0,3210,0,69,0, 
1.7867,-12.9,-473.4,-110.1,213.3,-9.9,20.7,-295.2,153.3,148.2,-501.9,306.3,193.2,-1224.6,-1384.2,-670.8,114.3,-6.9,-5.7,-280.2,-1968.9,-0.3,-111.0,-542.4,-29.1,0,3216,0,70,0, 
1.7900,-9.9,-472.8,-104.1,206.4,-15.3,16.8,-297.6,148.5,148.2,-512.4,298.5,185.1,-1223.4,-1374.0,-657.6,102.9,-6.9,-5.7,-291.6,-1977.9,-0.9,-116.1,-544.2,-37.5,0,3222,0,71,0, 
1.7933,-7.8,-469.5,-103.8,211.2,-10.8,22.5,-291.9,156.3,148.2,-501.0,311.4,193.8,-1218.6,-1371.3,-669.0,103.5,-6.9,-6.0,-280.2,-1967.1,-0.6,-109.8,-535.5,-29.4,0,3228,0,72,0, 
1.7967,-9.0,-470.7,-99.9,208.8,-12.6,24.3,-289.2,151.5,148.2,-502.5,312.0,193.8,-1221.3,-1374.6,-662.4,111.0,-6.6,-5.7,-278.1,-1968.6,-0.6,-109.2,-534.9,-28.8,0,3234,0,73,0, 
1.8000,-15.3,-481.8,-112.8,198.3,-18.6,13.5,-295.8,145.2,296.4,-517.8,294.0,185.4,-1229.7,-1385.1,-652.5,108.6,-6.9,-5.7,-294.6,-1979.1,-0.6,-119.1,-547.5,-38.4,0,3240,0,74,0, 
1.8033,-18.6,-477.0,-114.0,201.3,-16.8,12.6,-296.7,148.5,-74.1,-517.5,300.9,189.3,-1226.1,-1381.2,-650.4,107.1,-6.9,-5.4,-291.6,-1976.1,-0.6,-118.2,-544.5,-35.7,0,3246,0,75,0, 
1.8067,-6.9,-469.5,-102.3,209.4,-8.7,17.7,-293.7,152.7,222.3,-505.5,310.2,193.2,-1215.9,-1366.5,-648.3,104.4,-7.2,-5.7,-283.5,-1969.8,-0.9,-110.1,-539.7,-27.9,0,3252,0,76,0, 
1.8100,-4.8,-471.6,-104.4,205.2,-12.0,18.3,-297.0,148.8,74.1,-511.5,308.7,193.2,-1217.4,-1370.1,-639.6,111.3,-6.6,-5.7,-282.6,-1973.4,-0.6,-111.3,-544.2,-31.2,0,3258,0,77,0, 
1.8133,-10.2,-472.2,-109.2,201.6,-16.5,12.0,-294.9,147.6,370.5,-513.6,306.9,186.9,-1220.1,-1370.1,-640.5,109.2,-6.9,-5.7,-287.7,-1979.1,-0.6,-116.1,-538.2,-32.1,0,3264,0,78,0, 
1.8167,-11.7,-470.4,-102.3,204.0,-15.0,17.1,-296.4,150.6,74.1,-510.0,309.3,187.2,-1216.8,-1372.5,-656.4,111.3,-6.9,-5.4,-284.1,-1978.8,-0.9,-113.1,-540.0,-29.7,0,3270,0,79,0, 
1.8200,-12.3,-470.4,-102.3,204.6,-7.8,18.0,-290.4,147.3,222.3,-508.8,309.6,192.6,-1221.0,-1379.4,-652.2,115.8,-6.9,-5.4,-282.9,-1971.3,-0.3,-107.1,-543.3,-26.4,0,3276,0,80,0, 
1.8233,-10.5,-473.7,-110.7,199.5,-13.8,15.0,-291.6,150.9,74.1,-520.5,303.9,188.7,-1224.6,-1366.2,-644.4,113.1,-6.9,-5.4,-288.3,-1975.2,-0.6,-116.1,-537.9,-30.9,0,3282,0,81,0, 
1.8267,-16.8,-478.2,-112.5,193.8,-20.4,10.2,-299.1,146.7,370.5,-520.2,301.2,179.7,-1229.7,-1376.7,-646.8,112.8,-6.9,-6.0,-292.8,-1980.9,-1.2,-125.7,-546.9,-39.3,0,3288,0,82,0, 
1.8300,-9.6,-474.9,-106.2,204.0,-14.1,21.6,-293.4,150.0,296.4,-511.5,305.4,189.0,-1226.1,-1380.9,-651.3,123.3,-7.2,-5.7,-287.7,-1971.9,-0.9,-117.3,-537.9,-28.8,0,3294,0,83,0, 
1.8333,-7.5,-472.8,-103.2,201.9,-17.7,19.2,-297.3,147.0,296.4,-511.2,300.9,189.0,-1221.3,-1364.1,-639.6,121.5,-6.9,-6.0,-289.5,-1972.8,-1.2,-117.3,-541.2,-29.1,0,3300,0,84,0, 
1.8367,-0.6,-463.8,-100.8,209.7,-8.7,22.5,-296.7,153.6,74.1,-501.3,312.3,199.8,-1213.5,-1368.0,-640.2,121.2,-6.9,-5.4,-275.7,-1966.5,-0.6,-108.3,-536.1,-26.7,0,3306,0,85,0, 
1.8400,0.3,-462.0,-99.0,206.1,-10.2,20.4,-293.4,151.2,148.2,-503.4,313.5,196.2,-1209.6,-1363.2,-644.1,120.3,-6.6,-6.0,-276.9,-1965.0,-1.2,-106.5,-539.7,-25.5,0,3312,0,86,0, 
1.8433,-0.3,-462.6,-102.9,209.4,-7.8,18.9,-296.4,154.5,296.4,-506.4,318.3,200.7,-1206.3,-1368.6,-651.3,123.6,-7.2,-5.7,-274.5,-1961.7,-0.9,-110.1,-533.4,-27.9,0,3318,0,87,0, 
1.8467,-3.6,-464.1,-97.2,205.2,-13.5,14.7,-302.4,152.1,222.3,-508.2,315.0,193.2,-1209.9,-1371.3,-651.0,120.9,-6.6,-6.0,-280.2,-1968.0,-0.6,-117.9,-549.3,-31.5,0,3324,0,88,0, 
1.8500,-1.5,-464.4,-98.1,204.3,-12.6,16.2,-299.4,156.0,74.1,-510.6,314.4,189.0,-1217.7,-1377.0,-649.5,129.3,-6.6,-6.0,-279.3,-1973.1,-0.3,-116.1,-548.1,-31.8,0,3330,0,89,0, 
1.8533,-4.8,-464.1,-97.8,209.1,-7.2,16.8,-297.6,150.6,74.1,-507.3,323.4,193.5,-1222.2,-1383.6,-651.6,128.7,-6.9,-5.7,-275.7,-1967.1,-1.2,-113.7,-550.2,-29.1,0,3336,0,90,0, 
1.8567,-7.5,-472.5,-105.3,198.6,-15.0,9.0,-299.7,144.6,148.2,-522.6,309.3,183.3,-1227.6,-1373.7,-635.1,129.6,-6.6,-6.3,-283.8,-1985.7,-0.9,-123.6,-554.1,-39.0,0,3342,0,91,0, 
1.8600,-10.2,-471.6,-108.6,199.5,-18.0,11.1,-296.1,146.4,148.2,-521.7,301.2,181.2,-1230.6,-1377.9,-637.5,132.9,-6.6,-5.4,-285.0,-1983.6,-0.9,-127.2,-548.4,-39.0,0,3348,0,92,0, 
1.8633,-12.0,-470.4,-102.6,202.8,-18.0,15.3,-290.4,149.7,222.3,-508.5,310.5,193.5,-1226.7,-1386.9,-654.9,145.5,-7.5,-5.7,-280.5,-1972.2,-0.3,-118.8,-539.4,-33.6,0,3354,0,93,0, 
1.8667,-7.5,-460.8,-96.6,207.0,-9.9,26.4,-284.4,155.7,148.2,-501.9,316.8,199.8,-1212.3,-1372.2,-649.5,130.5,-7.2,-5.7,-276.3,-1965.0,-0.6,-107.1,-541.2,-21.0,0,3360,0,94,0, 
1.8700,-6.3,-462.9,-100.5,203.4,-12.9,19.2,-292.5,153.9,0.0,-512.4,309.3,193.8,-1212.3,-1366.5,-631.8,128.4,-7.2,-5.7,-280.8,-1972.5,-0.9,-116.1,-541.2,-24.6,0,3366,0,95,0, 
1.8733,-13.8,-468.6,-112.8,198.6,-21.3,14.7,-298.2,140.4,222.3,-515.7,302.7,188.7,-1219.2,-1365.6,-614.4,132.0,-6.6,-5.7,-287.4,-1977.9,-0.9,-122.7,-549.0,-30.6,0,3372,0,96,0, 
1.8767,-13.2,-466.2,-106.5,201.9,-17.4,17.1,-294.6,148.2,222.3,-507.6,308.7,195.6,-1216.8,-1357.5,-638.1,142.2,-6.9,-5.7,-281.1,-1969.8,-0.6,-119.4,-546.9,-25.5,0,3378,0,97,0, 
1.8800,-13.8,-447.9,-82.5,220.5,9.9,45.0,-278.4,171.6,296.4,-474.3,348.9,220.2,-1197.6,-1373.7,-688.8,132.9,-6.9,-6.0,-249.9,-1937.7,-0.6,-81.6,-523.5,2.7,0,3384,0,98,0, 
1.8833,-10.2,-453.9,-87.3,214.8,3.6,37.5,-284.4,168.3,222.3,-492.0,337.5,211.8,-1204.2,-1379.1,-661.5,138.9,-6.9,-5.7,-255.3,-1950.9,-0.9,-96.0,-529.5,-6.6,0,3390,0,99,0, 
1.8867,-6.0,-453.6,-89.4,213.9,5.7,35.1,-281.7,169.2,148.2,-495.9,328.8,215.1,-1204.5,-1382.4,-658.5,131.1,-6.9,-6.0,-259.5,-1950.0,-0.3,-99.3,-532.8,-7.5,0,3396,0,100,0, 
1.8900,-3.6,-458.1,-90.3,212.4,0.6,28.8,-289.2,166.2,74.1,-503.4,325.5,206.1,-1211.4,-1369.5,-643.8,141.9,-6.9,-5.7,-270.9,-1955.7,-0.9,-102.6,-536.1,-16.8,0,3402,0,101,0, 
1.8933,-8.7,-462.9,-93.0,207.3,0.6,26.1,-288.9,160.2,148.2,-497.7,324.3,204.3,-1211.4,-1379.4,-658.8,126.9,-7.2,-6.3,-268.5,-1959.6,-0.3,-106.8,-541.8,-20.1,0,3408,0,102,0, 
1.8967,-12.9,-469.5,-106.5,201.0,-15.0,16.5,-300.0,152.4,296.4,-510.6,309.9,195.9,-1222.2,-1379.7,-646.2,131.1,-7.2,-5.4,-279.6,-1969.5,-0.6,-122.1,-547.5,-32.7,0,3414,0,103,0, 
1.9000,-11.4,-465.0,-100.8,200.7,-9.0,18.3,-293.4,159.6,74.1,-509.1,309.9,196.5,-1221.6,-1383.9,-640.8,133.5,-6.6,-6.0,-274.8,-1967.7,-0.9,-118.2,-544.5,-29.4,0,3420,0,104,0, 
1.9033,-8.1,-451.8,-89.7,216.0,2.7,31.8,-287.1,170.1,74.1,-492.3,324.3,208.8,-1210.5,-1384.5,-661.5,128.7,-6.9,-6.0,-260.4,-1956.3,-0.9,-100.5,-532.2,-13.8,0,3426,0,105,0, 
1.9067,-16.2,-463.8,-102.3,204.6,-12.9,19.5,-298.5,152.4,0.0,-508.5,315.3,199.8,-1220.4,-1380.6,-656.7,127.8,-6.6,-5.7,-270.6,-1968.3,-0.6,-115.8,-540.3,-28.5,0,3432,0,106,0, 
1.9100,-14.1,-461.1,-95.7,205.8,-13.2,18.3,-301.2,154.5,148.2,-508.2,319.8,197.1,-1215.3,-1376.4,-656.4,130.8,-6.9,-6.0,-267.9,-1969.2,-0.9,-114.6,-551.1,-30.6,0,3438,0,107,0, 
1.9133,-9.3,-459.9,-99.6,204.3,-13.2,18.6,-293.1,157.5,148.2,-507.6,321.3,198.6,-1211.4,-1359.0,-639.6,130.2,-6.9,-5.7,-264.3,-1967.1,-0.6,-112.5,-551.4,-33.0,0,3444,0,108,0, 
1.9167,-9.0,-458.7,-101.1,203.4,-13.8,19.8,-291.6,158.7,296.4,-506.7,318.6,199.5,-1214.4,-1367.1,-642.0,132.0,-7.2,-6.0,-264.6,-1965.3,-0.6,-109.2,-549.3,-31.5,0,3450,0,109,0, 
1.9200,-8.4,-456.6,-95.7,210.6,-7.5,24.0,-291.9,163.5,148.2,-498.9,328.5,201.3,-1210.8,-1377.0,-652.2,128.7,-7.2,-6.0,-257.1,-1959.3,-0.9,-105.3,-542.7,-24.0,0,3456,0,110,0, 
1.9233,-11.4,-460.5,-99.9,201.9,-15.3,16.8,-291.9,156.0,296.4,-504.3,317.4,200.4,-1217.7,-1380.0,-655.8,127.2,-6.9,-6.0,-270.9,-1965.0,-0.6,-111.6,-548.1,-32.1,0,3462,0,111,0, 
1.9267,-9.9,-466.2,-105.9,200.7,-14.1,15.6,-292.2,151.8,296.4,-512.1,314.4,194.1,-1216.8,-1370.4,-646.5,138.0,-6.9,-6.0,-276.6,-1967.1,-0.3,-120.9,-548.1,-38.1,0,3468,0,112,0, 
1.9300,-11.4,-462.9,-108.3,205.5,-12.3,19.5,-292.2,150.9,370.5,-514.2,315.6,201.9,-1218.0,-1366.5,-645.9,130.5,-7.2,-6.0,-276.3,-1965.3,-0.3,-118.2,-552.0,-34.8,0,3474,0,113,0, 
1.9333,-5.4,-459.9,-103.5,208.5,-5.1,23.7,-289.5,153.9,74.1,-505.8,317.4,202.5,-1210.2,-1356.6,-635.1,129.9,-6.9,-5.7,-266.7,-1961.4,-0.3,-112.5,-538.5,-32.1,0,3480,0,114,0, 
1.9367,-8.7,-464.7,-109.5,199.5,-12.0,18.0,-287.7,151.5,222.3,-516.3,312.0,195.3,-1223.1,-1360.8,-629.4,132.3,-6.6,-5.7,-277.2,-1966.8,-0.9,-118.8,-538.8,-35.7,0,3486,0,115,0, 
1.9400,-2.7,-455.4,-97.8,211.2,-0.9,26.4,-286.5,165.6,148.2,-505.8,331.8,207.6,-1211.7,-1356.9,-645.9,135.0,-6.6,-5.7,-260.4,-1957.5,-0.6,-107.4,-533.7,-24.6,0,3492,0,116,0, 
1.9433,-0.9,-458.4,-100.2,208.2,-2.7,28.5,-278.1,165.3,148.2,-502.5,330.0,214.5,-1217.1,-1368.0,-638.1,139.2,-6.6,-6.0,-265.8,-1955.4,-0.6,-108.0,-531.6,-23.1,0,3498,0,117,0, 
1.9467,0.9,-461.7,-103.5,198.9,-9.6,24.9,-286.8,163.8,296.4,-513.9,320.1,203.7,-1217.1,-1365.6,-638.1,131.7,-6.9,-6.3,-274.8,-1958.1,-0.6,-117.9,-541.5,-28.5,0,3504,0,118,0, 
1.9500,-9.6,-461.1,-103.2,199.8,-10.2,28.2,-288.9,163.5,296.4,-502.2,330.6,202.2,-1217.4,-1386.6,-673.2,124.8,-6.9,-5.4,-267.9,-1958.7,-0.9,-111.9,-534.9,-24.3,0,3510,0,119,0, 
1.9533,-10.8,-465.9,-109.2,192.0,-18.6,18.6,-292.8,159.0,74.1,-513.3,313.5,195.3,-1222.8,-1385.1,-672.0,119.1,-6.9,-5.7,-278.4,-1967.1,-0.6,-119.7,-545.1,-35.7,0,3516,0,120,0, 
1.9567,-8.4,-462.6,-109.5,192.0,-19.2,14.1,-293.1,162.6,148.2,-516.0,312.6,195.9,-1218.3,-1382.1,-662.7,123.0,-6.9,-5.7,-280.2,-1967.7,-0.9,-125.4,-546.6,-35.4,0,3522,0,121,0, 
1.9600,-11.4,-472.2,-123.9,177.3,-30.3,2.1,-304.5,152.1,222.3,-534.6,290.7,176.7,-1222.8,-1374.3,-647.4,114.6,-6.6,-6.0,-297.9,-1987.5,-1.2,-139.8,-557.7,-49.2,0,3528,0,122,0, 
1.9633,-14.4,-477.6,-135.6,168.9,-40.2,-5.1,-306.6,145.2,74.1,-549.3,279.3,171.0,-1230.0,-1371.6,-636.9,130.5,-6.9,-6.0,-304.5,-1993.5,-1.2,-151.8,-555.9,-55.2,0,3534,0,123,0, 
1.9667,-14.1,-473.7,-123.0,179.1,-30.9,6.0,-300.0,152.4,148.2,-540.9,293.1,182.1,-1228.8,-1373.4,-646.5,136.8,-6.9,-6.0,-294.6,-1979.4,-0.9,-140.4,-559.8,-49.5,0,3540,0,124,0, 
1.9700,-19.8,-474.3,-118.8,184.5,-25.5,7.2,-303.6,150.6,148.2,-528.0,302.4,188.4,-1230.3,-1392.3,-666.9,118.8,-6.9,-5.4,-289.2,-1974.3,-0.6,-136.2,-560.1,-45.3,0,3546,0,125,0, 
1.9733,-13.5,-463.2,-108.6,193.2,-13.8,14.7,-295.2,160.2,74.1,-508.8,316.2,196.2,-1215.3,-1368.0,-666.3,108.9,-7.2,-6.0,-276.0,-1963.2,-0.6,-120.9,-542.4,-33.0,0,3552,0,126,0, 
1.9767,-20.4,-467.4,-110.1,192.0,-14.1,18.3,-290.4,156.0,222.3,-509.1,316.5,197.7,-1223.4,-1397.7,-674.7,115.5,-7.2,-6.0,-278.7,-1962.9,-1.2,-116.1,-537.9,-27.3,0,3558,0,127,0, 
1.9800,-14.7,-470.1,-114.9,190.5,-18.3,18.0,-297.3,156.3,296.4,-519.3,307.2,192.6,-1225.8,-1379.7,-659.1,125.1,-6.9,-6.0,-286.2,-1967.1,-0.9,-125.1,-544.5,-35.1,0,3564,0,128,0, 
1.9833,-9.3,-466.2,-111.0,193.2,-15.6,20.1,-292.5,163.8,148.2,-516.6,306.0,194.4,-1223.7,-1376.7,-654.9,118.2,-6.9,-5.7,-282.3,-1965.9,-0.9,-120.3,-546.3,-33.9,0,3570,0,129,0, 
1.9867,-11.7,-461.4,-104.4,200.1,-15.0,27.0,-287.1,165.6,148.2,-512.1,315.0,198.9,-1218.3,-1374.9,-657.0,117.0,-7.2,-6.0,-279.6,-1962.0,-0.9,-111.3,-538.5,-27.0,0,3576,0,130,0, 
1.9900,-8.7,-464.4,-113.1,196.2,-19.5,17.7,-291.0,160.8,74.1,-517.8,303.9,195.0,-1219.2,-1375.5,-645.3,122.7,-7.2,-5.7,-285.3,-1965.6,-0.9,-126.6,-544.8,-38.4,0,3582,0,131,0, 
1.9933,-0.3,-450.6,-97.2,210.6,-2.4,30.6,-282.0,171.0,74.1,-506.1,321.6,210.9,-1205.1,-1371.6,-648.3,130.8,-6.9,-5.7,-273.3,-1948.8,-0.6,-111.9,-531.0,-21.6,0,3588,0,132,0, 
1.9967,2.7,-449.4,-93.0,215.1,0.0,33.0,-278.4,176.1,222.3,-504.3,327.9,210.6,-1202.7,-1368.0,-646.8,133.2,-6.9,-5.7,-272.4,-1947.3,-0.9,-105.9,-532.8,-20.4,0,3594,0,133,0, 
2.0000,-3.6,-453.6,-98.4,212.1,2.1,29.1,-278.7,171.9,296.4,-504.6,326.7,208.5,-1206.6,-1372.2,-643.8,130.2,-6.9,-5.7,-271.8,-1949.7,-0.6,-111.3,-540.9,-24.6,0,3600,0,134,0, 
2.0033,0.6,-449.7,-100.2,209.7,0.0,30.9,-273.3,177.6,148.2,-503.7,326.7,207.9,-1204.2,-1370.1,-645.0,139.8,-6.9,-6.0,-269.4,-1953.3,-0.6,-106.8,-533.7,-20.4,0,3606,0,135,0, 
2.0067,-9.0,-463.5,-108.3,197.4,-13.8,17.4,-286.8,159.0,148.2,-520.8,314.7,195.6,-1217.4,-1374.9,-642.0,118.8,-6.6,-5.7,-284.7,-1968.9,-0.6,-123.6,-546.9,-33.9,0,3612,0,136,0, 
2.0100,-7.2,-458.1,-105.3,202.5,-10.8,24.0,-280.2,164.7,370.5,-513.0,310.5,198.0,-1212.6,-1365.3,-651.6,123.9,-6.9,-6.0,-280.8,-1965.0,-0.9,-117.6,-532.5,-29.4,0,3618,0,137,0, 
2.0133,-9.9,-461.4,-104.7,202.2,-8.4,24.9,-284.4,156.0,222.3,-510.6,308.7,208.5,-1214.7,-1361.4,-642.6,121.2,-7.2,-5.4,-279.0,-1956.3,-0.6,-114.6,-537.3,-26.1,0,3624,0,138,0, 
2.0167,-5.4,-462.0,-109.2,201.3,-9.3,20.1,-285.9,157.5,222.3,-511.8,312.3,200.1,-1218.0,-1365.0,-646.2,121.8,-6.6,-5.7,-283.2,-1961.4,-0.9,-116.4,-539.7,-29.1,0,3630,0,139,0, 
2.0200,-6.6,-462.0,-101.7,201.9,-9.6,18.6,-287.1,153.0,74.1,-516.3,312.0,190.8,-1218.9,-1358.1,-641.7,117.9,-6.6,-6.3,-282.9,-1967.7,-0.9,-120.9,-550.2,-36.0,0,3636,0,140,0, 
2.0233,-9.6,-461.4,-110.7,196.5,-7.2,16.8,-292.5,153.9,74.1,-514.5,309.3,194.1,-1216.8,-1366.2,-648.0,116.4,-6.9,-6.0,-278.4,-1964.4,-0.9,-122.7,-548.4,-35.7,0,3642,0,141,0, 
2.0267,-11.1,-459.0,-102.6,203.4,-6.3,20.4,-286.5,158.1,148.2,-513.3,314.7,205.5,-1214.4,-1380.0,-649.8,126.9,-6.6,-5.7,-275.4,-1955.1,-0.6,-111.9,-538.2,-26.7,0,3648,0,142,0, 
2.0300,-12.6,-473.1,-116.7,186.9,-21.3,9.3,-291.0,144.9,148.2,-526.2,303.9,183.3,-1226.1,-1371.0,-634.2,129.9,-6.6,-5.4,-294.6,-1974.9,-0.9,-132.0,-553.8,-39.6,0,3654,0,143,0, 
2.0333,-15.0,-471.9,-113.7,189.6,-18.0,10.2,-287.1,148.5,222.3,-517.5,313.2,189.9,-1222.5,-1373.7,-652.5,121.5,-7.2,-6.3,-287.1,-1971.3,-0.3,-127.2,-549.6,-36.3,0,3660,0,144,0, 
2.0367,-18.6,-466.2,-106.8,195.9,-11.1,19.8,-284.4,158.4,74.1,-500.7,322.8,202.2,-1219.2,-1393.8,-678.0,118.8,-6.9,-5.7,-273.0,-1956.9,-0.9,-110.1,-540.6,-24.0,0,3666,0,145,0, 
2.0400,-16.5,-471.0,-115.5,189.3,-21.9,12.9,-290.4,149.7,74.1,-515.4,306.3,191.7,-1218.0,-1388.4,-655.8,115.5,-6.9,-5.7,-283.2,-1968.0,-0.6,-120.3,-546.6,-34.5,0,3672,0,146,0, 
2.0433,-12.6,-467.4,-111.0,190.2,-18.9,14.7,-295.2,152.1,296.4,-510.0,318.6,201.0,-1213.5,-1374.3,-660.0,113.1,-7.2,-6.0,-275.7,-1963.2,-0.9,-122.4,-547.5,-32.1,0,3678,0,147,0, 
2.0467,-8.4,-457.5,-104.7,200.1,-12.3,17.7,-289.5,153.9,296.4,-505.8,317.1,204.0,-1207.2,-1374.3,-661.5,124.2,-7.2,-6.0,-275.7,-1955.4,-0.6,-118.8,-532.8,-25.8,0,3684,0,148,0, 
2.0500,-6.0,-459.6,-101.4,198.6,-11.7,19.2,-286.2,159.0,148.2,-501.6,322.5,202.2,-1214.4,-1378.2,-657.0,132.0,-6.9,-6.3,-270.9,-1956.9,-0.9,-110.4,-535.2,-23.1,0,3690,0,149,0, 
2.0533,-8.7,-460.8,-105.6,196.8,-11.4,16.2,-290.4,150.9,74.1,-511.8,317.1,198.6,-1218.6,-1373.1,-657.0,122.4,-7.5,-5.7,-275.7,-1961.4,-0.6,-118.8,-544.5,-30.6,0,3696,0,150,0, 
2.0567,-10.5,-464.1,-103.2,198.9,-9.9,16.2,-293.4,158.1,222.3,-516.9,321.9,199.2,-1218.0,-1372.8,-657.3,121.5,-6.9,-6.0,-275.7,-1959.3,-0.9,-121.8,-545.4,-33.0,0,3702,0,151,0, 
2.0600,-0.6,-454.8,-94.8,208.5,-2.4,27.3,-288.3,162.0,222.3,-510.9,323.4,208.8,-1209.9,-1361.4,-644.1,131.4,-6.9,-5.7,-270.6,-1950.9,-0.9,-112.2,-529.5,-19.8,0,3708,0,152,0, 
2.0633,-4.5,-456.6,-95.4,207.9,-2.7,27.3,-281.7,157.5,296.4,-510.9,325.8,207.3,-1212.0,-1366.5,-649.2,131.1,-6.6,-6.0,-264.6,-1953.9,-0.6,-115.2,-532.2,-23.1,0,3714,0,153,0, 
2.0667,-4.8,-454.5,-95.4,210.0,-2.7,26.7,-283.2,161.1,222.3,-514.8,318.6,204.0,-1210.2,-1370.4,-648.0,132.9,-6.9,-6.0,-270.9,-1951.8,-0.9,-115.5,-531.6,-21.9,0,3720,0,154,0, 
2.0700,-6.9,-452.7,-94.5,211.2,-2.1,27.3,-278.7,163.5,74.1,-509.1,328.8,204.6,-1206.9,-1366.2,-640.8,135.0,-6.6,-5.7,-267.6,-1954.8,-0.6,-117.0,-533.1,-22.5,0,3726,0,155,0, 
2.0733,-13.2,-459.3,-108.9,202.2,-11.1,19.8,-290.7,154.5,148.2,-513.6,318.3,197.7,-1214.7,-1364.7,-640.2,131.4,-6.3,-5.7,-274.2,-1963.5,-0.9,-120.3,-535.8,-25.8,0,3732,0,156,0, 
2.0767,-11.7,-458.4,-99.6,200.7,-13.5,17.1,-284.1,156.0,296.4,-509.1,316.2,199.2,-1210.5,-1366.2,-638.4,138.0,-6.9,-5.4,-276.0,-1964.1,-0.6,-122.4,-536.7,-27.3,0,3738,0,157,0, 
2.0800,-12.6,-459.3,-104.7,202.2,-13.8,16.8,-290.7,155.7,148.2,-506.1,321.6,198.6,-1206.9,-1383.9,-652.8,136.2,-6.9,-5.7,-274.5,-1959.9,-0.6,-115.8,-536.4,-23.4,0,3744,0,158,0, 
2.0833,-12.3,-456.3,-102.0,202.5,-12.6,19.8,-288.3,158.1,74.1,-510.3,315.6,192.9,-1209.6,-1380.6,-636.9,142.2,-6.9,-5.7,-275.4,-1961.4,-0.3,-119.1,-532.5,-23.1,0,3750,0,159,0, 
2.0867,-13.2,-454.5,-105.6,200.7,-16.2,18.0,-290.4,152.4,148.2,-512.1,311.1,198.9,-1213.5,-1371.0,-644.7,124.8,-6.9,-5.4,-277.8,-1957.2,-0.6,-116.7,-531.6,-25.5,0,3756,0,160,0, 
2.0900,-19.5,-469.8,-123.0,181.2,-33.3,2.7,-299.1,141.9,148.2,-534.3,304.5,177.9,-1228.8,-1365.3,-623.4,132.0,-6.9,-5.7,-291.6,-1983.0,-0.6,-139.2,-548.1,-46.2,0,3762,0,161,0, 
2.0933,-18.0,-463.5,-117.3,189.9,-21.9,11.1,-295.2,142.8,222.3,-515.1,316.8,189.9,-1221.6,-1373.4,-654.9,121.8,-7.2,-6.0,-278.7,-1971.0,-0.3,-127.2,-542.4,-31.8,0,3768,0,162,0, 
2.0967,-24.0,-456.6,-104.1,204.0,-7.2,23.7,-281.1,153.9,296.4,-495.0,330.9,210.9,-1214.1,-1393.2,-684.0,128.7,-7.5,-6.0,-261.3,-1947.6,-0.6,-104.4,-525.0,-15.9,0,3774,0,163,0, 
2.1000,-21.3,-461.1,-110.1,198.9,-15.9,14.7,-284.1,146.1,148.2,-508.8,320.7,198.6,-1217.7,-1379.1,-663.3,137.4,-6.9,-5.7,-272.7,-1959.9,-0.3,-120.3,-529.2,-22.8,0,3780,0,164,0, 
2.1033,-12.6,-446.1,-99.0,210.3,-6.3,22.2,-289.5,153.3,296.4,-501.0,329.4,209.1,-1204.8,-1373.4,-652.8,136.2,-6.6,-6.3,-266.4,-1950.9,-0.6,-108.3,-531.6,-17.4,0,3786,0,165,0, 
2.1067,-12.6,-454.2,-112.8,198.6,-15.0,14.7,-295.2,147.9,-74.1,-515.4,316.5,198.9,-1212.0,-1365.0,-637.5,129.0,-6.9,-6.0,-277.8,-1959.3,-1.2,-121.2,-542.4,-27.9,0,3792,0,166,0, 
2.1100,-10.5,-449.4,-109.2,204.3,-11.4,18.9,-289.2,150.6,222.3,-511.5,321.6,204.0,-1210.2,-1363.2,-643.5,134.7,-6.9,-5.7,-273.0,-1956.0,-0.9,-112.5,-535.8,-22.2,0,3798,0,167,0, 
2.1133,-10.5,-447.3,-110.1,203.7,-12.0,21.3,-284.1,153.0,370.5,-511.8,314.4,198.0,-1210.2,-1356.9,-636.0,137.1,-6.6,-6.3,-278.7,-1961.7,-0.9,-114.3,-532.8,-23.7,0,3804,0,168,0, 
2.1167,-15.3,-450.9,-108.6,204.9,-10.5,25.8,-288.0,152.4,222.3,-510.3,309.6,198.0,-1212.9,-1375.8,-646.5,139.5,-6.9,-6.0,-276.0,-1955.4,-0.6,-113.4,-523.8,-19.5,0,3810,0,169,0, 
2.1200,-7.5,-442.2,-97.8,216.3,0.0,32.1,-276.9,158.4,74.1,-496.2,327.0,207.6,-1201.2,-1367.4,-649.5,141.3,-7.2,-6.0,-262.8,-1947.3,-0.9,-102.9,-512.4,-12.9,0,3816,0,170,0, 
2.1233,-5.7,-444.6,-101.4,211.8,-8.4,23.4,-284.1,156.3,296.4,-508.5,330.0,198.3,-1199.1,-1361.7,-642.6,132.0,-7.2,-6.0,-266.1,-1960.8,-0.6,-111.9,-525.9,-20.1,0,3822,0,171,0, 
2.1267,-11.1,-450.0,-109.8,205.2,-15.0,19.2,-286.2,151.8,148.2,-513.0,312.0,192.0,-1202.1,-1365.9,-639.0,136.2,-7.2,-6.0,-275.4,-1962.9,-0.6,-114.9,-526.8,-26.4,0,3828,0,172,0, 
2.1300,-10.5,-444.9,-101.4,205.8,-12.6,21.9,-285.9,154.2,370.5,-512.1,310.5,198.3,-1204.2,-1359.0,-639.3,138.6,-6.6,-6.0,-270.3,-1961.7,-0.3,-114.3,-524.1,-21.0,0,3834,0,173,0, 
2.1333,-18.0,-450.0,-104.7,200.4,-17.4,15.9,-287.4,146.4,296.4,-515.4,315.3,194.1,-1213.8,-1363.8,-639.6,130.5,-7.2,-5.7,-271.2,-1963.8,-0.9,-121.2,-527.4,-26.4,0,3840,0,174,0, 
2.1367,-18.6,-438.3,-88.2,220.5,0.3,31.5,-272.7,162.6,0.0,-497.7,338.7,211.8,-1205.1,-1376.7,-660.3,142.5,-6.9,-5.7,-254.4,-1948.5,-0.6,-99.9,-513.3,-6.0,0,3846,0,175,0, 
2.1400,-24.0,-448.8,-104.1,206.7,-12.0,19.5,-281.7,152.4,148.2,-510.6,312.0,201.0,-1214.4,-1374.9,-647.1,144.9,-6.9,-6.3,-275.1,-1956.0,-0.6,-114.9,-530.4,-20.4,0,3852,0,176,0, 
2.1433,-13.5,-441.0,-97.2,214.8,-4.2,24.9,-275.4,158.4,222.3,-501.3,325.8,213.0,-1203.0,-1357.8,-644.4,136.5,-6.9,-6.3,-264.0,-1946.4,-0.9,-108.9,-521.4,-16.8,0,3858,0,177,0, 
2.1467,-13.8,-443.7,-107.4,207.9,-9.6,20.7,-288.3,153.9,148.2,-510.3,315.3,201.6,-1208.1,-1353.6,-632.4,138.6,-6.9,-6.0,-268.2,-1955.1,-1.2,-115.2,-522.6,-22.2,0,3864,0,178,0, 
2.1500,-16.8,-445.5,-104.4,209.7,-5.1,26.1,-285.9,151.5,74.1,-502.2,321.6,206.7,-1208.7,-1371.3,-653.1,142.2,-7.2,-6.0,-263.4,-1948.5,-0.6,-108.9,-521.1,-18.3,0,3870,0,179,0, 
2.1533,-18.9,-446.4,-108.3,207.0,-7.5,23.4,-288.0,152.4,-148.2,-505.5,320.4,204.3,-1211.7,-1377.3,-652.5,141.0,-6.9,-5.7,-269.4,-1957.2,-1.2,-110.7,-534.6,-20.1,0,3876,0,180,0, 
2.1567,-16.5,-450.0,-113.7,201.3,-17.4,15.3,-292.8,145.5,222.3,-515.7,317.7,194.7,-1217.4,-1362.6,-636.3,140.1,-6.9,-6.3,-271.5,-1962.9,-0.6,-122.7,-542.1,-28.2,0,3882,0,181,0, 
2.1600,-21.6,-452.1,-112.2,200.4,-20.1,13.5,-290.1,150.0,370.5,-516.0,315.0,191.4,-1218.6,-1368.3,-650.1,132.0,-6.9,-6.3,-275.1,-1965.0,-0.9,-121.8,-540.6,-29.7,0,3888,0,182,0, 
2.1633,-18.0,-461.1,-120.9,192.6,-31.5,6.0,-295.8,139.5,296.4,-528.6,297.3,178.2,-1227.0,-1370.1,-636.0,136.2,-6.6,-6.0,-291.3,-1978.2,-0.6,-134.7,-549.3,-41.1,0,3894,0,183,0, 
2.1667,-21.9,-459.0,-117.6,195.9,-24.6,12.0,-296.4,149.4,74.1,-522.3,310.5,189.0,-1221.3,-1384.5,-651.3,149.1,-6.9,-5.7,-282.9,-1967.1,-0.9,-125.4,-533.4,-33.9,0,3900,0,184,0, 
2.1700,-15.3,-450.3,-111.6,202.8,-17.7,13.5,-292.8,154.5,222.3,-516.9,314.1,197.1,-1213.2,-1359.9,-644.7,131.1,-7.2,-6.0,-277.5,-1957.2,-0.6,-123.3,-543.9,-30.6,0,3906,0,185,0, 
2.1733,-25.8,-458.1,-117.3,200.1,-18.9,10.2,-294.6,145.8,148.2,-510.9,310.2,194.7,-1221.9,-1389.6,-661.2,128.4,-6.9,-6.0,-276.9,-1962.0,-0.3,-125.4,-538.8,-31.5,0,3912,0,186,0, 
2.1767,-24.0,-460.8,-120.9,197.1,-20.1,6.0,-292.2,145.5,296.4,-522.9,307.5,187.8,-1227.3,-1372.8,-642.9,131.4,-6.9,-5.7,-283.5,-1968.9,-0.6,-132.3,-546.0,-39.0,0,3918,0,187,0, 
2.1800,-24.9,-463.5,-129.3,192.3,-24.0,6.6,-296.7,146.7,296.4,-527.7,304.8,182.1,-1230.0,-1367.1,-633.9,136.8,-7.2,-6.0,-285.9,-1975.8,-0.6,-132.3,-545.1,-39.6,0,3924,0,188,0, 
2.1833,-27.3,-460.8,-117.0,195.0,-24.6,13.8,-292.5,146.1,148.2,-526.5,301.2,180.9,-1224.0,-1365.6,-649.8,141.6,-6.6,-5.7,-287.1,-1974.6,-0.9,-134.7,-538.5,-36.9,0,3930,0,189,0, 
2.1867,-32.4,-464.1,-117.6,197.7,-23.4,14.1,-287.1,145.2,0.0,-525.3,301.2,184.2,-1230.6,-1378.2,-654.0,142.8,-6.6,-5.7,-288.9,-1972.2,-0.9,-130.8,-542.7,-34.5,0,3936,0,190,0, 
2.1900,-26.7,-457.2,-111.9,203.7,-16.5,19.2,-283.5,147.9,74.1,-512.4,308.7,192.3,-1220.1,-1374.9,-651.6,139.2,-6.9,-5.7,-279.3,-1962.3,-0.6,-119.7,-536.1,-23.4,0,3942,0,191,0, 
2.1933,-27.3,-455.7,-112.5,205.8,-17.1,18.0,-281.1,148.5,148.2,-512.4,314.7,192.6,-1220.1,-1370.7,-648.3,133.8,-6.6,-5.4,-277.2,-1961.4,-0.9,-117.0,-531.6,-24.3,0,3948,0,192,0, 
2.1967,-28.5,-456.6,-111.3,208.2,-14.1,21.3,-285.9,149.1,296.4,-513.0,311.4,192.9,-1220.7,-1383.3,-661.8,136.5,-6.9,-6.0,-274.2,-1959.6,-0.9,-117.6,-529.5,-22.2,0,3954,0,193,0, 
2.2000,-27.9,-455.7,-114.0,207.0,-18.0,15.6,-280.8,151.2,370.5,-513.3,307.2,190.8,-1223.4,-1389.6,-661.8,146.4,-6.9,-5.4,-280.2,-1962.0,-0.6,-119.1,-533.1,-22.5,0,3960,0,194,0, 
2.2033,-29.1,-453.9,-113.1,207.3,-18.0,19.5,-278.1,152.1,-74.1,-513.0,312.6,192.0,-1220.1,-1393.2,-661.5,145.2,-7.2,-5.7,-277.8,-1961.7,-0.6,-114.3,-531.6,-20.7,0,3966,0,195,0, 
2.2067,-24.3,-452.7,-112.5,208.8,-17.4,23.7,-284.7,156.9,74.1,-504.6,318.9,195.6,-1216.2,-1381.5,-657.6,142.5,-6.9,-6.0,-274.8,-1956.9,-0.6,-112.2,-524.1,-20.7,0,3972,0,196,0, 
2.2100,-26.7,-460.2,-120.3,199.8,-27.6,15.0,-289.8,151.2,222.3,-518.1,308.1,185.4,-1222.8,-1382.7,-649.2,143.7,-6.9,-6.0,-279.6,-1968.3,-0.6,-119.1,-537.9,-32.4,0,3978,0,197,0, 
2.2133,-24.3,-460.2,-123.0,193.8,-34.5,7.5,-292.5,148.5,296.4,-531.0,297.9,181.8,-1226.7,-1373.1,-639.6,138.9,-6.9,-5.7,-292.2,-1975.5,-0.6,-129.0,-549.0,-39.6,0,3984,0,198,0, 
2.2167,-21.6,-461.1,-130.8,187.8,-38.4,-2.4,-297.3,140.7,148.2,-538.2,296.7,168.9,-1223.4,-1357.2,-623.4,133.5,-7.2,-6.0,-293.7,-1984.5,-0.3,-142.2,-550.8,-47.1,0,3990,0,199,0, 
2.2200,-20.4,-454.2,-115.5,202.8,-20.4,14.4,-294.9,153.6,74.1,-511.5,312.3,191.1,-1217.1,-1373.1,-643.5,132.6,-6.9,-6.0,-277.8,-1963.2,-0.6,-126.6,-540.0,-32.1,0,3996,0,200,0, 
2.2233,-24.6,-453.0,-114.6,205.2,-17.1,15.3,-287.4,154.8,148.2,-506.7,315.3,197.7,-1224.6,-1387.8,-652.5,149.4,-6.6,-6.0,-274.8,-1956.3,-1.2,-117.6,-532.8,-27.0,0,4002,0,201,0, 
2.2267,-24.3,-464.4,-124.2,192.9,-32.1,5.4,-297.9,144.3,222.3,-530.4,290.7,177.0,-1236.9,-1385.4,-631.5,162.0,-6.9,-5.7,-294.6,-1976.7,-0.9,-135.3,-554.4,-41.4,0,4008,0,202,0, 
2.2300,-21.6,-458.7,-115.5,205.8,-21.3,13.2,-288.6,152.4,148.2,-515.4,309.0,187.8,-1232.7,-1379.7,-648.3,153.6,-7.2,-6.3,-276.3,-1966.5,-0.9,-123.0,-543.3,-32.4,0,4014,0,203,0, 
2.2333,-13.5,-443.7,-101.1,221.1,-6.3,29.1,-284.7,163.5,222.3,-492.6,323.4,204.9,-1216.2,-1375.2,-664.2,132.6,-6.9,-5.7,-267.0,-1948.2,-0.3,-103.5,-537.9,-18.6,0,4020,0,204,0, 
2.2367,-14.7,-452.7,-112.5,212.4,-20.1,18.6,-290.7,149.1,0.0,-516.0,310.2,187.2,-1224.9,-1359.3,-628.5,133.8,-6.6,-6.3,-280.2,-1963.5,-0.9,-120.0,-540.3,-30.9,0,4026,0,205,0, 
2.2400,-19.2,-457.8,-122.1,207.0,-28.2,9.3,-297.0,144.9,148.2,-525.3,294.0,178.5,-1230.0,-1356.6,-624.3,129.9,-6.9,-6.0,-291.0,-1974.9,-0.6,-132.9,-553.8,-40.8,0,4032,0,206,0, 
2.2433,-17.1,-451.8,-119.7,217.8,-20.4,22.2,-285.9,154.2,222.3,-508.8,306.0,192.0,-1221.3,-1365.6,-636.3,148.5,-6.6,-5.7,-275.7,-1960.5,-0.9,-115.2,-539.4,-26.4,0,4038,0,207,0, 
2.2467,-27.3,-460.2,-122.7,212.4,-22.2,16.5,-289.2,152.1,222.3,-511.8,310.2,190.2,-1230.9,-1390.5,-657.9,169.5,-6.3,-6.0,-282.0,-1964.1,-0.3,-125.7,-530.4,-29.1,0,4044,0,208,0, 
2.2500,-21.6,-453.3,-119.7,215.7,-18.6,17.7,-290.1,150.9,148.2,-512.1,311.7,189.6,-1224.3,-1372.5,-648.6,154.8,-6.9,-6.0,-278.4,-1960.8,-0.6,-120.9,-527.7,-30.3,0,4050,0,209,0, 
2.2533,-27.0,-456.9,-125.4,207.6,-29.7,12.0,-294.3,148.2,74.1,-517.5,305.7,177.9,-1228.5,-1382.4,-649.2,135.0,-6.6,-6.0,-288.6,-1975.2,-0.6,-134.7,-533.7,-37.5,0,4056,0,210,0, 
2.2567,-22.5,-447.0,-113.1,216.9,-19.2,19.8,-285.6,152.4,148.2,-507.0,316.5,187.8,-1223.4,-1388.7,-663.9,137.4,-6.9,-5.7,-276.3,-1965.3,-0.6,-118.8,-531.3,-27.6,0,4062,0,211,0, 
2.2600,-24.3,-447.3,-112.8,217.5,-18.3,20.1,-294.0,154.8,148.2,-507.3,319.8,194.1,-1220.7,-1381.8,-666.3,131.7,-6.9,-5.7,-270.0,-1961.7,-0.6,-111.0,-529.2,-25.5,0,4068,0,212,0, 
2.2633,-24.3,-449.4,-119.1,214.2,-20.1,18.9,-294.9,150.3,370.5,-516.0,304.8,191.1,-1221.9,-1377.0,-651.0,142.2,-6.9,-6.0,-281.7,-1967.7,-0.3,-119.7,-535.5,-30.3,0,4074,0,213,0, 
2.2667,-25.8,-458.4,-126.9,206.7,-30.6,10.5,-297.3,144.3,74.1,-526.5,300.6,176.7,-1233.9,-1389.3,-653.7,130.5,-6.9,-5.7,-288.9,-1977.3,-0.9,-127.5,-545.4,-38.4,0,4080,0,214,0, 
