Time,P3,C3,F3,Fz,F4,C4,P4,Cz,CM,A1,Fp1,Fp2,T3,T5,O1,O2,X3,X2,F7,F8,X1,A2,T6,T4,Trigger,Time_Offset,ADC_Status,ADC_Sequence,Event,Comments
0.0033,564.6,146.4,324.3,-893.7,-792.0,-247.5,-986.1,195.9,-3112.2,-849.3,-726.0,-862.8,592.8,7372.2,1209.6,-1963.2,-6.9,-6.0,-1123.5,-1064.1,-0.6,-759.9,720.9,516.0,0,6,0,43,0, 
0.0067,373.2,-30.6,207.3,-1446.6,-1347.0,106.5,-1541.7,170.1,-3408.6,-1412.4,-1285.8,-1422.3,307.5,7311.9,1776.0,-2043.0,-6.9,-6.0,-1677.9,-920.4,-1.2,-1320.6,810.6,81.0,0,12,0,44,0, 
0.0100,318.9,-151.5,166.8,-1573.5,-1474.2,345.9,-1666.5,64.8,-3705.0,-1535.4,-1413.6,-1554.0,225.0,7265.1,2277.6,-2115.3,-7.2,-6.0,-1810.5,-1335.6,-1.2,-1449.9,858.9,-27.0,0,18,0,45,0, 
0.0133,364.5,-138.3,155.4,-1125.0,-1027.8,105.0,-1223.7,-15.3,-3705.0,-1089.0,-962.4,-1106.1,289.8,7337.1,1985.1,-2170.5,-6.9,-5.7,-1355.4,-1662.6,-0.9,-999.3,832.5,337.8,0,24,0,46,0, 
0.0167,459.3,39.6,259.2,-700.2,-603.3,-356.7,-800.7,-171.9,-3260.4,-656.1,-537.9,-675.9,593.1,7347.9,1274.4,-2054.4,-7.5,-6.0,-932.1,-1568.7,-0.3,-571.5,730.5,710.1,0,30,0,47,0, 
0.0200,510.3,97.2,347.7,-838.5,-741.0,-281.7,-942.0,-76.8,-3186.3,-799.5,-682.2,-821.4,549.0,7350.0,1185.3,-2013.3,-6.6,-6.3,-1076.7,-1056.6,-0.9,-720.6,780.9,597.3,0,36,0,48,0, 
0.0233,408.3,-118.2,277.8,-1433.4,-1333.2,42.9,-1528.2,3.3,-3630.9,-1397.1,-1276.5,-1412.1,382.2,7262.1,1736.1,-2098.2,-7.2,-6.0,-1673.4,-924.0,-0.3,-1312.2,957.3,121.5,0,42,0,49,0, 
0.0267,317.1,-264.0,162.3,-1608.9,-1507.8,296.7,-1700.1,13.8,-3705.0,-1573.2,-1451.1,-1588.2,135.0,7163.7,2207.1,-2181.0,-6.9,-6.0,-1849.8,-1409.1,-0.6,-1485.0,1038.6,-15.6,0,48,0,50,0, 
0.0300,415.2,-160.5,259.8,-1144.8,-1048.2,147.3,-1238.7,-16.8,-3705.0,-1108.8,-993.3,-1133.4,366.3,7268.7,2011.5,-2171.7,-7.2,-5.7,-1387.8,-1550.1,-0.6,-1023.9,1044.0,337.2,0,54,0,51,0, 
0.0333,519.9,-7.5,388.2,-695.7,-597.6,-208.8,-786.9,-77.4,-3334.5,-656.7,-544.2,-688.8,638.4,7271.1,1366.2,-2075.1,-6.9,-6.0,-936.3,-1525.5,-1.2,-569.1,898.2,727.5,0,60,0,52,0, 
0.0367,503.7,-30.0,434.7,-911.4,-819.9,-234.3,-1006.2,-54.9,-3334.5,-876.3,-764.7,-906.0,582.3,7248.0,1115.4,-2064.9,-6.9,-6.0,-1157.7,-1060.2,-0.6,-788.7,723.6,538.2,0,66,0,53,0, 
0.0400,324.6,-213.3,328.5,-1531.2,-1429.8,55.5,-1617.0,-37.5,-3556.8,-1495.8,-1378.8,-1517.4,216.0,7193.7,1597.2,-2212.8,-7.2,-6.0,-1771.5,-1068.3,-0.9,-1406.4,825.9,35.1,0,72,0,54,0, 
0.0433,276.0,-255.0,248.1,-1686.0,-1587.0,380.1,-1772.7,-60.9,-3779.1,-1655.7,-1532.7,-1671.6,100.5,7149.3,2125.8,-2275.2,-6.9,-6.3,-1924.5,-1309.2,-0.9,-1560.9,1004.7,-95.4,0,78,0,55,0, 
0.0467,360.6,-162.6,247.2,-1191.6,-1089.6,307.5,-1281.0,-38.4,-3556.8,-1158.9,-1035.3,-1176.0,227.7,7235.7,1802.4,-2188.5,-7.8,-6.3,-1425.3,-1670.1,-0.9,-1064.7,1036.2,298.8,0,84,0,56,0, 
0.0500,423.0,-71.4,326.1,-780.6,-678.6,-52.8,-869.1,-108.0,-3408.6,-739.8,-629.4,-761.7,502.2,7179.6,1040.7,-2100.3,-6.9,-5.7,-1024.2,-1587.9,-0.9,-654.6,756.9,653.7,0,90,0,57,0, 
0.0533,463.8,-51.9,383.1,-994.8,-890.4,-114.9,-1081.5,-108.0,-3334.5,-953.1,-838.2,-977.7,486.0,7132.5,927.3,-2053.8,-7.5,-6.3,-1231.5,-1188.6,-1.2,-867.6,721.2,486.3,0,96,0,58,0, 
0.0567,427.8,-102.6,277.5,-1555.8,-1451.4,239.4,-1638.0,-75.3,-3482.7,-1503.6,-1399.8,-1539.3,250.5,7070.4,1490.1,-2121.3,-6.9,-5.7,-1796.1,-1056.6,-1.2,-1430.4,857.7,73.5,0,102,0,59,0, 
0.0600,360.6,-167.7,177.9,-1709.7,-1607.7,501.0,-1782.3,-125.1,-3630.9,-1667.7,-1555.8,-1691.7,84.3,7127.1,1947.3,-2254.8,-7.2,-6.0,-1949.4,-1372.2,-0.6,-1578.0,1056.9,-64.2,0,108,0,60,0, 
0.0633,475.8,-71.4,239.1,-1138.5,-1038.0,351.9,-1215.0,-83.7,-3630.9,-1093.8,-982.5,-1117.5,284.1,7174.2,1703.4,-2183.4,-6.9,-6.0,-1372.2,-1736.4,-0.9,-999.0,1034.1,392.7,0,114,0,61,0, 
0.0667,636.0,56.7,373.5,-678.0,-577.5,1.8,-751.5,-45.6,-3260.4,-630.9,-525.0,-657.3,506.4,7238.7,992.4,-2039.1,-7.2,-6.6,-914.1,-1428.6,-0.6,-535.5,881.7,787.5,0,120,0,62,0, 
0.0700,612.9,118.2,424.5,-837.0,-735.6,-3.3,-909.3,86.4,-3186.3,-792.0,-682.5,-814.2,423.3,7283.4,902.1,-1939.2,-6.6,-5.7,-1072.8,-1096.2,-0.6,-693.3,901.5,669.6,0,126,0,63,0, 
0.0733,474.6,-16.2,386.4,-1411.8,-1312.5,268.8,-1484.1,3.3,-3408.6,-1374.0,-1261.8,-1394.7,224.7,7169.4,1424.1,-2071.5,-6.9,-6.3,-1654.5,-1003.2,-0.9,-1278.3,919.8,204.6,0,132,0,64,0, 
0.0767,374.4,-216.3,297.6,-1601.4,-1494.3,530.4,-1662.0,-72.9,-3705.0,-1547.7,-1440.0,-1574.4,40.2,7094.1,1929.3,-2155.5,-6.6,-6.0,-1833.3,-1290.0,-0.6,-1458.0,929.1,22.2,0,138,0,65,0, 
0.0800,545.7,-99.0,351.9,-1104.3,-999.6,383.4,-1170.0,-73.5,-3482.7,-1054.5,-949.2,-1082.1,210.3,7127.7,1607.7,-2151.0,-6.6,-6.3,-1339.8,-1570.5,-0.9,-964.8,1064.4,416.4,0,144,0,66,0, 
0.0833,632.7,99.0,390.6,-644.4,-543.0,125.7,-714.3,41.7,-3260.4,-598.8,-491.7,-619.5,467.4,7192.8,1004.1,-1992.0,-6.9,-5.7,-882.0,-1420.8,-0.9,-507.3,926.1,795.6,0,150,0,67,0, 
0.0867,619.5,83.1,368.7,-870.3,-764.7,21.6,-933.6,71.4,-3186.3,-827.4,-717.6,-842.4,344.4,7148.1,848.4,-1949.7,-7.2,-6.0,-1108.2,-1044.0,-0.3,-731.1,763.8,611.7,0,156,0,68,0, 
0.0900,497.1,-51.9,283.2,-1431.0,-1329.9,364.5,-1495.5,81.9,-3482.7,-1385.7,-1282.2,-1413.6,93.3,7092.0,1394.1,-2099.1,-6.6,-5.7,-1673.4,-996.0,-0.9,-1295.1,852.6,183.9,0,162,0,69,0, 
0.0933,452.7,-105.3,205.5,-1531.5,-1431.6,545.4,-1594.8,-0.6,-3630.9,-1480.2,-1378.5,-1507.2,-11.7,7076.7,1804.8,-2179.5,-6.6,-5.7,-1771.5,-1350.9,-0.6,-1392.0,979.2,103.5,0,168,0,70,0, 
0.0967,536.7,-50.1,267.0,-984.0,-889.8,337.8,-1047.6,-79.8,-3408.6,-933.3,-832.2,-959.4,205.5,7209.0,1504.2,-2058.0,-6.9,-5.7,-1224.3,-1547.1,-0.9,-837.9,999.0,520.5,0,174,0,71,0, 
0.1000,770.1,204.3,457.5,-474.9,-373.5,8.4,-546.0,10.5,-3186.3,-426.6,-318.3,-447.0,434.1,7350.9,916.5,-1871.7,-7.2,-5.7,-713.1,-1230.3,-0.6,-331.8,937.5,978.9,0,180,0,72,0, 
0.1033,722.1,208.5,498.0,-663.3,-559.5,-5.7,-730.5,26.1,-3038.1,-624.3,-508.8,-635.1,434.1,7254.6,774.3,-1824.6,-6.9,-5.7,-898.5,-947.1,-1.2,-523.8,860.1,831.3,0,186,0,73,0, 
0.1067,516.9,56.7,314.4,-1241.7,-1135.8,126.0,-1310.7,-4.2,-3334.5,-1200.9,-1089.6,-1211.7,121.5,7126.5,1296.0,-1909.5,-6.9,-6.0,-1484.7,-875.4,-0.6,-1100.4,875.1,382.8,0,192,0,74,0, 
0.1100,450.0,-24.6,222.6,-1424.7,-1319.7,481.5,-1499.1,-6.0,-3556.8,-1380.6,-1272.3,-1391.1,54.0,7113.6,1774.2,-2056.8,-6.6,-5.7,-1666.2,-1157.7,-0.9,-1284.9,1017.9,210.3,0,198,0,75,0, 
0.1133,518.4,88.8,260.4,-870.9,-767.1,307.2,-939.9,-53.7,-3334.5,-824.4,-719.1,-840.9,259.8,7177.5,1590.0,-1946.7,-6.9,-5.4,-1110.6,-1424.7,-0.6,-733.5,1048.8,668.4,0,204,0,76,0, 
0.1167,632.1,315.9,386.4,-435.0,-334.8,-63.3,-510.3,-18.6,-3112.2,-390.6,-284.7,-408.6,461.4,7347.6,1023.0,-1857.9,-6.9,-6.0,-674.7,-1237.5,-0.9,-299.1,918.6,1038.3,0,210,0,77,0, 
0.1200,635.7,230.1,392.1,-593.1,-487.2,-223.5,-669.3,16.2,-2964.0,-550.8,-441.0,-564.6,413.7,7292.7,843.0,-1774.2,-6.9,-6.0,-831.6,-871.5,-0.9,-453.9,818.1,889.8,0,216,0,78,0, 
0.1233,557.1,180.9,360.6,-1059.6,-946.5,173.7,-1123.8,85.2,-2964.0,-1015.2,-905.1,-1030.5,287.1,7303.8,1467.0,-1788.9,-6.6,-6.0,-1296.9,-700.2,-0.6,-915.3,947.7,520.8,0,222,0,79,0, 
0.1267,544.2,54.6,243.0,-1151.7,-1050.3,340.2,-1218.3,57.6,-3186.3,-1104.9,-999.6,-1121.7,147.6,7339.2,1874.1,-1798.8,-6.9,-5.7,-1393.5,-990.3,-1.2,-1014.3,1003.8,431.7,0,228,0,80,0, 
0.1300,587.1,56.4,211.5,-737.4,-630.9,181.5,-804.0,-48.0,-3186.3,-684.0,-582.0,-702.9,329.1,7363.2,1475.7,-1840.2,-6.9,-6.0,-971.7,-1311.0,-0.6,-590.1,1007.1,766.2,0,234,0,81,0, 
0.1333,728.7,176.1,375.0,-249.0,-149.4,-164.7,-324.6,-68.7,-2889.9,-194.7,-91.2,-210.6,518.7,7327.8,767.1,-1718.1,-7.2,-5.7,-480.0,-1174.5,-0.9,-105.0,856.5,1184.1,0,240,0,82,0, 
0.1367,666.3,189.3,335.7,-457.5,-350.7,-217.2,-531.9,-9.6,-2889.9,-402.9,-298.8,-424.2,505.5,7275.0,640.2,-1692.3,-7.2,-6.0,-690.6,-692.4,-0.6,-315.0,827.7,1030.2,0,246,0,83,0, 
0.1400,562.5,48.3,218.7,-1066.5,-960.0,87.9,-1132.5,115.2,-3038.1,-1016.1,-904.5,-1028.1,325.2,7221.0,1269.3,-1815.6,-6.6,-5.7,-1293.0,-564.0,-0.9,-918.9,967.5,541.2,0,252,0,84,0, 
0.1433,540.9,-26.1,149.4,-1194.0,-1088.7,311.7,-1266.3,53.1,-3260.4,-1146.3,-1036.8,-1158.0,176.1,7181.4,1657.2,-1899.6,-6.9,-6.0,-1430.4,-1034.7,-0.6,-1050.0,1032.0,436.5,0,258,0,85,0, 
0.1467,678.0,167.4,234.9,-658.8,-558.6,156.0,-734.1,45.0,-3112.2,-609.3,-499.8,-619.5,441.9,7346.1,1447.2,-1838.4,-6.6,-5.7,-891.6,-1299.6,-0.9,-512.1,1067.7,872.4,0,264,0,86,0, 
0.1500,788.7,179.7,211.5,-281.7,-176.1,-310.8,-360.6,-21.9,-3038.1,-230.7,-124.2,-242.4,495.9,7319.1,689.1,-1785.9,-6.9,-5.7,-515.7,-1155.0,-0.9,-132.6,884.7,1162.2,0,270,0,87,0, 
0.1533,832.2,308.7,290.7,-447.6,-342.6,-283.8,-522.6,83.4,-2889.9,-404.4,-292.2,-411.9,500.4,7399.5,586.5,-1716.9,-6.9,-5.7,-682.8,-772.8,-0.9,-303.9,794.4,1044.6,0,276,0,88,0, 
0.1567,652.5,100.8,165.3,-975.6,-869.7,-24.0,-1044.0,80.1,-2964.0,-929.1,-821.4,-940.8,189.6,7300.8,1032.0,-1777.2,-6.9,-5.4,-1214.1,-593.4,-0.6,-827.4,796.5,610.2,0,282,0,89,0, 
0.1600,548.4,-123.0,83.7,-1167.0,-1065.0,198.0,-1236.6,2.1,-3260.4,-1122.9,-1014.0,-1132.2,74.4,7335.3,1545.6,-1929.3,-7.2,-5.7,-1403.7,-912.6,-0.6,-1026.3,912.0,452.4,0,288,0,90,0, 
0.1633,694.5,17.7,93.9,-658.5,-561.0,-3.6,-734.1,-30.0,-3186.3,-616.2,-509.4,-623.7,189.9,7386.9,1277.4,-1838.1,-6.9,-6.0,-900.9,-1252.5,-0.3,-517.2,898.2,866.4,0,294,0,91,0, 
0.1667,826.5,186.9,204.9,-184.5,-88.2,-315.9,-265.2,2.1,-2815.8,-138.3,-29.7,-147.3,452.7,7406.7,540.9,-1713.3,-6.9,-6.0,-422.4,-1095.3,-0.6,-44.1,752.1,1242.6,0,300,0,92,0, 
0.1700,746.1,230.7,200.1,-393.6,-288.9,-414.6,-468.0,34.8,-2741.7,-344.1,-238.5,-354.9,411.0,7358.1,396.6,-1677.9,-6.9,-6.0,-630.6,-652.5,-0.9,-249.6,724.8,1099.2,0,306,0,93,0, 
0.1733,689.7,154.5,117.0,-918.6,-817.2,-3.9,-995.7,83.1,-2964.0,-871.5,-768.3,-887.1,227.1,7342.5,943.2,-1755.0,-6.6,-6.0,-1161.6,-492.9,-0.9,-776.1,822.6,681.6,0,312,0,94,0, 
0.1767,564.9,-27.0,-39.0,-1090.2,-983.7,183.9,-1167.6,-37.8,-3186.3,-1046.4,-943.2,-1058.4,116.4,7290.6,1380.0,-1853.7,-6.9,-5.7,-1332.9,-916.2,-0.6,-948.3,959.1,537.9,0,318,0,95,0, 
0.1800,618.9,102.6,96.3,-569.7,-465.9,154.2,-653.4,-24.6,-3112.2,-525.0,-421.8,-534.3,312.0,7416.3,1162.2,-1782.0,-7.2,-6.0,-809.4,-1163.7,-1.2,-430.5,951.3,971.7,0,324,0,96,0, 
0.1833,784.2,175.2,195.6,-60.0,43.8,-240.0,-136.5,-54.6,-2593.5,-14.1,88.2,-20.7,518.4,7466.4,486.3,-1629.3,-7.2,-6.3,-302.4,-1026.9,-0.9,81.3,836.1,1396.8,0,330,0,97,0, 
0.1867,721.2,156.3,190.2,-291.3,-186.9,-293.4,-373.8,-76.8,-2741.7,-252.0,-142.8,-257.7,427.8,7365.6,276.0,-1642.8,-6.9,-5.7,-532.5,-615.3,-0.9,-153.6,650.1,1230.3,0,336,0,98,0, 
0.1900,600.6,72.9,106.8,-882.9,-784.2,-22.5,-965.7,-0.6,-2889.9,-840.6,-738.3,-858.3,202.5,7370.1,871.2,-1719.6,-6.6,-6.0,-1125.9,-514.8,-1.2,-747.3,802.5,744.6,0,342,0,99,0, 
0.1933,476.7,-27.9,-0.3,-993.3,-890.4,213.3,-1070.1,-48.6,-3038.1,-939.3,-846.6,-963.3,73.5,7342.2,1286.4,-1713.3,-6.9,-5.7,-1238.4,-904.2,-0.3,-856.5,779.1,665.1,0,348,0,100,0, 
0.1967,559.8,78.0,15.6,-512.7,-412.5,92.7,-597.6,-126.6,-3038.1,-471.3,-366.3,-480.9,297.6,7361.4,1076.1,-1685.4,-6.9,-6.0,-750.6,-1113.9,-1.2,-381.0,763.5,1012.8,0,354,0,101,0, 
0.2000,577.2,260.7,132.9,-133.8,-35.7,-305.4,-214.5,-117.9,-2889.9,-73.2,15.0,-96.3,427.8,7352.1,310.8,-1627.8,-6.9,-6.0,-372.3,-969.9,-0.6,11.7,621.6,1344.6,0,360,0,102,0, 
0.2033,644.1,245.7,159.3,-383.4,-287.4,-342.0,-463.8,-77.7,-2741.7,-329.7,-238.8,-348.9,418.8,7369.8,228.6,-1660.8,-6.6,-6.0,-624.3,-611.7,-1.2,-243.9,582.6,1141.8,0,366,0,103,0, 
0.2067,560.1,48.0,139.8,-930.6,-832.2,-90.0,-1008.3,-46.2,-2889.9,-874.8,-787.8,-893.1,267.0,7361.1,731.4,-1766.4,-6.6,-5.7,-1178.4,-555.3,-0.6,-790.2,554.1,714.6,0,372,0,104,0, 
0.2100,487.8,-108.0,-30.3,-1106.4,-1005.9,98.1,-1181.4,-69.0,-3186.3,-1044.6,-959.4,-1062.6,165.9,7248.6,1136.1,-1876.2,-7.2,-6.0,-1346.1,-888.6,-0.9,-960.9,625.5,564.6,0,378,0,105,0, 
0.2133,577.5,-5.7,-9.6,-593.1,-487.5,-27.0,-664.5,-78.0,-3112.2,-525.3,-441.9,-546.3,308.1,7374.0,913.8,-1821.0,-6.9,-5.7,-828.0,-1158.3,-0.6,-448.5,633.9,992.1,0,384,0,106,0, 
0.2167,633.9,152.4,32.1,-158.7,-56.7,-423.3,-229.2,-144.3,-2889.9,-94.8,-9.9,-119.4,462.3,7459.2,172.5,-1756.8,-6.6,-6.0,-394.2,-1097.4,-0.9,-10.5,544.8,1350.0,0,390,0,107,0, 
0.2200,622.5,155.7,41.4,-324.3,-216.3,-527.7,-394.5,-8.1,-2593.5,-267.6,-176.4,-289.8,371.1,7416.3,118.8,-1711.2,-6.6,-5.7,-562.8,-669.3,-0.9,-184.8,488.1,1215.6,0,396,0,108,0, 
0.2233,525.9,81.0,-75.6,-882.9,-781.2,-255.6,-953.1,23.1,-2815.8,-825.9,-735.6,-850.8,150.3,7394.7,661.2,-1824.6,-6.9,-5.7,-1122.3,-552.3,-0.9,-736.5,565.2,789.0,0,402,0,109,0, 
0.2267,383.1,-12.3,-129.6,-1075.2,-969.9,21.3,-1154.1,-68.7,-3260.4,-1023.9,-931.8,-1040.1,-37.2,7301.1,1068.9,-1933.8,-7.5,-6.0,-1318.8,-829.8,-0.6,-940.8,688.5,624.6,0,408,0,110,0, 
0.2300,563.7,106.8,-54.6,-576.3,-478.5,-79.5,-655.5,-58.2,-3038.1,-514.8,-428.7,-543.6,237.6,7368.3,858.9,-1949.4,-6.9,-5.7,-810.0,-1212.9,-0.6,-433.8,759.3,1035.0,0,414,0,111,0, 
0.2333,656.4,191.1,54.9,-89.7,14.1,-390.9,-172.2,-39.0,-2667.6,-36.0,57.0,-49.2,548.1,7416.9,136.8,-1811.1,-6.9,-5.7,-331.8,-1077.9,-0.3,55.5,668.4,1428.9,0,420,0,112,0, 
0.2367,635.4,339.9,60.6,-239.7,-135.3,-512.1,-320.4,-68.7,-2667.6,-187.8,-97.5,-198.3,495.3,7354.5,-94.5,-1762.2,-6.9,-5.7,-484.2,-638.7,-0.6,-95.4,572.1,1386.0,0,426,0,113,0, 
0.2400,482.1,117.0,27.3,-819.6,-717.6,-177.3,-902.1,-38.1,-2964.0,-780.9,-680.7,-789.3,299.7,7330.8,546.6,-1825.8,-7.2,-5.7,-1068.3,-397.8,-0.9,-682.5,621.0,882.0,0,432,0,114,0, 
0.2433,435.3,59.7,0.6,-951.6,-844.2,45.9,-1032.6,-39.0,-3112.2,-905.1,-807.6,-915.3,188.1,7428.6,1014.9,-1921.5,-6.6,-6.0,-1196.4,-862.2,-0.9,-810.0,742.2,768.9,0,438,0,115,0, 
0.2467,492.3,227.4,43.8,-440.4,-338.4,8.1,-528.6,-79.2,-3038.1,-397.5,-301.2,-403.8,372.9,7479.9,802.2,-1858.5,-6.6,-6.0,-690.0,-1047.3,-0.6,-306.0,788.7,1185.3,0,444,0,116,0, 
0.2500,589.5,309.0,129.9,1.2,103.5,-418.2,-86.4,-108.6,-2593.5,47.4,141.9,39.6,498.9,7507.8,15.0,-1797.9,-6.9,-5.4,-246.9,-933.0,-0.9,135.3,625.8,1533.6,0,450,0,117,0, 
0.2533,610.8,412.2,180.9,-188.4,-86.7,-372.0,-275.4,-42.9,-2667.6,-149.4,-48.0,-150.0,470.1,7470.9,-132.0,-1696.8,-6.9,-6.0,-441.3,-558.3,-0.3,-53.7,586.5,1391.4,0,456,0,118,0, 
0.2567,558.3,210.9,14.1,-719.1,-616.2,-44.1,-799.8,-18.6,-2667.6,-681.3,-583.2,-683.1,230.4,7416.6,418.5,-1845.6,-6.9,-5.7,-975.0,-417.6,-0.9,-589.2,620.1,993.9,0,462,0,119,0, 
0.2600,499.8,158.4,-138.6,-825.6,-720.3,262.8,-905.1,-17.1,-3038.1,-782.4,-685.5,-787.2,168.0,7416.9,946.8,-1866.6,-7.2,-6.3,-1074.3,-727.5,-0.3,-691.8,692.1,900.3,0,468,0,120,0, 
0.2633,598.2,311.7,-30.9,-277.8,-167.1,185.4,-358.8,8.1,-2741.7,-233.7,-138.6,-237.0,350.1,7568.7,657.3,-1788.0,-7.2,-6.0,-525.3,-969.0,-0.9,-145.5,744.6,1359.3,0,474,0,121,0, 
0.2667,676.8,454.2,98.1,114.6,216.9,-243.9,28.8,-6.3,-2593.5,153.0,251.4,151.8,546.3,7570.5,-39.9,-1744.5,-6.9,-6.0,-140.4,-803.4,-0.9,245.4,641.1,1678.2,0,480,0,122,0, 
0.2700,669.9,428.7,110.4,-37.2,62.7,-232.2,-120.0,7.5,-2445.3,3.9,100.2,2.1,501.0,7499.1,-189.3,-1698.6,-6.9,-5.7,-285.6,-339.0,-0.9,95.7,575.1,1521.0,0,486,0,123,0, 
0.2733,602.1,204.0,15.9,-632.7,-529.2,-15.9,-710.1,-67.8,-2667.6,-593.1,-494.1,-588.9,255.6,7375.8,351.9,-1768.5,-6.9,-6.0,-887.4,-213.9,-0.9,-494.4,636.9,1050.9,0,492,0,124,0, 
0.2767,446.4,36.3,-79.2,-813.9,-715.5,243.3,-894.9,-135.6,-2964.0,-776.7,-681.9,-778.5,52.8,7408.8,743.4,-1936.5,-6.6,-5.7,-1068.3,-660.0,-0.9,-684.6,687.6,887.4,0,498,0,125,0, 
0.2800,535.5,123.3,-97.5,-356.7,-255.3,50.7,-442.5,-160.5,-2667.6,-320.7,-219.3,-319.8,203.1,7444.2,506.1,-1872.9,-6.9,-6.0,-608.1,-954.9,-0.9,-225.6,819.3,1248.0,0,504,0,126,0, 
0.2833,631.8,228.3,51.3,105.3,207.9,-345.6,20.1,-131.7,-2593.5,148.2,241.8,140.7,402.3,7540.5,-104.7,-1770.0,-6.9,-6.0,-145.8,-819.6,-0.6,235.8,760.8,1590.0,0,510,0,127,0, 
0.2867,609.0,282.6,167.4,-86.7,18.9,-354.3,-169.2,-36.9,-2371.2,-54.6,49.8,-51.0,436.2,7587.9,-309.3,-1673.7,-7.2,-6.3,-339.9,-375.6,-0.9,41.7,749.1,1482.9,0,516,0,128,0, 
0.2900,554.4,90.9,117.3,-667.5,-564.9,-58.2,-749.7,-18.0,-2667.6,-631.2,-534.0,-628.5,216.9,7444.5,298.8,-1796.1,-7.2,-5.7,-921.0,-279.0,-0.9,-536.1,791.7,997.5,0,522,0,129,0, 
0.2933,523.8,-22.5,-34.2,-865.8,-766.8,173.7,-953.1,27.3,-2889.9,-837.6,-734.1,-831.3,172.5,7400.7,777.3,-1910.4,-6.9,-6.3,-1124.4,-615.0,-0.9,-740.1,977.1,829.2,0,528,0,130,0, 
0.2967,596.4,26.1,-4.2,-371.1,-273.6,12.0,-458.4,-119.1,-2889.9,-336.3,-237.6,-333.6,303.3,7389.6,524.7,-1881.9,-6.9,-6.0,-628.5,-969.9,-0.9,-239.1,953.4,1235.7,0,534,0,131,0, 
0.3000,662.7,250.8,140.4,117.3,216.9,-356.7,28.8,-33.3,-2593.5,148.2,250.5,155.1,559.2,7463.4,-123.0,-1786.8,-6.6,-6.0,-137.7,-799.2,-0.9,246.0,755.1,1636.2,0,540,0,132,0, 
0.3033,676.8,245.1,205.8,-55.2,47.7,-364.8,-139.2,0.9,-2445.3,-21.9,82.5,-14.7,575.1,7437.3,-210.6,-1709.7,-6.6,-6.0,-306.0,-391.2,-0.3,73.2,660.3,1512.9,0,546,0,133,0, 
0.3067,491.4,90.6,74.4,-646.2,-542.7,-108.0,-726.0,-99.0,-2667.6,-617.1,-513.0,-609.3,263.1,7423.2,222.9,-1821.6,-6.9,-6.0,-899.1,-251.4,-1.2,-521.4,694.2,1046.1,0,552,0,134,0, 
0.3100,468.0,-60.9,-53.7,-829.2,-726.9,155.1,-906.3,-100.2,-2964.0,-803.4,-698.1,-793.5,152.4,7422.9,678.6,-1897.8,-6.9,-6.3,-1087.5,-643.8,-0.9,-705.0,841.2,880.8,0,558,0,135,0, 
0.3133,570.3,92.4,0.0,-302.4,-201.9,43.5,-375.9,-163.5,-2889.9,-267.6,-164.7,-265.8,274.8,7542.9,427.5,-1844.4,-6.3,-6.0,-554.1,-936.0,-0.6,-171.3,831.6,1308.0,0,564,0,136,0, 
0.3167,687.0,211.2,177.9,183.9,283.8,-239.7,99.6,-26.1,-2519.4,210.0,318.9,219.9,550.8,7627.2,-134.4,-1706.1,-7.2,-6.0,-71.4,-698.1,-1.2,308.7,808.2,1718.1,0,570,0,137,0, 
0.3200,622.8,192.3,238.8,-8.1,93.0,-282.3,-92.4,-35.4,-2445.3,15.0,127.5,30.9,492.6,7572.6,-404.7,-1620.0,-6.9,-5.7,-264.3,-331.2,-0.6,114.6,697.5,1594.5,0,576,0,138,0, 
0.3233,498.6,-40.8,174.0,-556.5,-462.0,-23.1,-633.0,40.5,-2519.4,-528.3,-425.4,-521.4,200.7,7483.8,231.0,-1720.5,-6.9,-6.0,-815.1,-114.9,-0.6,-426.0,773.7,1175.1,0,582,0,139,0, 
0.3267,457.5,-114.3,58.8,-666.0,-561.6,265.5,-743.7,20.4,-2741.7,-633.3,-534.6,-629.1,80.7,7468.8,690.3,-1756.8,-6.9,-6.0,-923.7,-474.9,-0.9,-542.7,926.1,1071.3,0,588,0,140,0, 
0.3300,563.1,-86.4,86.4,-148.5,-52.2,150.0,-233.4,13.8,-2667.6,-120.0,-22.5,-114.9,226.5,7554.9,441.3,-1714.5,-7.2,-6.0,-411.3,-773.4,-0.3,-24.9,992.7,1469.7,0,594,0,141,0, 
0.3333,629.7,60.3,175.2,288.6,387.0,-205.8,206.4,-56.1,-2371.2,324.0,418.8,329.7,478.8,7595.4,-275.4,-1615.5,-6.9,-5.7,30.6,-535.2,-0.9,418.2,922.8,1831.5,0,600,0,142,0, 
0.3367,568.2,-1.2,171.6,25.5,129.9,-302.1,-57.0,-107.7,-2371.2,53.7,152.7,60.0,418.2,7438.5,-519.3,-1665.0,-6.9,-6.3,-239.7,-212.1,-0.9,146.1,757.2,1623.0,0,606,0,143,0, 
0.3400,414.3,-197.7,-18.9,-611.4,-506.7,-30.3,-695.7,-150.6,-2815.8,-585.3,-487.5,-581.4,160.8,7378.2,-14.1,-1797.9,-7.2,-6.0,-877.2,-274.2,-0.6,-489.6,777.6,1097.1,0,612,0,144,0, 
0.3433,441.3,-244.2,-61.5,-712.2,-609.3,258.3,-793.8,-132.9,-2741.7,-690.9,-589.8,-684.0,51.6,7424.1,610.8,-1853.1,-6.9,-6.3,-978.0,-504.9,-0.6,-593.1,960.9,1044.6,0,618,0,145,0, 
0.3467,488.1,-116.1,45.0,-149.7,-48.6,182.4,-230.7,-122.1,-2741.7,-120.0,-24.6,-120.6,226.5,7537.5,352.5,-1709.7,-6.6,-6.0,-410.4,-752.4,-0.9,-29.4,937.8,1491.0,0,624,0,146,0, 
0.3500,564.3,-2.7,118.2,314.4,407.7,-228.0,232.8,-39.0,-2297.1,333.9,423.6,331.8,393.3,7550.1,-243.3,-1633.5,-6.9,-6.3,40.5,-539.4,-0.3,427.5,831.9,1867.8,0,630,0,147,0, 
0.3533,541.2,14.4,116.7,62.4,159.6,-361.5,-19.8,-47.1,-2297.1,77.4,177.0,80.4,272.7,7523.7,-426.0,-1600.5,-6.9,-5.7,-209.7,-152.1,-0.9,167.1,712.2,1674.6,0,636,0,148,0, 
0.3567,378.9,-216.9,-59.7,-573.3,-473.1,-56.4,-653.7,-85.5,-2519.4,-541.8,-445.2,-538.8,-4.5,7337.4,132.0,-1756.2,-7.2,-6.0,-834.6,-137.7,-0.9,-452.7,814.5,1157.1,0,642,0,149,0, 
0.3600,359.1,-194.4,-75.0,-711.9,-614.4,272.1,-795.6,-65.4,-2741.7,-676.5,-571.2,-669.6,-55.2,7375.2,703.2,-1788.3,-6.9,-5.7,-959.4,-483.6,-0.9,-585.0,1015.5,1037.4,0,648,0,150,0, 
0.3633,365.1,-123.9,-116.1,-240.3,-145.5,158.4,-327.9,-169.2,-2741.7,-206.4,-106.2,-200.4,161.1,7390.2,408.9,-1811.1,-6.9,-6.3,-488.7,-858.0,-0.6,-119.4,1006.8,1413.3,0,654,0,151,0, 
0.3667,476.7,6.0,-53.7,218.4,305.1,-127.5,122.4,-181.5,-2371.2,246.6,359.4,255.9,312.3,7414.2,-392.1,-1726.8,-6.9,-5.7,-25.2,-711.3,-0.6,330.3,882.9,1783.5,0,660,0,152,0, 
0.3700,446.4,101.1,44.4,-6.0,90.3,-131.1,-99.0,-112.2,-2371.2,22.8,138.0,39.6,324.6,7398.9,-418.8,-1641.3,-6.9,-6.3,-251.7,-215.7,-1.2,100.8,861.6,1628.7,0,666,0,153,0, 
0.3733,402.9,-39.9,-19.2,-568.8,-468.9,168.6,-669.0,-19.2,-2667.6,-551.1,-423.0,-522.9,120.6,7343.1,198.0,-1770.3,-6.9,-5.7,-814.2,-68.1,-0.9,-465.0,1041.3,1166.4,0,672,0,154,0, 
0.3767,350.7,-188.4,-84.3,-769.5,-683.7,472.8,-869.1,-100.5,-2815.8,-743.1,-623.4,-727.2,-2.4,7349.7,697.8,-1872.9,-6.6,-6.0,-1015.5,-483.6,-0.6,-657.9,1109.4,965.4,0,678,0,155,0, 
0.3800,400.8,-115.8,-107.1,-288.0,-198.0,243.9,-390.9,-161.1,-2741.7,-259.8,-138.9,-244.5,159.0,7338.6,353.7,-1881.3,-6.6,-5.7,-526.8,-838.2,-0.9,-181.5,1125.6,1362.0,0,684,0,156,0, 
0.3833,478.2,36.9,-66.9,127.5,219.9,-56.7,23.1,-129.6,-2593.5,151.8,280.2,175.8,411.0,7380.6,-297.6,-1797.0,-6.9,-5.7,-102.9,-654.6,-0.6,237.0,1021.5,1707.0,0,690,0,157,0, 
0.3867,502.8,77.4,-8.1,-59.4,39.0,-84.9,-155.7,-36.9,-2371.2,-31.8,90.9,-8.7,300.0,7320.9,-365.7,-1756.2,-6.9,-6.3,-296.1,-269.7,-0.6,52.5,945.6,1593.6,0,696,0,158,0, 
0.3900,392.7,-180.0,-89.7,-682.5,-583.2,198.6,-781.2,-71.1,-2667.6,-659.4,-536.4,-635.1,38.1,7303.5,229.5,-1886.4,-6.6,-5.7,-922.5,-288.0,-0.9,-575.4,907.5,1107.0,0,702,0,159,0, 
0.3933,348.3,-208.8,-149.7,-806.7,-702.6,457.5,-900.3,15.9,-2964.0,-775.2,-655.8,-754.2,-41.7,7317.3,677.1,-1940.4,-6.6,-6.0,-1039.2,-627.9,-0.6,-691.8,975.0,982.5,0,708,0,160,0, 
0.3967,370.2,-141.9,-132.3,-317.1,-215.4,243.9,-418.5,-37.8,-2964.0,-285.0,-164.4,-264.3,11.4,7370.4,403.8,-1913.4,-7.2,-5.4,-550.2,-886.8,-0.9,-203.1,1011.3,1384.8,0,714,0,161,0, 
0.4000,454.8,3.9,-82.5,114.0,213.6,-127.8,11.7,-81.9,-2667.6,134.1,263.1,163.8,276.3,7439.4,-212.4,-1824.9,-6.9,-6.0,-121.2,-668.7,-0.6,221.4,985.2,1729.8,0,720,0,162,0, 
0.4033,467.7,-28.8,-0.3,-107.7,-5.4,-193.5,-210.0,18.3,-2371.2,-80.1,43.8,-57.6,262.8,7395.3,-328.5,-1775.1,-6.6,-5.7,-342.0,-348.9,-0.9,0.9,860.7,1564.5,0,726,0,163,0, 
0.4067,367.5,-113.1,-101.7,-647.1,-550.8,153.9,-744.3,21.6,-2667.6,-612.3,-496.5,-596.7,57.3,7349.7,237.0,-1843.8,-6.9,-6.3,-885.9,-233.1,-0.6,-529.8,1076.1,1112.1,0,732,0,164,0, 
0.4100,331.5,-160.5,-146.1,-747.3,-650.4,382.8,-842.4,-21.3,-2815.8,-716.7,-594.3,-694.2,-77.7,7341.0,755.1,-1882.2,-6.6,-6.0,-981.3,-501.0,-0.9,-629.7,1129.2,1048.5,0,738,0,165,0, 
0.4133,431.4,-81.3,-11.1,-208.8,-114.0,236.7,-309.3,-54.9,-2741.7,-174.6,-56.4,-158.1,62.4,7392.6,469.5,-1822.8,-6.9,-6.0,-442.2,-799.2,-0.6,-95.4,1237.5,1471.8,0,744,0,166,0, 
0.4167,547.5,65.1,85.8,260.4,352.5,-105.0,162.6,-51.3,-2519.4,300.0,410.4,306.3,240.9,7416.9,-204.3,-1701.3,-6.0,-5.7,24.3,-568.2,-0.9,375.0,1098.0,1851.0,0,750,0,167,0, 
0.4200,621.9,141.3,117.6,83.4,176.4,-120.3,-12.0,93.6,-2297.1,124.2,232.5,134.1,243.0,7388.7,-287.4,-1612.2,-7.2,-6.0,-158.7,-99.9,-1.2,202.8,1071.6,1737.9,0,756,0,168,0, 
0.4233,479.1,-31.2,-61.2,-491.7,-387.9,209.1,-581.1,117.6,-2445.3,-459.3,-342.0,-437.7,-84.6,7393.8,306.3,-1717.8,-6.9,-6.0,-729.9,-33.3,-0.9,-360.9,1104.6,1275.0,0,762,0,169,0, 
0.4267,432.6,-76.2,-64.5,-602.7,-495.0,492.6,-685.5,95.4,-2667.6,-560.1,-452.4,-546.6,-128.7,7381.5,730.5,-1797.9,-7.2,-6.0,-840.0,-391.2,-1.2,-475.2,1189.2,1186.5,0,768,0,170,0, 
0.4300,533.7,-28.2,-63.3,-55.2,47.4,285.6,-137.7,36.3,-2593.5,-16.5,95.4,0.9,0.3,7389.6,452.1,-1716.9,-6.6,-6.0,-289.8,-625.2,-0.6,75.3,1102.2,1637.4,0,774,0,171,0, 
0.4333,657.0,174.9,91.2,418.2,520.2,-0.3,330.6,124.8,-2148.9,457.8,567.9,474.3,225.3,7521.9,-154.2,-1492.2,-7.2,-5.7,184.2,-449.1,-0.9,543.3,978.6,2032.8,0,780,0,172,0, 
0.4367,573.0,162.9,-12.9,150.9,253.2,-135.0,68.7,122.4,-2148.9,188.7,299.4,207.0,143.7,7384.2,-366.9,-1502.7,-7.2,-5.7,-81.6,-5.7,-0.6,282.6,950.4,1818.9,0,786,0,173,0, 
0.4400,456.3,-4.2,-164.7,-433.8,-330.6,209.4,-507.0,293.7,-2445.3,-387.0,-283.5,-372.9,-47.7,7343.7,241.2,-1612.8,-6.9,-6.0,-667.8,35.4,-0.9,-296.1,1029.3,1370.7,0,792,0,174,0, 
0.4433,370.2,-91.8,-273.0,-596.4,-495.0,382.5,-668.1,132.6,-2741.7,-551.1,-448.2,-541.5,-219.9,7312.8,671.1,-1758.9,-6.6,-6.0,-832.8,-265.8,-0.9,-458.4,1054.5,1214.1,0,798,0,175,0, 
0.4467,415.5,25.2,-273.3,-147.0,-50.7,210.9,-225.9,98.4,-2741.7,-95.7,0.6,-94.2,-27.3,7416.9,422.4,-1777.8,-6.9,-6.0,-381.6,-613.5,-0.6,-15.0,1063.2,1587.9,0,804,0,176,0, 
0.4500,450.6,189.3,-149.7,289.5,390.6,-135.9,207.0,80.4,-2445.3,326.1,433.5,342.3,258.9,7429.8,-228.9,-1659.0,-6.9,-6.0,49.2,-470.1,-0.6,417.3,883.5,1945.2,0,810,0,177,0, 
0.4533,495.9,130.8,-77.7,117.3,212.7,-171.0,37.5,95.1,-2223.0,157.2,257.7,166.5,254.1,7439.4,-248.7,-1571.7,-6.6,-6.0,-120.9,-110.7,-0.6,236.4,823.5,1820.4,0,816,0,178,0, 
0.4567,351.6,-108.6,-240.9,-476.7,-378.3,108.0,-551.7,31.5,-2445.3,-439.5,-334.2,-424.2,-29.1,7329.0,274.5,-1710.3,-6.6,-6.0,-719.7,-39.9,-0.6,-351.6,852.6,1328.4,0,822,0,179,0, 
0.4600,274.8,-156.3,-332.7,-643.2,-542.7,433.8,-723.3,71.7,-2667.6,-599.7,-501.6,-586.8,-125.4,7305.0,791.4,-1756.5,-6.9,-5.4,-887.4,-312.0,-0.9,-517.8,984.9,1181.7,0,828,0,180,0, 
0.4633,366.9,-81.6,-300.0,-178.8,-75.9,321.0,-262.8,-18.3,-2815.8,-139.5,-36.0,-122.7,60.3,7371.9,511.5,-1722.0,-6.9,-6.3,-419.7,-717.3,-0.3,-53.7,1004.4,1551.0,0,834,0,181,0, 
0.4667,534.6,91.5,-107.7,345.3,442.8,45.3,257.7,65.7,-2445.3,381.0,491.7,399.9,310.5,7375.2,-98.7,-1564.8,-7.2,-5.7,108.0,-519.3,-0.6,473.7,916.2,1976.1,0,840,0,182,0, 
0.4700,520.8,-25.2,-147.9,126.6,225.0,-99.6,42.6,40.5,-2297.1,162.3,271.5,180.6,154.8,7344.9,-348.9,-1557.0,-6.6,-6.0,-115.8,-126.0,-0.9,254.4,837.3,1816.2,0,846,0,183,0, 
0.4733,354.0,-108.6,-234.0,-426.0,-327.9,329.1,-508.2,-10.8,-2371.2,-380.7,-278.7,-370.5,-92.1,7215.6,204.6,-1649.4,-6.9,-5.4,-669.0,40.8,-1.2,-295.8,963.9,1388.1,0,852,0,184,0, 
0.4767,252.6,-263.4,-343.8,-625.8,-530.1,570.9,-706.2,-30.0,-2741.7,-580.8,-480.6,-574.2,-215.4,7125.9,754.2,-1819.2,-6.6,-5.7,-867.9,-385.8,-0.9,-500.7,1122.9,1233.6,0,858,0,185,0, 
0.4800,370.2,-134.7,-340.2,-138.3,-45.0,507.6,-227.4,-39.9,-2593.5,-96.0,5.4,-84.0,-9.3,7249.2,516.9,-1772.4,-6.6,-5.7,-380.1,-657.6,-0.6,-14.4,1107.6,1587.9,0,864,0,186,0, 
0.4833,531.3,51.6,-211.5,293.4,394.8,137.1,209.4,-97.2,-2297.1,335.7,435.3,347.7,123.9,7245.6,-165.9,-1668.3,-6.6,-5.7,52.5,-436.5,-0.6,420.3,1002.3,1937.1,0,870,0,187,0, 
0.4867,482.7,-0.9,-194.7,81.3,173.7,-30.0,-7.2,-118.8,-2148.9,125.4,222.6,134.7,55.2,7176.9,-340.2,-1599.9,-6.6,-6.3,-158.4,-93.6,-0.9,209.7,824.4,1766.4,0,876,0,188,0, 
0.4900,375.6,-147.9,-271.2,-518.7,-425.7,313.2,-597.3,-98.1,-2445.3,-479.7,-377.4,-471.9,-109.8,7027.8,205.2,-1713.0,-6.9,-6.0,-763.2,-70.5,-0.9,-397.2,941.4,1285.2,0,882,0,189,0, 
0.4933,180.3,-237.0,-328.8,-728.7,-629.1,405.0,-812.7,-64.5,-2815.8,-687.6,-582.9,-673.5,-287.1,7034.7,565.8,-1845.9,-6.9,-6.0,-967.5,-474.3,-0.6,-599.4,972.0,1106.1,0,888,0,190,0, 
0.4967,339.0,-106.8,-241.5,-208.5,-110.4,296.7,-293.7,10.2,-2815.8,-163.8,-59.7,-153.6,-139.5,7103.7,324.6,-1785.0,-6.6,-5.7,-441.0,-633.9,-0.6,-77.7,1122.0,1524.9,0,894,0,191,0, 
0.5000,473.7,125.4,-102.0,284.4,385.2,-71.1,198.9,25.8,-2445.3,328.8,433.8,346.2,102.9,7145.7,-326.1,-1605.6,-7.2,-6.0,47.1,-521.1,-0.9,415.5,1005.9,1931.7,0,900,0,192,0, 
0.5033,486.6,119.1,-69.3,144.9,242.4,-38.4,51.0,57.9,-2223.0,184.5,289.5,196.8,104.4,7057.8,-452.4,-1534.2,-6.9,-6.0,-95.7,-48.9,-0.9,264.9,953.1,1828.8,0,906,0,193,0, 
0.5067,346.8,-131.4,-167.7,-414.3,-317.4,269.7,-503.1,45.6,-2445.3,-376.5,-273.0,-365.7,-198.0,6959.7,84.6,-1616.4,-6.9,-6.0,-659.4,-71.1,-0.6,-287.1,922.5,1368.3,0,912,0,194,0, 
0.5100,304.5,-268.5,-239.4,-567.9,-474.6,519.6,-665.4,31.5,-2741.7,-535.5,-427.2,-516.3,-325.8,7004.4,606.9,-1713.3,-6.9,-6.0,-812.1,-297.9,-0.9,-444.6,1036.8,1248.3,0,918,0,195,0, 
0.5133,318.0,-174.3,-288.3,-128.4,-35.7,246.0,-230.7,-93.0,-2741.7,-90.6,14.7,-77.4,-183.0,7005.3,244.8,-1716.3,-6.9,-6.0,-373.2,-660.9,-0.6,-7.8,1091.7,1582.2,0,924,0,196,0, 
0.5167,492.0,18.3,-142.2,357.6,448.2,-73.2,258.9,-42.0,-2445.3,400.8,502.2,411.0,57.3,7014.9,-418.5,-1539.6,-6.6,-5.7,116.7,-402.0,-0.3,483.6,1109.4,1985.1,0,930,0,197,0, 
0.5200,409.8,-5.7,-162.0,173.4,266.7,-141.6,84.9,-59.1,-2297.1,203.7,316.5,224.1,-2.7,7062.3,-663.0,-1470.9,-6.9,-5.7,-66.9,5.7,-0.6,291.9,1011.3,1837.8,0,936,0,198,0, 
0.5233,346.5,-133.2,-226.8,-427.5,-331.2,108.6,-518.7,33.6,-2371.2,-397.2,-283.8,-369.9,-190.2,6976.5,-51.3,-1551.6,-7.2,-5.1,-669.3,64.8,-0.6,-302.7,1166.1,1363.8,0,942,0,199,0, 
0.5267,199.2,-191.7,-354.3,-551.1,-456.3,370.8,-646.2,-45.9,-2593.5,-524.7,-410.1,-502.2,-313.8,6859.2,358.2,-1672.5,-7.2,-5.4,-797.7,-408.6,-0.9,-429.0,1248.3,1257.3,0,948,0,200,0, 
0.5300,308.4,-57.6,-270.0,-62.4,31.5,257.1,-164.1,-18.0,-2741.7,-33.3,80.7,-14.4,-117.0,6905.1,67.5,-1618.2,-7.2,-6.0,-303.3,-553.5,-0.3,54.6,1284.6,1668.6,0,954,0,201,0, 
0.5333,379.2,44.1,-144.3,373.5,470.1,-149.7,274.8,-87.6,-2297.1,408.0,518.1,425.1,5.1,6955.2,-692.1,-1542.6,-7.2,-5.7,131.4,-450.6,-0.9,496.8,1107.0,2025.6,0,960,0,202,0, 
0.5367,368.4,24.6,-132.9,148.2,242.4,-180.3,49.5,-70.5,-2445.3,191.1,292.2,198.6,-44.1,6835.5,-788.7,-1521.9,-6.9,-6.0,-94.5,-50.7,-0.9,275.4,1157.4,1862.4,0,966,0,203,0, 
0.5400,202.8,-143.4,-224.1,-347.7,-255.6,111.3,-446.1,-23.1,-2445.3,-318.0,-204.9,-296.7,-291.6,6725.1,-312.0,-1592.1,-6.3,-5.7,-595.2,-13.2,-0.9,-230.1,1201.8,1472.4,0,972,0,204,0, 
0.5433,149.4,-233.1,-308.4,-490.8,-393.6,404.4,-582.0,-32.1,-2667.6,-450.9,-346.8,-437.1,-380.7,6792.0,135.0,-1646.4,-6.9,-6.0,-735.6,-242.7,-0.3,-360.9,1250.4,1364.1,0,978,0,205,0, 
0.5467,120.0,-183.3,-347.4,-59.1,34.5,120.6,-154.5,-162.3,-2519.4,-30.6,83.4,-5.1,-335.1,6829.8,-231.9,-1646.4,-7.2,-6.0,-298.8,-590.1,-0.9,66.9,1177.2,1695.0,0,984,0,206,0, 
0.5500,294.3,-3.9,-237.0,362.7,459.6,-221.4,272.4,-144.9,-2223.0,403.2,506.1,420.6,-72.9,6900.9,-891.3,-1517.1,-6.6,-6.3,117.9,-394.8,-0.9,498.6,1096.2,2045.4,0,990,0,207,0, 
0.5533,329.7,9.3,-158.7,222.3,313.8,-250.2,133.2,6.6,-2148.9,258.9,363.9,280.5,-55.2,6796.8,-1038.6,-1443.6,-6.9,-5.7,-23.4,-42.3,-0.9,353.4,1084.2,1939.5,0,996,0,208,0, 
0.5567,190.2,-195.9,-422.4,-398.7,-298.8,-39.0,-483.6,-59.4,-2371.2,-361.2,-253.8,-338.7,-353.4,6664.5,-558.9,-1554.9,-6.3,-6.0,-642.6,124.5,-0.9,-270.6,1063.5,1432.2,0,1002,0,209,0, 
0.5600,96.3,-325.8,-530.1,-558.9,-459.3,224.4,-646.5,-18.6,-2741.7,-521.4,-409.2,-497.4,-526.8,6699.3,-72.0,-1649.7,-6.9,-6.0,-796.8,-271.2,-0.6,-428.1,1112.1,1284.9,0,1008,0,210,0, 
0.5633,192.0,-175.2,-447.3,-50.1,42.6,114.6,-144.6,-50.1,-2667.6,-11.7,98.4,9.0,-318.9,6753.0,-422.7,-1629.9,-6.6,-6.0,-290.4,-550.2,-1.2,74.7,1096.2,1699.5,0,1014,0,211,0, 
0.5667,252.0,-144.0,-242.4,407.7,497.1,-210.0,314.4,-15.3,-2297.1,440.7,552.6,465.9,-243.0,6710.4,-1134.0,-1553.4,-6.9,-6.0,165.0,-447.3,-0.6,535.2,972.9,2076.3,0,1020,0,212,0, 
0.5700,239.7,-62.1,-233.1,214.8,313.5,-240.0,127.5,-14.7,-2297.1,256.2,365.1,270.3,-243.3,6666.0,-1324.5,-1494.0,-6.6,-6.0,-19.8,144.9,-0.9,347.7,903.6,1940.1,0,1026,0,213,0, 
0.5733,75.9,-239.1,-390.0,-356.4,-264.9,33.0,-441.3,26.7,-2371.2,-324.9,-209.1,-303.9,-471.9,6552.0,-791.7,-1623.9,-6.9,-5.7,-602.1,48.3,-0.9,-228.6,1068.0,1470.6,0,1032,0,214,0, 
0.5767,66.9,-304.8,-481.2,-514.2,-417.0,255.0,-597.0,2.4,-2667.6,-480.9,-371.4,-461.4,-582.6,6458.7,-345.0,-1710.3,-6.9,-6.3,-761.4,-231.3,-1.2,-387.6,1129.2,1352.1,0,1038,0,215,0, 
0.5800,98.4,-264.6,-395.1,-20.1,76.2,22.8,-95.4,-41.1,-2593.5,24.9,134.1,41.4,-522.3,6451.8,-722.1,-1692.3,-6.9,-6.0,-255.9,-502.8,-0.6,115.8,1084.2,1751.4,0,1044,0,216,0, 
0.5833,309.0,15.6,-267.0,537.9,633.3,-277.8,452.4,30.3,-2297.1,570.0,682.5,590.4,-322.5,6508.5,-1418.7,-1467.6,-6.9,-6.0,291.3,-343.8,-0.9,666.3,1006.2,2206.2,0,1050,0,217,0, 
0.5867,310.8,-50.4,-239.1,330.0,423.3,-346.8,245.7,41.1,-2074.8,365.1,475.5,384.3,-371.1,6512.4,-1616.4,-1449.0,-6.6,-6.0,81.9,115.2,-1.2,467.4,932.7,2050.2,0,1056,0,218,0, 
0.5900,178.8,-249.6,-400.8,-252.3,-158.7,-62.1,-335.7,7.2,-2297.1,-215.4,-105.0,-196.8,-659.4,6433.5,-1102.2,-1578.9,-6.9,-5.7,-495.6,196.5,-0.3,-117.6,951.6,1567.2,0,1062,0,219,0, 
0.5933,39.0,-420.0,-480.0,-340.8,-243.3,184.8,-425.1,-28.2,-2445.3,-306.6,-200.4,-287.1,-858.6,6307.2,-652.8,-1631.1,-6.9,-6.0,-593.4,-148.2,-1.2,-214.2,1110.0,1529.1,0,1068,0,220,0, 
0.5967,146.7,-240.6,-461.1,187.8,280.2,122.4,104.1,-24.0,-2445.3,226.8,331.5,242.4,-660.0,6369.9,-969.3,-1534.8,-6.9,-6.0,-59.7,-452.1,-0.9,320.7,1149.0,1926.3,0,1074,0,221,0, 
0.6000,275.1,-2.7,-289.8,708.3,798.0,-206.1,616.8,-24.3,-2074.8,741.9,851.1,761.1,-467.1,6436.2,-1684.2,-1401.0,-7.5,-6.0,462.6,-95.7,-0.6,834.6,1100.1,2331.3,0,1080,0,222,0, 
0.6033,304.2,36.6,-374.1,552.6,652.2,-279.3,471.9,75.0,-2000.7,587.7,698.7,611.4,-508.2,6425.1,-1827.6,-1335.6,-6.9,-6.0,307.5,282.3,-0.6,683.4,934.8,2242.5,0,1086,0,223,0, 
0.6067,261.6,-173.7,-535.8,33.9,125.1,-18.3,-57.3,87.9,-1926.6,69.6,175.2,93.0,-675.6,6244.2,-1315.2,-1370.4,-6.9,-6.0,-217.5,414.0,-0.9,160.5,973.5,1822.8,0,1092,0,224,0, 
0.6100,179.7,-249.9,-522.9,-119.1,-21.6,228.9,-202.8,54.6,-2297.1,-83.7,22.5,-63.3,-690.6,6207.3,-836.1,-1467.9,-6.9,-5.4,-369.0,142.2,-0.3,9.6,1082.4,1708.5,0,1098,0,225,0, 
0.6133,223.8,-183.9,-456.3,340.8,434.7,15.3,255.3,47.4,-2148.9,372.9,482.4,396.3,-643.5,6272.4,-1194.3,-1433.1,-6.6,-6.0,95.1,-158.4,-0.9,468.6,1040.1,2060.1,0,1104,0,226,0, 
0.6167,316.8,-42.3,-369.3,787.2,878.1,-300.3,696.9,51.9,-2000.7,823.5,933.9,843.0,-458.4,6300.0,-1909.8,-1326.9,-6.9,-6.0,543.6,39.6,-0.6,916.2,945.6,2427.0,0,1110,0,227,0, 
0.6200,336.6,-29.7,-327.3,663.0,761.7,-279.0,580.8,126.9,-1778.4,697.2,811.2,726.3,-452.7,6270.9,-2043.0,-1263.0,-6.6,-6.3,416.7,404.4,-0.9,789.9,947.7,2340.3,0,1116,0,228,0, 
0.6233,237.6,-189.9,-530.4,105.6,201.0,-13.8,20.1,144.6,-1852.5,136.5,254.1,166.8,-726.6,6158.1,-1581.3,-1362.9,-6.9,-5.7,-141.6,490.8,-0.3,238.2,1033.5,1911.0,0,1122,0,229,0, 
0.6267,102.6,-406.2,-628.5,-29.4,64.5,318.6,-115.5,131.4,-2297.1,2.4,117.3,31.8,-895.8,6135.9,-1161.3,-1434.0,-6.6,-6.0,-276.3,144.0,-0.9,98.1,1116.0,1787.1,0,1128,0,230,0, 
0.6300,153.3,-258.9,-591.3,537.9,631.8,209.7,451.5,26.7,-2074.8,570.9,678.6,594.0,-798.6,6096.6,-1477.5,-1327.2,-6.6,-6.0,287.7,-160.2,-0.6,666.0,1031.7,2256.3,0,1134,0,231,0, 
0.6333,277.5,-60.9,-487.5,1023.9,1121.7,-75.9,939.9,111.9,-1704.3,1062.3,1175.4,1089.6,-621.3,6206.4,-2164.2,-1124.7,-6.9,-5.7,782.4,107.4,-0.9,1157.1,996.0,2673.3,0,1140,0,232,0, 
0.6367,243.3,-43.8,-499.2,798.6,900.6,-193.8,717.0,102.0,-1556.1,838.8,959.4,871.2,-747.6,6136.8,-2393.4,-1138.5,-6.6,-6.0,566.7,530.4,-0.9,932.4,906.9,2504.4,0,1146,0,233,0, 
0.6400,150.3,-161.4,-611.1,254.7,350.4,54.3,174.9,108.6,-1852.5,291.6,402.3,318.6,-1023.0,6060.6,-1908.0,-1190.4,-6.9,-5.7,4.8,722.7,-0.9,388.5,897.9,2064.0,0,1152,0,234,0, 
0.6433,20.1,-297.0,-735.0,110.1,210.0,302.7,29.4,60.3,-2148.9,151.2,264.9,172.2,-1179.6,6009.6,-1502.4,-1296.3,-6.9,-6.0,-128.1,309.6,-0.6,240.3,996.9,1938.3,0,1158,0,235,0, 
0.6467,150.6,-264.6,-697.8,636.9,729.6,155.4,556.5,-58.5,-2000.7,682.8,795.0,703.2,-1016.4,6027.0,-1806.6,-1224.9,-6.9,-6.3,403.2,119.4,-0.9,776.7,981.6,2368.2,0,1164,0,236,0, 
0.6500,248.4,-131.4,-577.2,1089.3,1185.0,-203.4,1008.0,-93.0,-1704.3,1131.9,1248.9,1157.7,-819.3,6035.4,-2530.2,-1160.4,-7.2,-6.0,853.8,257.7,-0.6,1228.8,794.7,2739.6,0,1170,0,237,0, 
0.6533,245.4,-168.9,-597.0,802.8,894.0,-275.1,716.7,-86.1,-1630.2,838.8,957.6,864.6,-858.6,5943.0,-2771.7,-1164.0,-7.2,-6.0,560.7,640.8,-1.2,932.7,710.1,2507.1,0,1176,0,238,0, 
0.6567,93.6,-351.0,-706.2,250.2,342.0,15.9,168.3,-105.3,-1778.4,285.6,403.8,310.2,-1142.1,5856.3,-2309.7,-1248.3,-6.9,-6.0,8.1,620.4,-0.9,379.5,828.9,2046.0,0,1182,0,239,0, 
0.6600,-37.8,-459.3,-765.9,66.9,156.0,234.0,-15.6,-96.3,-2223.0,108.6,219.3,129.9,-1319.7,5811.6,-1963.2,-1382.1,-6.9,-6.0,-174.0,262.2,-0.9,199.8,908.1,1860.9,0,1188,0,240,0, 
0.6633,26.7,-410.1,-744.3,555.3,645.3,38.7,477.6,-266.4,-2074.8,590.4,705.9,616.5,-1251.3,5820.0,-2321.4,-1361.4,-7.2,-5.7,312.0,-57.3,-0.6,687.0,889.5,2271.9,0,1194,0,241,0, 
0.6667,183.9,-182.1,-631.8,1080.0,1166.1,-243.9,992.1,-210.6,-1778.4,1115.1,1225.5,1138.5,-999.0,5844.6,-2853.3,-1179.3,-6.9,-6.3,833.4,297.9,-0.9,1207.2,902.1,2694.6,0,1200,0,242,0, 
0.6700,235.5,-198.3,-601.2,939.3,1027.2,-235.5,855.9,-134.4,-1556.1,969.3,1084.8,996.3,-1004.7,5769.0,-3046.2,-1099.5,-6.9,-6.0,693.0,579.6,-0.6,1069.8,810.9,2602.5,0,1206,0,243,0, 
0.6733,130.2,-287.7,-706.5,410.4,504.3,41.7,332.1,-42.3,-1704.3,443.4,556.8,474.9,-1247.7,5709.9,-2596.5,-1138.8,-6.9,-5.7,168.0,820.8,-0.9,539.7,873.3,2204.4,0,1212,0,244,0, 
0.6767,-0.6,-488.4,-797.1,283.8,373.8,252.3,204.6,-64.8,-1926.6,323.1,427.8,343.2,-1389.6,5612.1,-2229.6,-1249.2,-6.9,-5.7,34.8,416.4,-0.6,412.2,951.0,2075.1,0,1218,0,245,0, 
0.6800,144.9,-365.4,-741.0,878.1,965.1,132.3,795.6,-49.5,-1778.4,912.9,1020.6,930.3,-1220.1,5739.9,-2573.4,-1139.7,-6.6,-6.0,633.6,298.8,-0.9,1002.6,954.0,2571.0,0,1224,0,246,0, 
0.6833,195.6,-238.2,-674.7,1298.7,1391.4,-253.8,1221.6,-58.8,-1482.0,1341.6,1441.5,1358.7,-1080.9,5721.6,-3316.2,-1022.4,-6.9,-6.0,1055.1,427.2,-0.3,1435.5,899.7,2910.9,0,1230,0,247,0, 
0.6867,74.4,-306.6,-696.3,1039.8,1133.4,-262.5,961.2,-36.6,-1482.0,1066.5,1179.0,1095.9,-1233.0,5635.5,-3555.0,-1026.9,-6.6,-5.7,787.5,826.8,0.0,1169.1,825.6,2700.0,0,1236,0,248,0, 
0.6900,-35.7,-346.2,-761.7,469.8,559.8,85.8,389.1,-7.5,-1556.1,499.5,604.2,523.8,-1467.6,5472.6,-3026.1,-1133.7,-7.2,-5.4,207.3,846.3,-0.6,596.1,930.3,2263.8,0,1242,0,249,0, 
0.6933,-89.7,-453.0,-924.9,358.2,443.4,321.3,277.8,14.7,-1926.6,392.4,493.5,407.7,-1674.9,5537.7,-2540.1,-1218.9,-7.2,-5.7,106.5,586.5,-0.6,486.0,1016.1,2158.2,0,1248,0,250,0, 
0.6967,11.1,-386.7,-824.4,889.5,978.3,197.1,812.1,6.9,-1704.3,926.1,1026.9,943.5,-1543.2,5604.6,-2794.8,-1167.3,-6.9,-6.0,638.7,256.8,-0.6,1017.9,1072.5,2572.5,0,1254,0,251,0, 
0.7000,128.7,-189.6,-729.3,1432.8,1521.6,-198.3,1356.0,-40.5,-1407.9,1475.1,1574.4,1486.5,-1353.0,5507.7,-3554.1,-982.8,-6.9,-5.4,1188.0,506.1,-0.9,1562.7,922.2,3044.4,0,1260,0,252,0, 
0.7033,153.6,-193.5,-727.2,1236.0,1324.8,-291.9,1158.3,-17.1,-1111.5,1280.4,1377.3,1291.5,-1494.9,5478.6,-3690.3,-930.3,-6.9,-6.0,991.2,929.7,-0.3,1362.9,802.8,2890.8,0,1266,0,253,0, 
0.7067,-10.8,-360.0,-861.6,726.0,809.4,-10.8,650.1,-6.3,-1482.0,764.1,864.3,780.9,-1732.8,5367.9,-3190.2,-984.3,-7.2,-6.0,474.6,1116.0,-0.9,858.6,798.3,2477.7,0,1272,0,254,0, 
0.7100,-113.4,-378.9,-951.6,629.4,720.0,346.5,556.2,49.5,-1482.0,663.0,772.8,685.8,-1767.9,5376.9,-2744.7,-1004.4,-6.9,-6.0,378.0,821.1,-0.6,752.7,924.0,2413.8,0,1278,0,255,0, 
0.7133,0.0,-274.8,-949.8,1096.5,1182.6,245.1,1020.0,-34.5,-1407.9,1138.8,1238.7,1157.7,-1659.3,5452.5,-3024.6,-996.9,-7.2,-5.4,850.8,562.2,-0.9,1226.7,951.3,2772.3,0,1284,0,0,0, 
0.7167,47.4,-151.5,-820.5,1605.9,1692.6,-69.6,1525.8,-111.3,-1111.5,1650.6,1754.4,1671.6,-1498.2,5497.8,-3733.8,-813.9,-6.9,-6.0,1360.8,655.8,-0.9,1741.5,895.2,3208.2,0,1290,0,1,0, 
0.7200,-1.2,-146.7,-805.2,1379.4,1465.2,-96.3,1296.0,-43.8,-1185.6,1416.3,1523.4,1439.7,-1548.9,5408.7,-3942.6,-786.6,-7.5,-6.0,1133.1,1089.6,-0.9,1510.2,817.8,3010.2,0,1296,0,2,0, 
0.7233,-99.9,-267.3,-967.5,866.4,957.0,227.7,785.4,-53.7,-1259.7,911.4,1015.8,933.9,-1776.9,5333.7,-3394.8,-834.0,-6.6,-6.3,619.5,1227.0,-0.6,996.3,845.1,2609.1,0,1302,0,3,0, 
0.7267,-138.9,-326.1,-1083.9,692.1,779.4,441.0,613.2,-81.9,-1482.0,738.9,833.1,750.0,-1866.0,5277.0,-2977.8,-961.8,-6.9,-5.7,444.3,916.5,-1.2,824.7,972.0,2456.1,0,1308,0,4,0, 
0.7300,-135.9,-297.9,-1064.4,1148.4,1234.8,257.7,1072.5,-261.6,-1556.1,1193.4,1289.1,1203.6,-1758.6,5236.2,-3246.9,-995.1,-6.9,-6.0,897.9,568.5,-0.6,1285.5,968.1,2812.2,0,1314,0,5,0, 
0.7333,-104.7,-174.3,-1038.6,1555.8,1645.2,-162.9,1481.1,-338.1,-1259.7,1603.2,1702.5,1623.3,-1580.1,5256.3,-4096.5,-861.6,-6.9,-6.0,1313.4,732.9,-0.9,1692.3,844.2,3139.5,0,1320,0,6,0, 
0.7367,-73.5,-231.3,-1056.9,1388.4,1474.2,-204.6,1311.9,-202.8,-1111.5,1428.9,1532.1,1454.7,-1594.8,5183.7,-4282.5,-843.3,-6.9,-5.7,1135.2,1172.4,-0.9,1521.9,743.4,3007.8,0,1326,0,7,0, 
0.7400,-162.3,-307.2,-1046.7,820.5,912.3,94.2,747.9,-228.3,-1333.8,867.3,964.8,884.1,-1827.0,5096.1,-3773.4,-941.7,-6.6,-6.0,569.1,1256.1,-0.9,955.2,825.0,2570.1,0,1332,0,8,0, 
0.7433,-221.4,-429.6,-1224.0,633.3,720.9,259.2,558.0,-313.5,-1630.2,681.6,777.0,695.4,-1999.5,5015.7,-3406.8,-1035.0,-6.9,-6.0,385.8,821.1,-0.3,773.1,848.1,2406.3,0,1338,0,9,0, 
0.7467,-151.2,-382.5,-1262.4,1115.4,1206.0,138.3,1037.7,-355.8,-1333.8,1171.2,1266.9,1182.0,-1878.9,5050.2,-3747.3,-1036.2,-7.2,-6.3,875.1,569.7,-0.6,1257.6,921.9,2786.1,0,1344,0,10,0, 
0.7500,-16.2,-262.8,-1150.2,1634.1,1718.7,-181.2,1545.6,-345.3,-1185.6,1677.0,1776.9,1692.6,-1610.1,5067.0,-4359.9,-880.2,-6.9,-6.0,1384.2,759.6,-0.9,1766.7,787.8,3195.3,0,1350,0,11,0, 
0.7533,13.5,-221.1,-1015.2,1437.3,1530.6,-133.2,1352.4,-354.9,-1111.5,1478.1,1581.9,1497.9,-1608.9,5003.4,-4447.2,-831.3,-6.6,-6.3,1186.8,1270.2,-0.9,1566.3,721.5,3042.6,0,1356,0,12,0, 
0.7567,-62.4,-404.1,-1156.5,956.1,1046.4,102.3,879.0,-211.5,-1185.6,1002.9,1104.3,1018.5,-1926.9,4887.3,-3909.9,-864.9,-6.9,-5.4,710.4,1275.0,-0.9,1088.7,711.9,2683.8,0,1362,0,13,0, 
0.7600,-214.5,-517.8,-1280.1,745.8,839.4,226.2,673.2,-300.6,-1407.9,797.7,897.9,815.1,-2119.8,4810.8,-3576.9,-1053.0,-6.9,-5.7,507.0,975.3,-0.9,887.4,836.7,2480.4,0,1368,0,14,0, 
0.7633,-131.4,-391.5,-1232.7,1262.7,1356.0,206.7,1188.0,-276.3,-1482.0,1316.1,1415.4,1331.7,-1907.7,4899.9,-3823.2,-966.6,-6.9,-6.0,1023.3,690.3,-1.2,1406.4,912.9,2910.9,0,1374,0,15,0, 
0.7667,-165.9,-326.4,-1160.1,1661.4,1757.4,-198.6,1577.4,-353.7,-1037.4,1711.5,1811.7,1730.4,-1710.0,4847.4,-4565.7,-898.5,-6.9,-5.7,1418.4,857.4,-0.3,1793.4,788.1,3231.9,0,1380,0,16,0, 
0.7700,-129.3,-282.0,-1146.0,1442.7,1539.6,-211.8,1367.1,-251.4,-1185.6,1484.4,1590.9,1509.6,-1734.9,4764.6,-4746.3,-898.2,-6.9,-5.7,1199.7,1193.4,-0.6,1574.1,708.0,3060.3,0,1386,0,17,0, 
0.7733,-249.9,-428.7,-1306.2,892.8,983.4,77.7,813.9,-225.3,-1333.8,934.2,1040.4,960.0,-1977.0,4717.2,-4284.6,-971.4,-6.9,-6.0,643.8,1295.1,-0.6,1025.1,756.6,2628.3,0,1392,0,18,0, 
0.7767,-280.2,-504.6,-1334.7,798.6,889.8,380.4,725.7,-108.9,-1630.2,844.8,951.0,866.7,-1962.6,4774.8,-3825.9,-1049.4,-7.2,-6.0,554.1,975.9,-0.6,933.0,928.2,2525.1,0,1398,0,19,0, 
0.7800,-256.5,-486.3,-1341.0,1277.7,1365.9,192.0,1195.2,-274.5,-1259.7,1319.7,1425.0,1345.5,-1893.9,4786.5,-4148.7,-1019.7,-6.6,-5.7,1029.6,690.0,-0.6,1411.8,955.8,2896.5,0,1404,0,20,0, 
0.7833,-69.0,-359.7,-1233.0,1778.7,1874.4,-115.8,1700.1,-188.1,-963.3,1830.0,1929.9,1847.7,-1718.7,4793.4,-4889.4,-870.9,-6.6,-6.0,1537.5,842.4,-0.6,1918.2,817.8,3321.6,0,1410,0,21,0, 
0.7867,-123.0,-326.7,-1193.1,1578.0,1674.6,-134.7,1498.5,-181.5,-889.2,1620.0,1728.0,1650.3,-1793.7,4783.8,-5039.7,-777.9,-6.9,-6.0,1333.8,1279.5,-0.6,1712.1,773.1,3166.2,0,1416,0,22,0, 
0.7900,-188.1,-529.5,-1255.5,1085.7,1184.1,111.6,1005.6,-188.4,-1037.4,1130.4,1233.9,1158.0,-2013.3,4744.5,-4459.2,-876.0,-6.9,-6.3,833.4,1433.1,-0.9,1220.4,735.9,2763.3,0,1422,0,23,0, 
0.7933,-255.0,-718.5,-1369.8,940.2,1028.7,402.0,858.9,-212.4,-1259.7,979.2,1083.6,1006.8,-2157.9,4702.2,-4046.7,-942.3,-6.9,-6.0,685.8,1104.6,-0.6,1065.3,832.8,2652.6,0,1428,0,24,0, 
0.7967,-105.9,-577.8,-1247.7,1539.6,1632.6,201.0,1463.4,-219.6,-1185.6,1581.3,1686.0,1615.8,-1993.2,4764.6,-4302.0,-818.7,-6.6,-5.7,1292.4,951.9,-0.6,1669.8,848.1,3129.6,0,1434,0,25,0, 
0.8000,-109.8,-454.2,-1213.2,1948.2,2039.4,-118.8,1870.2,-296.4,-963.3,1988.4,2094.6,2020.5,-1831.2,4726.5,-4991.7,-722.7,-6.9,-5.7,1700.4,1087.5,-0.6,2078.4,699.0,3475.2,0,1440,0,26,0, 
0.8033,-117.9,-464.4,-1228.8,1766.7,1863.3,-142.8,1692.6,-272.4,-666.9,1810.2,1917.3,1832.4,-1839.6,4633.5,-5127.3,-654.6,-6.6,-5.4,1524.3,1444.5,-0.9,1896.3,641.4,3331.5,0,1446,0,27,0, 
0.8067,-255.6,-504.3,-1377.3,1190.4,1282.5,163.8,1115.1,-180.0,-963.3,1227.0,1336.5,1252.2,-2083.5,4570.8,-4579.2,-765.3,-6.9,-6.0,942.0,1488.0,-0.6,1313.4,662.4,2871.3,0,1452,0,28,0, 
0.8100,-371.4,-636.0,-1518.0,1012.8,1112.4,295.8,941.4,-237.6,-1259.7,1056.6,1161.0,1077.9,-2214.9,4487.1,-4063.2,-894.9,-6.6,-5.7,766.8,1220.4,-0.6,1147.2,705.6,2709.0,0,1458,0,29,0, 
0.8133,-290.1,-522.6,-1412.1,1573.8,1665.9,231.3,1488.9,-180.0,-1185.6,1614.0,1722.9,1642.5,-2068.5,4515.0,-4392.6,-791.4,-6.6,-5.7,1325.7,985.2,-0.3,1709.4,831.0,3165.9,0,1464,0,30,0, 
0.8167,-246.3,-411.6,-1338.6,2031.6,2124.6,-216.6,1945.8,-267.3,-741.0,2067.0,2181.6,2102.1,-1913.4,4469.1,-5163.3,-671.1,-6.9,-5.7,1783.5,1141.2,-0.9,2159.7,681.0,3538.5,0,1470,0,31,0, 
0.8200,-169.2,-386.7,-1299.6,1887.0,1977.6,-211.5,1803.3,-200.1,-741.0,1924.2,2032.5,1955.1,-1921.2,4501.8,-5289.3,-575.7,-6.6,-6.0,1638.0,1591.8,-0.6,2016.9,643.8,3420.0,0,1476,0,32,0, 
0.8233,-272.7,-590.4,-1464.6,1327.2,1419.6,-8.1,1245.3,-281.1,-1111.5,1360.5,1467.9,1389.6,-2183.1,4507.5,-4707.6,-655.5,-6.9,-5.7,1072.8,1646.1,-0.9,1453.2,699.9,2979.6,0,1482,0,33,0, 
0.8267,-315.0,-751.2,-1506.6,1178.7,1266.0,216.9,1095.9,-241.2,-1185.6,1218.0,1324.2,1245.6,-2280.6,4517.1,-4224.0,-696.9,-6.9,-5.4,928.8,1394.7,-0.6,1312.2,781.8,2858.1,0,1488,0,34,0, 
0.8300,-233.4,-703.8,-1548.3,1725.3,1815.6,24.6,1644.6,-381.9,-963.3,1760.4,1871.1,1793.1,-2286.9,4523.7,-4543.5,-640.2,-6.9,-5.7,1477.8,1110.0,-0.9,1854.0,842.4,3280.5,0,1494,0,35,0, 
0.8333,-170.4,-575.7,-1428.0,2164.8,2254.5,-267.9,2085.3,-342.9,-741.0,2199.6,2309.7,2234.7,-2080.8,4555.2,-5258.1,-506.4,-7.2,-6.0,1913.7,1319.1,-0.6,2290.5,803.4,3654.0,0,1500,0,36,0, 
0.8367,-178.2,-473.4,-1482.0,1895.4,1985.7,-275.7,1814.1,-253.5,-666.9,1931.7,2041.5,1965.3,-2083.8,4523.1,-5365.5,-522.6,-6.6,-5.4,1646.4,1614.0,-0.9,2024.4,703.8,3436.5,0,1506,0,37,0, 
0.8400,-354.0,-616.2,-1599.9,1259.4,1349.1,-44.4,1181.4,-196.2,-815.1,1291.2,1403.7,1325.4,-2327.7,4436.4,-4813.5,-720.3,-6.3,-6.3,1007.1,1593.9,-1.2,1392.9,748.5,2936.4,0,1512,0,38,0, 
0.8433,-498.3,-813.6,-1780.5,1073.1,1162.2,209.7,993.6,-135.3,-1185.6,1104.0,1218.0,1140.3,-2409.6,4446.6,-4371.0,-828.6,-6.9,-6.0,825.6,1252.2,-0.3,1204.8,926.4,2736.6,0,1518,0,39,0, 
0.8467,-432.9,-704.7,-1722.3,1592.7,1676.1,98.4,1508.7,-239.1,-1111.5,1622.1,1734.0,1659.9,-2261.4,4370.7,-4681.8,-773.1,-7.5,-5.7,1334.7,1044.0,-0.6,1720.5,942.3,3165.6,0,1524,0,40,0, 
0.8500,-305.1,-474.3,-1636.2,2112.3,2197.2,-207.6,2028.6,-291.6,-741.0,2148.3,2258.4,2178.6,-2040.9,4390.8,-5354.7,-604.2,-6.9,-5.7,1866.3,1274.4,-0.9,2241.0,846.0,3586.2,0,1530,0,41,0, 
0.8533,-361.8,-410.1,-1563.6,1917.3,2003.1,-287.7,1838.1,-135.9,-518.7,1955.4,2058.9,1985.1,-1987.5,4427.1,-5372.4,-566.7,-6.9,-5.7,1663.8,1553.4,-0.9,2048.4,801.6,3444.3,0,1536,0,42,0, 
0.8567,-465.9,-579.6,-1650.9,1365.6,1458.3,-39.6,1290.6,-168.3,-815.1,1408.8,1514.7,1437.3,-2145.0,4435.2,-4729.5,-599.7,-7.2,-6.0,1119.3,1517.7,-0.9,1492.2,785.7,3000.0,0,1542,0,43,0, 
0.8600,-556.2,-743.7,-1775.7,1235.4,1327.5,195.3,1161.3,-233.7,-889.2,1283.7,1383.3,1303.2,-2271.9,4486.8,-4239.3,-738.0,-7.5,-6.3,986.7,1342.8,-0.6,1368.6,904.2,2885.7,0,1548,0,44,0, 
0.8633,-505.8,-728.4,-1684.5,1779.9,1870.8,65.7,1702.5,-293.1,-889.2,1822.8,1925.1,1846.5,-2188.8,4430.1,-4690.8,-636.9,-6.9,-6.0,1536.0,1289.4,-0.9,1908.3,855.9,3310.5,0,1554,0,45,0, 
0.8667,-435.0,-536.4,-1571.4,2226.9,2313.9,-252.0,2145.0,-314.4,-518.7,2264.7,2366.7,2286.0,-2023.5,4320.6,-5497.5,-597.3,-7.2,-5.7,1976.7,1517.7,-0.9,2352.9,755.7,3685.5,0,1560,0,46,0, 
0.8700,-456.3,-512.1,-1575.3,1979.7,2066.4,-318.0,1904.7,-230.4,-592.8,2019.3,2123.7,2041.2,-2043.0,4344.0,-5456.4,-516.3,-6.6,-5.7,1730.7,1539.3,-0.9,2106.0,691.2,3481.5,0,1566,0,47,0, 
0.8733,-538.2,-556.8,-1669.2,1340.4,1432.8,-90.9,1262.7,-155.1,-666.9,1372.2,1482.9,1398.6,-2069.4,4540.5,-4623.6,-689.4,-6.9,-5.7,1084.5,1464.0,-0.6,1466.1,706.5,2959.5,0,1572,0,48,0, 
0.8767,-647.4,-644.1,-1823.7,1234.5,1327.5,136.8,1154.4,-261.9,-1037.4,1269.3,1377.3,1293.0,-2131.8,4595.1,-3994.5,-784.8,-6.3,-6.0,981.3,1253.4,-0.6,1360.5,794.7,2849.1,0,1578,0,49,0, 
0.8800,-601.2,-546.9,-1695.3,1815.0,1902.6,-22.2,1733.4,-238.5,-666.9,1852.5,1958.4,1883.7,-2100.6,4584.6,-4462.2,-673.5,-6.9,-5.7,1564.2,1450.5,-1.2,1947.6,902.4,3307.2,0,1584,0,50,0, 
0.8833,-510.9,-476.7,-1616.1,2294.1,2384.7,-243.6,2209.2,-178.8,-518.7,2334.0,2440.2,2360.4,-2052.6,4326.0,-5353.5,-519.3,-6.3,-5.7,2046.3,1617.3,-0.9,2421.6,673.8,3710.7,0,1590,0,51,0, 
0.8867,-482.7,-487.5,-1558.2,1987.5,2075.1,-336.6,1908.3,-157.5,-370.5,2020.8,2129.7,2051.1,-1894.5,4391.7,-5312.4,-496.5,-7.2,-5.4,1731.0,1554.0,-0.9,2112.6,638.1,3486.0,0,1596,0,52,0, 
0.8900,-486.3,-478.8,-1622.1,1396.5,1485.9,-230.4,1313.1,-146.1,-741.0,1427.1,1536.3,1461.3,-1752.3,4758.3,-4188.9,-584.1,-6.9,-5.7,1140.6,1104.9,-0.9,1520.1,748.2,2960.4,0,1602,0,53,0, 
0.8933,-573.6,-630.9,-1718.4,1273.2,1365.6,-127.5,1191.0,-160.8,-815.1,1303.5,1411.5,1334.7,-1761.3,4921.8,-3626.1,-684.3,-7.2,-6.3,1012.5,962.4,-0.9,1396.5,727.2,2856.6,0,1608,0,54,0, 
0.8967,-540.6,-593.1,-1743.0,1827.3,1919.7,-297.9,1737.6,-267.0,-815.1,1857.6,1963.5,1886.4,-1811.1,4860.6,-4126.5,-690.0,-6.6,-6.0,1572.9,1451.1,-0.9,1943.1,743.4,3330.3,0,1614,0,55,0, 
0.9000,-347.4,-458.1,-1677.9,2290.5,2378.7,-490.2,2200.8,-315.0,-592.8,2329.8,2430.6,2351.4,-1704.6,4707.9,-5025.3,-492.6,-7.2,-6.0,2038.2,1806.3,-0.6,2407.5,684.6,3714.3,0,1620,0,56,0, 
0.9033,-375.9,-410.4,-1600.8,1965.9,2055.6,-489.0,1876.2,-294.9,-444.6,2004.9,2109.9,2036.1,-1673.1,4762.5,-4901.7,-546.9,-6.9,-6.0,1715.1,1461.6,-0.6,2087.7,616.2,3463.8,0,1626,0,57,0, 
0.9067,-521.1,-527.4,-1736.1,1289.1,1377.3,-348.0,1205.1,-302.4,-666.9,1329.0,1429.2,1353.6,-1610.7,5036.1,-3951.9,-702.6,-6.9,-6.0,1035.9,887.7,-0.6,1408.8,598.2,2867.1,0,1632,0,58,0, 
0.9100,-587.4,-600.9,-1823.4,1190.4,1279.8,-181.2,1103.1,-249.9,-963.3,1231.8,1331.4,1250.1,-1512.0,5279.1,-3203.7,-788.1,-6.9,-6.0,939.3,849.9,-0.6,1306.8,637.8,2757.3,0,1638,0,59,0, 
0.9133,-404.7,-488.4,-1729.2,1891.5,1980.6,-240.9,1802.7,-317.7,-815.1,1930.2,2027.7,1956.0,-1406.1,5241.9,-3761.1,-621.3,-6.9,-5.7,1636.2,1354.5,-0.9,2007.0,681.3,3366.6,0,1644,0,60,0, 
0.9167,-274.8,-356.7,-1649.4,2324.7,2410.5,-453.6,2237.1,-348.3,-444.6,2363.1,2467.2,2390.1,-1388.4,4937.4,-4668.3,-519.6,-6.6,-6.0,2073.3,1756.2,-0.9,2443.5,614.4,3734.1,0,1650,0,61,0, 
0.9200,-298.2,-279.0,-1602.0,2016.3,2101.2,-553.5,1934.4,-267.6,-444.6,2055.0,2156.7,2080.2,-1362.6,4998.6,-4574.4,-477.9,-6.9,-5.7,1764.0,1399.8,-0.6,2137.5,645.3,3498.3,0,1656,0,62,0, 
0.9233,-465.6,-414.9,-1758.3,1318.8,1409.4,-429.9,1239.3,-362.4,-592.8,1353.9,1458.6,1386.6,-1335.9,5318.7,-3573.0,-687.9,-6.6,-6.3,1066.5,829.5,-1.2,1440.0,560.4,2882.7,0,1662,0,63,0, 
0.9267,-463.5,-504.3,-1842.3,1248.0,1342.5,-204.9,1169.1,-419.1,-889.2,1276.5,1384.5,1310.1,-1206.6,5526.9,-2855.4,-751.2,-6.6,-6.3,987.3,863.7,-0.9,1365.9,621.6,2829.6,0,1668,0,64,0, 
0.9300,-450.0,-539.7,-1791.3,1831.8,1925.1,-265.8,1751.1,-518.4,-741.0,1870.8,1974.6,1902.9,-1254.0,5368.5,-3456.0,-695.1,-6.9,-5.7,1581.3,1348.8,-0.9,1956.3,596.1,3300.6,0,1674,0,65,0, 
0.9333,-393.9,-455.1,-1788.9,2221.8,2318.1,-553.2,2138.7,-448.2,-592.8,2259.0,2367.6,2297.4,-1271.1,5082.3,-4403.7,-654.6,-6.9,-6.0,1971.9,1681.2,-0.3,2346.6,538.5,3645.3,0,1680,0,66,0, 
0.9367,-403.5,-457.2,-1735.5,1898.4,2000.4,-658.8,1815.9,-380.7,-370.5,1931.7,2039.4,1973.7,-1240.2,5088.9,-4358.7,-632.1,-6.6,-6.0,1643.1,1313.4,-0.6,2023.5,483.0,3359.1,0,1686,0,67,0, 
0.9400,-484.8,-519.3,-1763.7,1206.6,1303.8,-474.6,1123.8,-235.2,-815.1,1235.7,1346.1,1278.0,-1112.1,5426.4,-3252.9,-779.7,-6.9,-6.0,950.7,739.2,-0.6,1331.1,537.0,2781.3,0,1692,0,68,0, 
0.9433,-550.8,-539.4,-1750.5,1144.8,1245.3,-356.1,1065.0,-254.7,-963.3,1180.5,1288.2,1221.6,-1011.9,5607.9,-2585.7,-860.4,-6.9,-5.7,888.9,726.6,-0.9,1271.7,684.9,2712.3,0,1698,0,69,0, 
0.9467,-555.3,-544.2,-1841.4,1663.2,1761.6,-489.6,1584.6,-365.1,-1037.4,1701.0,1808.7,1742.4,-1075.8,5417.1,-3188.1,-876.3,-6.9,-6.0,1411.5,1187.1,-0.9,1794.0,675.6,3117.3,0,1704,0,70,0, 
0.9500,-477.3,-494.4,-1698.9,2147.1,2244.0,-726.6,2063.7,-293.4,-666.9,2184.9,2292.3,2228.4,-1024.2,5077.8,-4127.4,-669.3,-6.9,-5.7,1896.6,1565.1,-0.6,2276.1,634.8,3545.7,0,1710,0,71,0, 
0.9533,-378.6,-376.2,-1636.8,1869.0,1969.2,-711.6,1787.7,-232.5,-666.9,1908.6,2019.0,1949.4,-891.3,5163.9,-3975.0,-631.5,-6.9,-6.3,1620.9,1266.6,-0.9,1993.5,606.9,3326.1,0,1716,0,72,0, 
0.9567,-417.0,-384.3,-1653.3,1276.5,1377.3,-557.4,1201.5,-178.5,-741.0,1314.9,1420.8,1342.5,-810.0,5483.1,-2904.6,-727.2,-6.6,-6.3,1022.7,781.5,-0.9,1405.2,597.9,2825.4,0,1722,0,73,0, 
0.9600,-456.9,-507.9,-1713.9,1182.0,1275.3,-389.1,1110.0,-209.7,-963.3,1223.4,1326.9,1254.6,-732.6,5788.5,-2316.3,-830.4,-6.9,-6.0,928.8,801.3,-0.3,1310.7,657.0,2721.9,0,1728,0,74,0, 
0.9633,-459.9,-514.8,-1653.0,1737.6,1827.3,-519.6,1653.0,-203.7,-1037.4,1771.5,1877.4,1806.3,-741.0,5625.3,-2964.9,-741.0,-6.9,-6.3,1480.2,1187.7,-0.9,1862.1,753.3,3181.5,0,1734,0,75,0, 
0.9667,-380.1,-459.6,-1634.1,2186.4,2276.1,-787.5,2107.8,-254.4,-444.6,2233.5,2328.9,2256.9,-818.7,5278.8,-4000.2,-676.5,-6.6,-6.0,1935.9,1565.7,-0.9,2321.4,571.8,3553.8,0,1740,0,76,0, 
0.9700,-402.9,-370.2,-1604.1,1903.2,1988.1,-844.2,1819.2,-169.5,-666.9,1938.9,2041.5,1971.6,-820.2,5250.6,-4022.4,-656.7,-6.6,-6.0,1643.4,1158.6,-0.6,2031.6,513.3,3323.1,0,1746,0,77,0, 
0.9733,-473.4,-481.2,-1675.5,1255.2,1341.3,-707.4,1181.7,-235.2,-815.1,1297.2,1397.4,1323.6,-793.2,5608.5,-2940.3,-758.4,-6.6,-6.0,1000.5,626.7,-0.9,1391.1,603.6,2790.9,0,1752,0,78,0, 
0.9767,-521.4,-619.8,-1742.4,1104.0,1193.7,-517.5,1020.3,-295.5,-963.3,1153.8,1249.5,1171.5,-723.6,5738.7,-2331.6,-878.4,-6.9,-5.7,848.7,613.2,-0.3,1245.3,685.8,2612.7,0,1758,0,79,0, 
0.9800,-466.2,-624.0,-1718.1,1614.6,1705.2,-675.9,1536.0,-323.1,-963.3,1662.3,1760.7,1685.4,-790.5,5550.6,-2954.4,-848.7,-7.5,-6.0,1365.9,1212.9,-0.9,1751.4,648.3,3021.9,0,1764,0,80,0, 
0.9833,-306.6,-481.8,-1639.2,2111.1,2199.9,-834.0,2030.4,-308.1,-815.1,2158.8,2252.4,2179.8,-751.2,5241.6,-3982.5,-707.4,-7.2,-6.3,1858.5,1458.0,-0.6,2242.5,622.2,3447.6,0,1770,0,81,0, 
0.9867,-323.7,-343.5,-1627.5,1784.4,1875.9,-910.8,1711.8,-363.6,-741.0,1833.0,1928.4,1856.7,-754.2,5178.0,-3924.9,-759.3,-6.9,-6.3,1535.7,1153.5,-0.3,1922.4,606.6,3190.2,0,1776,0,82,0, 
0.9900,-456.6,-461.1,-1704.6,1097.4,1186.8,-716.4,1014.9,-366.9,-963.3,1140.3,1238.7,1163.7,-702.6,5575.8,-2901.6,-915.0,-6.9,-6.3,845.4,541.8,-0.6,1223.1,552.0,2585.4,0,1782,0,83,0, 
0.9933,-477.0,-474.6,-1802.4,966.0,1057.2,-616.8,889.5,-404.1,-1259.7,1015.8,1111.8,1032.3,-669.0,5752.5,-2337.0,-1018.8,-6.6,-6.0,717.3,543.0,-0.3,1098.9,618.9,2445.0,0,1788,0,84,0, 
0.9967,-467.7,-478.5,-1787.7,1535.7,1629.6,-641.4,1458.9,-408.0,-1185.6,1583.4,1679.4,1602.9,-711.6,5575.5,-3078.0,-970.2,-6.6,-5.7,1288.5,1032.0,-0.3,1666.2,569.7,2914.8,0,1794,0,85,0, 
1.0000,-377.7,-261.6,-1628.7,2076.6,2174.4,-761.1,2001.9,-303.3,-666.9,2124.9,2227.2,2151.3,-693.6,5265.6,-4008.9,-777.9,-6.6,-5.7,1838.1,1446.9,-0.6,2210.7,550.5,3386.4,0,1800,0,86,0, 
1.0033,-403.2,-284.7,-1671.0,1744.5,1841.7,-883.8,1662.3,-279.0,-741.0,1790.7,1888.8,1815.9,-732.3,5210.4,-4002.9,-801.6,-7.2,-6.0,1495.5,985.8,-0.9,1872.3,404.7,3109.5,0,1806,0,87,0, 
1.0067,-484.2,-313.5,-1727.4,1078.2,1171.5,-680.1,998.1,-259.5,-889.2,1113.3,1221.9,1147.8,-580.8,5518.5,-2957.7,-942.0,-6.9,-6.0,830.4,426.3,-0.6,1207.2,535.8,2554.5,0,1812,0,88,0, 
1.0100,-546.6,-478.2,-1791.6,1041.0,1139.1,-516.6,959.4,-205.5,-1333.8,1082.1,1184.1,1114.8,-576.0,5755.2,-2316.3,-964.2,-6.9,-5.7,787.2,474.9,-0.9,1170.9,507.9,2515.8,0,1818,0,89,0, 
1.0133,-492.0,-444.9,-1803.3,1630.2,1725.9,-557.7,1544.1,-262.2,-1111.5,1674.9,1780.8,1710.6,-570.9,5608.2,-3000.0,-963.6,-6.9,-5.7,1387.2,1077.6,-0.9,1764.0,465.6,3005.1,0,1824,0,90,0, 
1.0167,-400.2,-293.7,-1706.7,2131.8,2226.3,-794.4,2043.9,-235.5,-666.9,2172.0,2274.9,2213.7,-657.6,5265.3,-3960.6,-810.6,-6.9,-6.0,1881.9,1378.8,-0.6,2258.4,455.1,3452.1,0,1830,0,91,0, 
1.0200,-342.9,-270.9,-1702.5,1842.0,1933.5,-908.7,1756.5,-112.8,-592.8,1878.0,1986.3,1923.6,-637.2,5269.5,-3902.4,-787.2,-6.6,-6.0,1591.5,1097.7,-0.9,1973.1,461.1,3215.4,0,1836,0,92,0, 
1.0233,-529.8,-413.1,-1830.6,1176.9,1271.4,-756.3,1090.2,-100.5,-889.2,1211.7,1321.2,1256.1,-542.7,5562.3,-2906.7,-936.0,-6.9,-5.7,927.3,511.2,-0.6,1302.3,479.7,2642.7,0,1842,0,93,0, 
1.0267,-565.5,-561.9,-1932.3,1089.9,1181.1,-663.9,1005.3,-228.9,-1185.6,1119.9,1228.8,1159.8,-583.5,5768.7,-2298.3,-1044.9,-6.6,-6.0,837.0,523.5,-1.2,1206.0,576.6,2541.3,0,1848,0,94,0, 
1.0300,-514.2,-581.7,-1929.9,1692.0,1784.4,-727.8,1598.1,-293.1,-963.3,1725.6,1830.3,1764.3,-650.1,5506.2,-3016.2,-1032.6,-6.9,-5.7,1437.0,1101.3,-0.6,1811.1,576.3,3036.3,0,1854,0,95,0, 
1.0333,-417.9,-425.4,-1817.1,2141.1,2232.6,-884.4,2040.6,-286.8,-666.9,2173.8,2280.9,2216.1,-699.9,5187.3,-4013.7,-881.7,-6.6,-5.7,1893.3,1452.9,-0.9,2258.4,569.1,3424.5,0,1860,0,96,0, 
1.0367,-409.8,-402.3,-1782.9,1836.9,1930.5,-918.9,1743.6,-198.9,-666.9,1863.3,1973.4,1915.5,-660.9,5230.8,-4059.6,-829.5,-6.9,-6.0,1579.5,1063.8,-0.6,1954.2,558.3,3144.6,0,1866,0,97,0, 
1.0400,-476.7,-463.8,-1842.6,1195.8,1287.0,-711.9,1109.1,-267.6,-666.9,1221.3,1332.0,1274.7,-645.0,5435.4,-3080.1,-923.7,-6.9,-6.0,938.7,475.2,-0.9,1318.5,536.7,2615.4,0,1872,0,98,0, 
1.0433,-620.7,-537.0,-1936.2,1062.0,1159.5,-570.3,971.1,-294.9,-1111.5,1099.5,1203.6,1142.7,-622.2,5537.7,-2516.1,-1011.3,-6.9,-5.7,812.7,422.1,-0.6,1184.7,519.3,2490.0,0,1878,0,99,0, 
1.0467,-513.6,-552.6,-1889.1,1642.8,1733.7,-693.6,1545.6,-319.5,-963.3,1678.5,1786.8,1717.5,-712.5,5361.6,-3301.8,-1012.2,-6.9,-6.0,1398.9,1104.9,-1.2,1764.3,609.3,2967.3,0,1884,0,100,0, 
1.0500,-411.9,-435.9,-1841.1,2104.8,2193.3,-892.8,2003.1,-314.1,-889.2,2142.0,2245.8,2181.6,-761.4,5026.2,-4375.5,-902.4,-7.2,-6.0,1860.0,1367.1,-0.3,2231.1,436.5,3371.7,0,1890,0,101,0, 
1.0533,-320.4,-325.2,-1715.1,1905.9,1994.7,-870.9,1804.8,-161.1,-518.7,1936.5,2050.2,1985.4,-761.4,5074.2,-4295.7,-796.5,-6.9,-5.7,1659.3,1018.2,-0.6,2024.4,405.6,3210.9,0,1896,0,102,0, 
1.0567,-445.2,-441.3,-1827.9,1316.1,1413.6,-740.1,1221.6,-237.6,-741.0,1356.0,1461.3,1398.0,-713.7,5275.2,-3340.2,-929.7,-6.9,-6.0,1067.1,546.3,-0.6,1443.9,368.7,2701.2,0,1902,0,103,0, 
1.0600,-454.2,-555.0,-1841.7,1233.3,1323.0,-468.0,1142.7,-236.1,-963.3,1277.4,1378.5,1316.4,-653.7,5536.2,-2781.3,-969.6,-7.2,-6.0,987.9,738.6,-0.6,1356.9,453.3,2611.5,0,1908,0,104,0, 
1.0633,-456.3,-615.0,-1847.7,1770.6,1859.4,-621.3,1669.2,-299.4,-815.1,1816.2,1913.4,1851.6,-721.8,5334.9,-3505.2,-922.8,-7.2,-6.0,1525.8,1195.8,-0.9,1895.7,425.4,3065.1,0,1914,0,105,0, 
1.0667,-266.7,-417.3,-1696.5,2310.9,2401.5,-797.7,2212.5,-171.0,-518.7,2355.3,2455.8,2395.8,-747.0,5069.7,-4498.8,-796.5,-6.9,-5.7,2066.4,1651.8,-1.2,2436.0,459.3,3556.2,0,1920,0,106,0, 
1.0700,-344.1,-520.2,-1735.2,2012.7,2109.6,-939.9,1912.5,-255.9,-444.6,2053.2,2155.8,2098.8,-800.1,4944.0,-4620.9,-739.8,-6.9,-6.3,1766.4,1204.2,-0.6,2135.1,399.3,3290.4,0,1926,0,107,0, 
1.0733,-390.0,-598.8,-1741.2,1384.2,1484.7,-672.6,1291.5,-159.3,-666.9,1423.8,1527.6,1471.2,-724.2,5276.7,-3637.2,-838.8,-6.9,-5.4,1137.6,638.7,-0.9,1516.5,456.3,2765.1,0,1932,0,108,0, 
1.0767,-477.9,-567.6,-1776.9,1346.7,1440.3,-517.8,1254.3,-144.9,-963.3,1388.4,1484.7,1423.8,-753.9,5535.9,-3010.2,-893.4,-6.9,-6.0,1093.2,762.0,-0.6,1469.1,602.7,2758.2,0,1938,0,109,0, 
1.0800,-485.7,-607.2,-1804.8,1941.6,2034.3,-702.9,1846.5,-235.8,-815.1,1975.2,2077.5,2019.9,-961.8,5274.6,-3796.8,-891.0,-6.9,-5.7,1693.2,1356.6,-0.6,2064.6,631.8,3250.8,0,1944,0,110,0, 
1.0833,-388.2,-519.9,-1663.8,2402.1,2498.1,-848.7,2307.9,-116.4,-370.5,2436.6,2539.8,2482.5,-1023.0,5054.7,-4697.4,-693.6,-7.2,-5.7,2156.4,1780.8,-0.6,2531.7,563.7,3618.0,0,1950,0,111,0, 
1.0867,-400.8,-466.5,-1681.5,2082.9,2178.9,-970.5,1989.0,-98.1,-370.5,2121.6,2214.3,2160.6,-1042.8,4950.0,-4685.4,-703.8,-6.9,-6.0,1827.0,1344.0,-0.9,2207.4,355.2,3354.0,0,1956,0,112,0, 
1.0900,-453.6,-528.9,-1757.1,1534.2,1632.6,-798.6,1446.3,-62.7,-518.7,1571.1,1668.0,1611.9,-912.3,5265.0,-3741.9,-720.9,-6.9,-6.0,1279.8,796.8,-0.9,1660.2,443.4,2893.2,0,1962,0,113,0, 
1.0933,-525.0,-603.0,-1833.0,1464.6,1560.6,-647.1,1375.2,-168.9,-666.9,1506.9,1601.1,1551.6,-890.1,5496.0,-3096.6,-778.2,-6.9,-6.3,1212.6,856.5,-0.9,1590.6,488.4,2844.9,0,1968,0,114,0, 
1.0967,-476.7,-507.0,-1747.8,2060.7,2155.5,-688.5,1964.7,-171.6,-666.9,2101.2,2197.5,2144.4,-991.2,5294.4,-3737.1,-722.4,-7.2,-6.0,1811.4,1369.8,-0.6,2189.1,495.3,3349.5,0,1974,0,115,0, 
1.1000,-292.2,-397.5,-1657.8,2541.9,2636.4,-876.3,2446.2,-218.4,-296.4,2587.8,2676.9,2622.0,-1047.9,4897.5,-4675.8,-604.5,-6.9,-6.3,2292.9,1812.0,-1.2,2670.9,494.1,3747.3,0,1980,0,116,0, 
1.1033,-289.8,-409.5,-1647.6,2223.3,2320.8,-923.4,2132.7,-80.4,-222.3,2260.8,2361.3,2297.7,-1031.7,4929.6,-4635.0,-586.2,-7.2,-5.7,1977.3,1441.8,-0.6,2351.1,399.6,3486.6,0,1986,0,117,0, 
1.1067,-426.3,-548.7,-1775.1,1612.8,1713.0,-740.7,1533.9,-175.8,-370.5,1660.2,1745.7,1689.6,-860.4,5210.7,-3660.9,-714.6,-6.9,-6.3,1356.6,930.3,-0.6,1745.1,482.4,2987.7,0,1992,0,118,0, 
1.1100,-480.0,-672.0,-1870.2,1515.0,1610.7,-566.1,1428.0,-149.7,-444.6,1555.8,1652.1,1592.7,-922.2,5380.2,-3075.0,-781.8,-6.9,-5.7,1263.0,955.5,-0.6,1646.7,551.1,2878.2,0,1998,0,119,0, 
1.1133,-401.7,-552.0,-1823.1,2141.1,2235.0,-617.7,2050.2,-177.6,-518.7,2183.4,2271.9,2213.7,-989.1,5130.6,-3776.4,-714.9,-6.9,-6.3,1886.1,1559.7,-0.6,2270.1,553.2,3415.2,0,2004,0,120,0, 
1.1167,-340.5,-531.6,-1798.8,2611.8,2705.1,-788.4,2524.2,-142.8,-222.3,2643.0,2739.6,2685.3,-1049.1,4757.7,-4823.4,-593.7,-6.3,-6.0,2355.6,1810.8,-0.6,2736.9,471.6,3796.2,0,2010,0,121,0, 
1.1200,-382.5,-462.0,-1812.0,2334.3,2428.2,-858.9,2249.4,-84.0,-148.2,2369.1,2461.5,2407.8,-1060.2,4731.6,-4810.2,-537.3,-6.9,-6.0,2074.8,1446.3,-1.2,2452.2,405.3,3564.3,0,2016,0,122,0, 
1.1233,-489.3,-525.0,-1913.1,1644.6,1737.0,-644.7,1561.2,-124.2,-296.4,1668.0,1769.7,1714.5,-996.0,5046.0,-3880.5,-711.3,-6.6,-6.0,1384.5,922.5,-0.9,1763.7,410.1,2988.0,0,2022,0,123,0, 
1.1267,-469.8,-609.9,-1949.7,1581.3,1675.8,-427.8,1499.7,-158.1,-592.8,1613.7,1708.2,1653.6,-895.2,5205.9,-3247.8,-787.8,-6.9,-6.3,1320.9,977.7,-0.9,1704.3,487.5,2912.4,0,2028,0,124,0, 
1.1300,-340.8,-507.0,-1818.9,2286.9,2377.8,-438.3,2191.8,-284.1,-444.6,2313.0,2415.9,2360.4,-1000.2,5132.1,-3902.1,-607.5,-6.9,-6.6,2027.1,1667.7,-0.6,2403.6,691.2,3505.2,0,2034,0,125,0, 
1.1333,-280.8,-341.1,-1701.0,2781.3,2876.7,-646.5,2689.5,-192.3,74.1,2815.8,2914.8,2856.0,-987.0,4802.7,-4962.6,-464.7,-7.2,-6.0,2529.9,2017.5,-0.9,2901.6,561.0,3929.7,0,2040,0,126,0, 
1.1367,-434.7,-431.7,-1725.6,2411.1,2502.3,-791.1,2318.1,-269.1,-74.1,2439.3,2541.3,2486.1,-1105.8,4651.8,-5084.7,-516.9,-6.6,-5.7,2154.6,1548.9,-0.6,2524.2,438.0,3634.8,0,2046,0,127,0, 
1.1400,-488.1,-539.7,-1860.3,1761.0,1852.2,-599.7,1674.0,-240.3,-296.4,1785.0,1888.8,1833.3,-1124.4,4934.1,-4111.8,-623.4,-6.9,-6.0,1498.2,997.2,-0.6,1872.6,479.4,3080.1,0,2052,0,128,0, 
1.1433,-551.7,-582.0,-1940.4,1664.1,1752.0,-397.5,1574.4,-272.1,-518.7,1688.1,1793.1,1740.6,-1090.8,5121.3,-3451.8,-686.7,-6.6,-6.0,1403.1,1078.5,-0.6,1780.2,607.2,3007.5,0,2058,0,129,0, 
1.1467,-455.4,-588.6,-1893.0,2275.2,2367.0,-509.4,2186.1,-203.1,-370.5,2307.6,2407.5,2355.3,-1167.9,4933.8,-4176.3,-614.4,-7.2,-6.0,2019.0,1661.7,-0.3,2394.3,606.3,3507.6,0,2064,0,130,0, 
1.1500,-331.5,-496.5,-1769.1,2790.3,2883.3,-751.8,2697.0,-192.0,-74.1,2813.7,2922.9,2871.9,-1240.5,4685.4,-5222.7,-480.9,-6.6,-6.0,2529.3,1969.5,-0.9,2901.9,613.2,3919.2,0,2070,0,131,0, 
1.1533,-430.5,-451.2,-1856.4,2404.2,2495.4,-912.0,2309.1,-213.0,0.0,2421.0,2528.4,2475.3,-1334.1,4652.4,-5289.6,-514.2,-6.9,-6.0,2138.1,1581.9,-0.6,2506.8,501.6,3605.4,0,2076,0,132,0, 
1.1567,-533.1,-496.5,-1952.7,1689.3,1785.0,-723.0,1594.5,-188.7,-444.6,1714.2,1818.0,1767.6,-1296.3,4959.3,-4232.1,-688.8,-7.2,-6.3,1424.4,977.4,-0.9,1798.2,559.2,2989.8,0,2082,0,133,0, 
1.1600,-570.6,-562.2,-2068.8,1612.5,1704.9,-571.5,1521.0,-103.5,-592.8,1635.3,1742.1,1691.4,-1234.8,5029.8,-3680.7,-782.7,-7.2,-6.0,1349.1,1062.3,-0.9,1726.2,658.2,2889.9,0,2088,0,134,0, 
1.1633,-532.2,-568.8,-1984.8,2280.0,2367.9,-579.0,2189.7,-122.4,-518.7,2308.2,2411.1,2357.1,-1309.5,4775.7,-4253.7,-729.3,-6.6,-6.0,2018.7,1678.8,-0.6,2391.9,689.7,3464.1,0,2094,0,135,0, 
1.1667,-432.9,-585.9,-1903.5,2791.8,2881.8,-775.2,2702.1,-149.7,-148.2,2827.5,2923.5,2867.7,-1344.3,4455.3,-5475.3,-545.4,-6.6,-6.0,2533.8,1974.6,-0.6,2909.1,480.9,3885.6,0,2100,0,136,0, 
1.1700,-379.8,-576.3,-1843.2,2562.9,2656.2,-853.5,2472.0,-134.1,148.2,2595.6,2697.0,2640.3,-1286.1,4424.4,-5346.3,-438.0,-6.9,-6.0,2303.4,1707.6,-0.6,2677.8,494.4,3726.6,0,2106,0,137,0, 
1.1733,-463.2,-578.1,-1909.8,1964.7,2057.4,-589.5,1877.1,-20.4,-222.3,1986.3,2096.1,2042.7,-1172.1,4635.6,-4388.7,-521.1,-6.9,-5.7,1702.2,1166.4,-0.9,2072.4,490.5,3226.5,0,2112,0,138,0, 
1.1767,-461.1,-680.1,-1965.3,1838.1,1923.3,-433.8,1742.7,-92.7,-444.6,1860.9,1968.6,1916.4,-1191.9,4772.7,-3787.2,-597.6,-6.9,-6.0,1575.3,1216.5,-0.9,1948.8,540.9,3078.3,0,2118,0,139,0, 
1.1800,-447.6,-618.3,-1980.3,2404.5,2490.3,-536.7,2309.7,-222.9,-444.6,2426.4,2535.9,2485.2,-1213.5,4615.2,-4544.4,-596.1,-6.9,-6.0,2144.4,1679.4,-0.9,2518.5,493.5,3541.5,0,2124,0,140,0, 
1.1833,-385.2,-573.3,-1867.2,2860.2,2946.0,-766.5,2770.2,-243.9,74.1,2891.7,2993.4,2945.7,-1325.7,4344.3,-5573.1,-495.9,-7.2,-6.0,2601.0,2083.8,-0.9,2982.0,498.6,3939.0,0,2130,0,141,0, 
1.1867,-408.6,-541.5,-1865.7,2557.8,2652.9,-828.9,2478.9,-263.4,0.0,2589.0,2695.5,2637.3,-1337.4,4277.1,-5569.5,-447.6,-6.9,-6.0,2302.2,1649.1,-0.3,2681.7,417.6,3688.8,0,2136,0,142,0, 
1.1900,-528.0,-718.2,-2026.2,1876.8,1971.6,-662.4,1791.0,-304.8,-296.4,1912.5,2015.4,1950.9,-1355.1,4516.8,-4596.0,-594.3,-6.6,-6.0,1622.1,1185.6,-0.6,1997.4,420.9,3120.6,0,2142,0,143,0, 
1.1933,-660.6,-717.0,-2115.6,1821.6,1915.8,-490.5,1730.1,-285.0,-370.5,1857.9,1958.7,1900.2,-1443.9,4701.0,-3992.7,-622.8,-7.2,-6.3,1562.4,1121.4,-0.6,1941.0,552.0,3059.7,0,2148,0,144,0, 
1.1967,-565.2,-726.0,-2115.3,2394.6,2487.3,-543.3,2305.5,-284.1,-370.5,2430.9,2534.4,2471.4,-1576.5,4548.3,-4779.3,-583.5,-6.9,-6.3,2138.1,1660.2,-0.9,2521.8,570.3,3518.4,0,2154,0,145,0, 
1.2000,-480.9,-699.0,-2025.9,2853.6,2949.3,-796.5,2765.1,-247.5,-74.1,2893.5,2994.9,2938.5,-1599.9,4221.0,-5854.8,-518.7,-6.9,-6.3,2599.2,1997.1,-0.6,2983.2,460.5,3910.5,0,2160,0,146,0, 
1.2033,-400.2,-631.8,-1948.5,2511.0,2609.1,-770.4,2429.1,-130.8,148.2,2549.1,2653.5,2594.4,-1573.2,4217.1,-5817.3,-489.0,-7.2,-6.0,2256.3,1694.4,-0.6,2639.7,420.6,3660.0,0,2166,0,147,0, 
1.2067,-539.4,-666.9,-2053.5,1882.2,1974.9,-642.0,1800.6,-67.5,-296.4,1914.9,2025.3,1962.3,-1536.0,4476.6,-4799.4,-591.9,-6.9,-5.7,1627.2,1065.6,-0.9,2010.3,480.6,3096.9,0,2172,0,148,0, 
1.2100,-591.6,-726.9,-2130.6,1776.3,1870.2,-471.3,1689.0,-103.2,-592.8,1811.7,1917.9,1855.5,-1589.1,4608.6,-4216.8,-708.6,-6.6,-6.0,1517.4,1098.6,-0.6,1902.6,606.3,3010.2,0,2178,0,149,0, 
1.2133,-624.3,-687.0,-2134.5,2409.9,2502.0,-570.0,2322.6,-126.9,-370.5,2446.8,2553.0,2492.7,-1667.1,4398.0,-4875.0,-606.9,-6.3,-5.7,2156.7,1661.4,-0.9,2534.7,614.7,3519.0,0,2184,0,150,0, 
1.2167,-555.3,-563.4,-2028.3,2917.2,3013.2,-683.1,2828.1,-67.5,0.0,2957.4,3064.2,2996.4,-1651.2,3987.9,-5887.8,-474.6,-6.9,-6.0,2666.4,2101.2,-0.6,3047.7,576.0,3952.8,0,2190,0,151,0, 
1.2200,-530.4,-463.8,-2028.3,2620.8,2715.3,-747.3,2540.7,45.3,148.2,2660.7,2763.9,2698.8,-1664.4,4041.0,-5879.4,-403.2,-6.9,-5.7,2370.3,1706.4,-0.3,2747.4,543.9,3696.3,0,2196,0,152,0, 
1.2233,-639.3,-533.4,-2166.6,1973.4,2069.1,-643.2,1894.2,34.8,-148.2,2007.9,2113.5,2050.2,-1563.3,4376.7,-4913.1,-516.6,-6.9,-5.7,1718.1,1163.1,-0.6,2104.5,569.4,3159.3,0,2202,0,153,0, 
1.2267,-653.4,-622.5,-2246.7,1956.3,2050.2,-459.9,1878.9,117.6,-296.4,1998.3,2096.1,2038.8,-1590.9,4514.1,-4305.9,-550.5,-6.9,-6.0,1700.1,1227.6,-0.9,2088.6,708.0,3131.7,0,2208,0,154,0, 
1.2300,-531.0,-564.3,-2152.8,2647.2,2743.2,-542.7,2563.8,69.9,-148.2,2684.7,2789.7,2729.7,-1673.7,4301.7,-5042.4,-455.1,-7.2,-5.7,2394.0,1822.8,-0.9,2774.4,785.7,3720.0,0,2214,0,155,0, 
1.2333,-471.9,-529.8,-2093.4,3104.7,3194.1,-756.0,3019.8,-22.8,222.3,3148.2,3249.0,3186.6,-1747.5,3883.8,-6143.1,-301.5,-7.2,-5.4,2855.1,2133.6,0.0,3237.0,583.2,4096.8,0,2220,0,156,0, 
1.2367,-464.4,-426.3,-2075.4,2863.8,2953.2,-849.0,2782.5,-9.6,370.5,2902.5,3008.4,2941.8,-1733.1,3819.0,-6068.1,-240.9,-7.2,-6.0,2611.2,1845.9,-0.6,2997.0,541.5,3903.6,0,2226,0,157,0, 
1.2400,-626.7,-542.1,-2195.4,2201.7,2292.3,-674.1,2124.6,-73.2,148.2,2243.7,2343.3,2281.5,-1683.3,4138.2,-5086.5,-368.4,-6.9,-5.7,1944.9,1425.0,-1.2,2329.5,595.2,3335.7,0,2232,0,158,0, 
1.2433,-711.0,-687.3,-2268.3,2070.3,2159.1,-495.9,1986.0,-129.0,-296.4,2107.8,2209.8,2147.4,-1740.0,4275.0,-4548.6,-506.4,-7.2,-6.0,1818.0,1294.2,-0.6,2199.9,658.8,3199.5,0,2238,0,159,0, 
1.2467,-595.8,-594.0,-2160.6,2697.3,2787.6,-494.7,2618.4,-144.6,-74.1,2745.9,2840.4,2780.4,-1719.3,4152.6,-5227.2,-401.4,-6.3,-6.0,2448.0,1953.6,-0.6,2833.2,645.3,3737.4,0,2244,0,160,0, 
1.2500,-513.3,-490.8,-2139.3,3184.2,3275.4,-760.5,3103.5,-171.0,370.5,3230.4,3327.3,3264.0,-1814.7,3745.8,-6268.8,-238.5,-6.9,-6.3,2935.8,2328.0,-0.6,3320.4,556.8,4131.0,0,2250,0,161,0, 
1.2533,-477.9,-491.4,-2016.3,2930.7,3024.3,-836.4,2851.5,-23.1,444.6,2976.6,3069.3,3011.1,-1836.9,3781.2,-6258.0,-182.4,-7.2,-6.0,2680.5,2016.6,-0.9,3072.6,500.7,3939.0,0,2256,0,162,0, 
1.2567,-564.3,-520.8,-2108.7,2358.6,2447.4,-610.8,2272.5,11.7,222.3,2399.7,2493.9,2436.6,-1860.9,4131.9,-5234.1,-258.6,-6.9,-5.7,2098.2,1398.3,-0.6,2496.0,600.3,3434.7,0,2262,0,163,0, 
1.2600,-608.4,-642.9,-2206.8,2305.2,2390.4,-428.7,2220.6,-55.5,0.0,2345.4,2437.8,2378.1,-1952.1,4240.8,-4697.4,-333.3,-6.9,-5.7,2047.8,1490.7,-0.6,2437.5,770.4,3401.7,0,2268,0,164,0, 
1.2633,-558.0,-564.6,-2134.2,2898.6,2986.8,-534.6,2822.1,-139.5,296.4,2950.2,3039.9,2978.4,-1939.8,4098.6,-5414.4,-246.0,-6.6,-6.0,2649.0,2157.0,-1.2,3035.4,866.4,3888.0,0,2274,0,165,0, 
1.2667,-499.2,-567.3,-2058.0,3409.8,3493.8,-807.6,3321.3,-160.5,444.6,3450.9,3544.8,3484.8,-2020.8,3776.4,-6597.3,-140.7,-6.9,-6.3,3158.4,2531.7,-0.9,3538.5,603.3,4310.1,0,2280,0,166,0, 
1.2700,-614.4,-501.9,-2044.5,3068.4,3150.0,-888.3,2983.8,-105.9,592.8,3111.6,3199.8,3135.3,-2060.7,3663.9,-6589.8,-142.5,-6.9,-6.0,2811.6,2079.3,-0.6,3199.2,541.5,4015.5,0,2286,0,167,0, 
1.2733,-695.4,-613.8,-2146.5,2385.6,2471.7,-768.9,2309.1,-138.3,296.4,2424.9,2515.5,2453.7,-2049.3,3959.4,-5630.4,-344.4,-6.9,-6.0,2122.5,1563.3,-0.6,2513.1,577.8,3439.2,0,2292,0,168,0, 
1.2767,-763.2,-750.6,-2243.4,2256.3,2338.5,-612.3,2172.9,-145.8,74.1,2287.2,2384.7,2316.6,-1913.7,4157.7,-5046.3,-396.3,-6.3,-5.7,1992.3,1538.4,-0.6,2374.2,665.4,3319.2,0,2298,0,169,0, 
1.2800,-645.3,-642.0,-2145.6,2942.7,3030.3,-625.2,2855.4,-147.6,296.4,2982.0,3072.6,3014.4,-1955.4,4005.9,-5671.5,-272.7,-6.6,-5.7,2683.2,2156.4,-0.9,3066.6,734.1,3890.7,0,2304,0,170,0, 
1.2833,-632.1,-555.9,-2064.6,3403.8,3493.8,-876.6,3315.9,-107.1,444.6,3432.0,3535.5,3473.4,-1995.3,3684.6,-6756.3,-117.9,-6.9,-6.0,3144.9,2550.9,-0.6,3520.2,642.0,4290.6,0,2310,0,171,0, 
1.2867,-712.2,-641.4,-2070.3,3097.2,3197.1,-1007.4,3013.5,-177.6,666.9,3134.7,3230.7,3168.9,-2043.9,3537.9,-6728.1,-175.5,-6.6,-6.0,2834.7,2117.4,-0.9,3221.4,518.4,4034.7,0,2316,0,172,0, 
1.2900,-798.6,-747.0,-2217.3,2507.1,2602.8,-804.0,2417.1,-128.7,296.4,2532.3,2635.8,2577.0,-2052.0,3915.9,-5729.7,-185.4,-6.9,-6.0,2241.9,1680.0,-0.6,2624.4,529.2,3546.9,0,2322,0,173,0, 
1.2933,-816.9,-750.3,-2270.4,2413.8,2505.9,-566.4,2326.8,-112.5,74.1,2449.5,2548.5,2487.3,-1958.1,4061.7,-5092.2,-229.5,-6.6,-6.0,2155.5,1756.2,-0.6,2541.9,646.8,3458.7,0,2328,0,174,0, 
1.2967,-814.8,-746.1,-2200.8,3060.3,3150.3,-640.5,2964.6,-225.6,370.5,3090.6,3190.2,3131.4,-1987.2,3805.2,-5794.2,-162.0,-6.9,-6.0,2802.0,2264.1,-0.3,3177.6,605.1,3985.2,0,2334,0,175,0, 
1.3000,-727.2,-622.5,-2125.8,3543.0,3633.9,-849.6,3453.9,-231.9,592.8,3582.3,3679.8,3621.0,-2068.5,3493.5,-6907.8,-51.9,-6.6,-6.0,3293.1,2647.2,-0.6,3669.6,535.5,4398.3,0,2340,0,176,0, 
1.3033,-696.3,-603.3,-2103.9,3263.1,3349.8,-905.7,3169.5,-194.7,815.1,3293.4,3394.5,3339.3,-2127.3,3481.8,-6829.5,7.5,-6.9,-6.0,3000.9,2328.6,-0.9,3380.7,431.7,4187.4,0,2346,0,177,0, 
1.3067,-804.0,-670.8,-2071.2,2609.1,2698.5,-663.3,2523.0,-105.9,444.6,2641.5,2740.8,2685.0,-2050.5,3816.6,-5731.2,-62.7,-6.9,-5.7,2349.9,1905.0,-1.2,2730.0,536.1,3633.9,0,2352,0,178,0, 
1.3100,-914.1,-819.9,-2229.6,2450.4,2539.2,-574.2,2365.2,-243.6,222.3,2485.8,2582.4,2526.0,-2109.6,4002.0,-5161.2,-230.1,-6.6,-6.0,2192.1,1725.9,-1.2,2575.8,533.7,3467.7,0,2358,0,179,0, 
1.3133,-795.6,-757.2,-2146.5,3101.7,3193.8,-605.4,3016.5,-232.8,296.4,3140.4,3236.1,3177.9,-2062.8,3757.5,-5862.0,-89.4,-7.2,-5.7,2848.2,2374.2,-0.9,3228.3,591.9,4008.6,0,2364,0,180,0, 
1.3167,-657.0,-646.5,-2031.9,3609.9,3698.4,-829.5,3520.2,-252.3,741.0,3644.1,3741.6,3683.7,-2149.2,3326.1,-7030.2,5.1,-6.6,-5.7,3351.0,2693.1,-0.9,3731.4,556.2,4429.5,0,2370,0,181,0, 
1.3200,-688.5,-653.7,-1963.5,3306.0,3394.2,-888.9,3211.2,-195.6,741.0,3337.2,3434.7,3377.4,-2141.1,3406.5,-7024.8,8.4,-7.2,-6.0,3044.7,2358.0,-0.6,3423.3,536.7,4190.1,0,2376,0,182,0, 
1.3233,-753.9,-826.5,-2055.9,2646.6,2736.9,-663.0,2559.3,-270.9,592.8,2673.9,2776.8,2720.1,-2074.2,3667.2,-5959.5,-100.5,-6.3,-6.0,2385.3,1804.5,-1.2,2763.6,626.4,3634.8,0,2382,0,183,0, 
1.3267,-865.5,-931.8,-2127.0,2502.0,2595.3,-482.4,2416.2,-271.2,222.3,2536.5,2634.0,2576.7,-2157.3,3852.3,-5409.0,-267.3,-6.9,-5.7,2244.3,1905.9,-0.6,2622.9,745.2,3504.6,0,2388,0,184,0, 
1.3300,-762.9,-813.0,-2040.6,3181.8,3271.8,-491.7,3094.2,-282.3,296.4,3216.3,3316.5,3255.3,-2162.1,3581.4,-6092.7,-195.0,-7.2,-6.0,2927.1,2434.5,-1.2,3306.9,749.4,4072.2,0,2394,0,185,0, 
1.3333,-690.0,-677.1,-1874.1,3678.6,3769.5,-650.7,3588.0,-219.6,889.2,3714.0,3815.4,3759.6,-2174.1,3285.9,-7131.3,-45.0,-7.2,-6.0,3422.1,2824.5,-0.6,3803.7,705.3,4473.3,0,2400,0,186,0, 
1.3367,-715.2,-657.3,-1942.8,3318.9,3410.1,-719.1,3232.2,-171.3,741.0,3351.3,3455.4,3395.4,-2196.3,3220.8,-7151.1,-19.8,-6.9,-6.0,3067.5,2465.7,-1.2,3444.9,611.1,4195.5,0,2406,0,187,0, 
1.3400,-896.7,-749.7,-2045.4,2591.4,2685.9,-576.9,2513.1,-117.6,444.6,2624.1,2723.7,2663.1,-2215.8,3447.0,-6130.5,-180.0,-7.2,-6.3,2329.8,1908.0,-0.6,2710.5,606.3,3607.8,0,2412,0,188,0, 
1.3433,-910.5,-853.5,-2150.1,2471.1,2562.3,-420.9,2392.5,-152.1,148.2,2507.1,2607.0,2549.1,-2166.3,3573.3,-5563.5,-335.1,-6.9,-5.7,2214.0,1890.6,-0.9,2597.7,587.1,3456.6,0,2418,0,189,0, 
1.3467,-822.9,-787.8,-2076.6,3104.4,3197.7,-515.4,3015.3,-146.1,296.4,3139.2,3242.1,3179.1,-2099.1,3424.2,-6271.5,-240.3,-6.9,-6.0,2844.9,2441.7,-0.9,3225.0,710.4,3966.6,0,2424,0,190,0, 
1.3500,-803.7,-660.0,-2049.3,3582.0,3672.3,-812.1,3498.0,-120.3,741.0,3616.2,3717.6,3662.1,-2153.7,3078.3,-7322.4,-114.0,-7.2,-5.7,3328.2,2654.7,-0.9,3708.9,591.0,4375.5,0,2430,0,191,0, 
1.3533,-801.3,-562.5,-2022.9,3293.1,3387.0,-842.4,3203.7,-96.6,815.1,3328.8,3431.1,3375.3,-2142.3,3114.3,-7218.6,-118.2,-6.9,-6.0,3036.6,2457.3,-0.9,3417.0,532.2,4129.8,0,2436,0,192,0, 
1.3567,-914.1,-715.5,-2183.4,2545.2,2642.1,-695.1,2456.4,-90.3,444.6,2583.0,2686.2,2631.6,-2089.2,3418.8,-6229.2,-269.4,-6.9,-5.7,2292.0,1856.7,-0.6,2675.4,496.5,3489.9,0,2442,0,193,0, 
1.3600,-962.4,-784.5,-2231.4,2442.6,2538.3,-509.7,2358.9,-151.8,74.1,2483.1,2583.3,2532.6,-1988.4,3614.7,-5599.2,-412.5,-6.9,-6.0,2189.1,1805.1,-0.6,2572.8,544.8,3396.0,0,2448,0,194,0, 
1.3633,-894.6,-664.8,-2174.7,3042.6,3138.9,-597.6,2957.4,-175.2,296.4,3086.4,3182.7,3135.3,-2049.3,3422.1,-6370.5,-375.9,-6.6,-6.0,2792.7,2300.1,-0.3,3174.6,472.8,3879.9,0,2454,0,195,0, 
1.3667,-867.9,-511.5,-2034.9,3500.4,3590.7,-840.6,3414.3,-210.6,592.8,3541.5,3639.9,3583.2,-2190.6,3035.4,-7539.3,-271.5,-6.9,-6.3,3251.1,2648.1,-1.2,3634.8,357.9,4280.1,0,2460,0,196,0, 
1.3700,-879.3,-499.2,-2063.4,3089.7,3181.5,-931.5,3006.9,-207.0,592.8,3130.2,3230.4,3170.4,-2152.2,3069.0,-7522.8,-279.9,-6.9,-5.7,2840.4,2256.6,-0.6,3224.7,327.6,3919.2,0,2466,0,197,0, 
1.3733,-965.7,-482.1,-2068.8,2448.6,2537.4,-633.3,2369.1,-119.4,222.3,2485.2,2582.7,2527.5,-2046.6,3330.9,-6423.3,-412.5,-6.6,-6.6,2188.2,1715.7,-0.6,2580.3,392.1,3383.4,0,2472,0,198,0, 
1.3767,-990.9,-553.8,-2182.5,2402.7,2495.1,-490.5,2327.7,-169.5,74.1,2443.5,2542.5,2487.3,-2050.8,3429.9,-5806.2,-481.8,-6.6,-6.0,2147.7,1703.7,-0.6,2531.1,545.7,3331.5,0,2478,0,199,0, 
1.3800,-933.6,-526.8,-2116.8,3114.6,3203.1,-577.8,3030.9,-261.6,370.5,3152.1,3255.0,3197.4,-2105.7,3183.0,-6528.6,-365.1,-6.9,-6.0,2862.3,2368.2,-0.6,3244.5,444.0,3912.6,0,2484,0,200,0, 
1.3833,-825.9,-485.4,-1976.4,3623.1,3716.7,-860.4,3534.6,-171.3,666.9,3657.0,3762.0,3705.0,-2153.1,2895.3,-7584.9,-165.0,-6.9,-5.7,3371.1,2760.0,-0.9,3749.1,387.0,4361.7,0,2490,0,201,0, 
1.3867,-815.7,-463.8,-1880.4,3334.2,3427.2,-882.6,3253.2,-117.6,889.2,3373.5,3476.7,3417.3,-2132.4,2912.1,-7534.2,-121.8,-6.9,-6.0,3089.7,2440.5,-0.6,3464.1,323.4,4140.9,0,2496,0,202,0, 
1.3900,-948.6,-562.8,-1947.6,2644.2,2734.5,-680.7,2565.3,-123.9,518.7,2683.8,2784.9,2730.6,-2068.2,3155.1,-6496.8,-251.7,-7.2,-6.0,2390.4,1886.4,-0.9,2776.5,428.1,3541.2,0,2502,0,203,0, 
1.3933,-999.6,-633.6,-1968.3,2571.0,2657.4,-511.8,2481.9,-164.1,444.6,2605.2,2709.6,2653.8,-2070.6,3380.1,-5911.5,-363.3,-6.9,-5.4,2318.1,1871.7,-0.3,2700.9,508.5,3458.4,0,2508,0,204,0, 
1.3967,-865.8,-664.2,-1836.6,3187.5,3277.5,-594.3,3093.3,-207.6,296.4,3227.7,3325.5,3271.2,-2107.5,3180.9,-6628.2,-290.1,-7.2,-6.3,2932.5,2469.6,-0.9,3318.0,574.8,3991.2,0,2514,0,205,0, 
1.4000,-824.1,-560.4,-1788.9,3661.5,3745.8,-848.7,3568.2,-260.1,889.2,3704.7,3806.1,3745.5,-2168.7,2746.8,-7821.6,-200.1,-6.9,-5.7,3412.8,2761.8,-0.9,3794.4,351.9,4378.2,0,2520,0,206,0, 
1.4033,-784.8,-544.5,-1716.0,3367.8,3454.2,-865.5,3275.4,-153.6,815.1,3408.6,3513.6,3453.3,-2125.5,2766.0,-7764.6,-109.5,-6.9,-6.0,3121.5,2483.4,-0.6,3497.1,323.7,4164.3,0,2526,0,207,0, 
1.4067,-994.5,-640.5,-1802.4,2698.2,2787.3,-678.6,2605.5,-161.1,518.7,2739.0,2841.6,2783.7,-2089.8,3061.8,-6734.4,-266.1,-7.2,-6.0,2446.2,1931.1,-0.9,2824.8,370.5,3575.4,0,2532,0,208,0, 
1.4100,-980.4,-721.2,-1835.7,2614.2,2699.7,-519.9,2519.1,-142.5,222.3,2649.9,2753.4,2702.1,-2080.8,3254.4,-6140.1,-374.4,-6.9,-6.3,2359.5,1893.0,-0.6,2740.8,443.1,3483.9,0,2538,0,209,0, 
1.4133,-983.7,-705.3,-1848.0,3184.8,3272.7,-702.6,3084.3,-249.3,444.6,3226.8,3327.6,3273.6,-2156.7,2958.6,-6926.7,-375.9,-6.6,-6.0,2931.9,2442.0,-0.6,3312.0,270.9,3957.6,0,2544,0,210,0, 
1.4167,-847.8,-637.5,-1805.7,3723.6,3814.5,-894.6,3622.5,-167.4,815.1,3753.6,3862.2,3809.7,-2168.1,2653.2,-7963.8,-215.4,-7.2,-5.7,3470.7,2789.1,-0.6,3847.5,200.1,4392.3,0,2550,0,211,0, 
1.4200,-798.6,-661.2,-1836.9,3377.4,3469.5,-912.3,3283.5,-140.7,741.0,3405.0,3513.3,3463.8,-2190.0,2686.5,-7981.5,-235.2,-6.6,-6.0,3119.1,2571.6,-0.6,3499.2,170.4,4106.4,0,2556,0,212,0, 
1.4233,-870.3,-663.6,-1869.6,2762.4,2851.5,-653.1,2671.8,-99.9,592.8,2785.8,2899.8,2843.1,-2127.3,2983.2,-6897.0,-294.9,-7.2,-6.0,2505.3,1953.0,-0.9,2884.2,311.4,3583.2,0,2562,0,213,0, 
1.4267,-958.5,-737.4,-1975.5,2657.4,2748.6,-406.5,2571.3,-132.9,296.4,2689.8,2791.5,2742.0,-2097.6,3158.1,-6328.5,-376.8,-6.6,-6.0,2399.4,1975.5,-0.6,2778.9,441.0,3484.8,0,2568,0,214,0, 
1.4300,-917.1,-690.0,-1886.7,3340.8,3433.2,-493.2,3251.1,-119.4,592.8,3371.4,3478.5,3424.2,-2099.7,2951.1,-7098.3,-255.3,-6.9,-5.7,3088.8,2543.7,-0.6,3468.6,403.5,4051.2,0,2574,0,215,0, 
1.4333,-964.5,-665.1,-1904.1,3809.4,3902.1,-751.5,3714.9,-213.9,815.1,3854.4,3953.7,3896.7,-2257.2,2561.4,-8337.6,-182.4,-6.9,-6.0,3559.5,2826.9,-0.3,3939.9,234.6,4473.6,0,2580,0,216,0, 
1.4367,-968.7,-581.1,-1882.5,3520.8,3615.3,-785.1,3427.8,-165.0,963.3,3554.1,3660.0,3604.8,-2238.6,2631.6,-8197.5,-133.8,-6.6,-6.0,3263.4,2519.4,-0.9,3638.4,209.1,4231.8,0,2586,0,217,0, 
1.4400,-1027.8,-615.6,-1851.3,2895.0,2991.3,-614.4,2804.4,-95.7,666.9,2931.0,3038.7,2983.2,-2163.6,2978.1,-7077.6,-214.8,-7.2,-6.3,2644.8,2058.6,-1.2,3019.2,258.3,3696.0,0,2592,0,218,0, 
1.4433,-997.5,-619.5,-1930.5,2815.2,2904.9,-349.2,2714.4,-210.0,741.0,2849.1,2957.1,2903.7,-2081.4,3190.5,-6434.7,-292.5,-6.9,-6.3,2563.5,2070.9,-1.2,2931.9,437.7,3610.8,0,2598,0,219,0, 
1.4467,-1007.1,-599.1,-1919.1,3443.1,3533.7,-449.7,3342.0,-264.9,666.9,3476.7,3584.7,3528.3,-2163.9,2911.2,-7211.7,-237.9,-6.9,-6.0,3187.8,2545.2,-0.9,3560.1,473.1,4122.9,0,2604,0,220,0, 
1.4500,-921.6,-474.0,-1857.3,3929.1,4021.8,-705.9,3826.8,-275.7,1037.4,3956.4,4070.1,4017.3,-2225.7,2616.3,-8297.1,-90.9,-7.5,-6.0,3675.3,2871.3,-1.2,4052.1,377.4,4551.3,0,2610,0,221,0, 
1.4533,-961.2,-433.8,-1791.6,3599.7,3694.8,-849.0,3496.8,-182.4,1037.4,3622.2,3736.5,3686.1,-2267.1,2622.0,-8196.3,-111.0,-6.6,-6.0,3342.0,2621.7,-0.6,3716.4,294.3,4241.7,0,2616,0,222,0, 
1.4567,-1012.5,-474.3,-1883.7,2942.7,3039.0,-663.6,2841.9,-175.2,815.1,2965.5,3078.3,3027.9,-2190.0,2918.4,-7222.8,-195.0,-7.2,-6.0,2681.7,2041.2,-0.9,3063.0,315.9,3696.3,0,2622,0,223,0, 
1.4600,-1080.6,-585.6,-1932.3,2876.4,2972.1,-461.1,2778.3,-133.8,592.8,2904.6,3014.4,2964.9,-2130.3,3107.4,-6464.7,-244.2,-6.6,-6.0,2621.1,2051.1,-0.9,2998.5,483.6,3618.3,0,2628,0,224,0, 
1.4633,-986.7,-574.8,-1973.1,3594.3,3685.2,-636.3,3493.5,-277.2,815.1,3627.3,3733.2,3681.9,-2220.6,2778.0,-7321.5,-188.7,-6.9,-6.3,3339.9,2577.0,-0.6,3723.9,385.5,4198.8,0,2634,0,225,0, 
1.4667,-915.0,-570.0,-1928.1,4086.0,4180.8,-981.9,3990.9,-245.7,1185.6,4116.0,4221.6,4176.9,-2296.2,2405.1,-8462.7,-8.4,-6.6,-6.3,3827.7,3060.6,-0.6,4210.5,227.4,4649.4,0,2640,0,226,0, 
1.4700,-937.5,-506.4,-1849.8,3822.6,3916.8,-1026.6,3726.0,-254.4,1259.7,3858.6,3961.2,3910.8,-2133.6,2513.4,-8412.6,86.7,-6.9,-5.7,3565.8,2717.7,-0.9,3951.0,170.1,4438.2,0,2646,0,227,0, 
1.4733,-969.6,-535.8,-1943.7,3242.4,3339.0,-838.8,3153.3,-120.0,1111.5,3270.3,3373.2,3327.3,-2022.9,2877.3,-7385.7,-4.5,-7.2,-6.0,2977.5,2185.8,-0.6,3361.5,308.4,3940.2,0,2652,0,228,0, 
1.4767,-1037.4,-577.8,-2022.9,3182.4,3280.2,-712.5,3090.9,-90.3,889.2,3214.8,3319.8,3273.3,-2122.2,3109.8,-6833.4,-40.8,-6.9,-5.7,2922.9,2218.2,-0.9,3304.5,350.1,3868.2,0,2658,0,229,0, 
1.4800,-1021.8,-532.8,-1937.1,3796.2,3893.7,-823.5,3702.9,-142.5,963.3,3823.2,3935.1,3887.4,-2143.5,2825.7,-7537.2,11.1,-7.2,-6.3,3541.5,2724.9,-0.3,3919.8,316.2,4365.0,0,2664,0,230,0, 
1.4833,-919.2,-479.7,-1877.4,4334.4,4437.3,-1083.0,4242.0,-129.0,1333.8,4366.2,4475.4,4428.9,-2223.3,2494.2,-8707.8,147.3,-6.6,-5.7,4083.6,3177.9,-0.9,4459.2,171.0,4825.8,0,2670,0,231,0, 
1.4867,-948.3,-406.2,-1903.2,4022.1,4120.8,-1258.5,3928.5,-189.6,1482.0,4056.3,4158.9,4113.6,-2360.4,2526.9,-8712.9,210.9,-6.9,-6.0,3765.3,2902.5,-0.6,4146.9,-21.9,4582.5,0,2676,0,232,0, 
1.4900,-997.5,-467.1,-1941.6,3338.1,3433.5,-1003.8,3248.7,-173.1,1111.5,3370.2,3479.1,3428.7,-2241.6,2871.9,-7676.1,51.9,-6.9,-6.0,3082.2,2370.6,-0.9,3462.9,170.7,3999.6,0,2682,0,233,0, 
1.4933,-1002.9,-439.8,-2078.1,3312.6,3409.5,-824.4,3220.5,-204.0,963.3,3333.9,3445.2,3396.3,-2189.1,3007.8,-7077.6,-27.9,-6.6,-6.3,3050.1,2348.4,-0.6,3435.0,238.8,3961.2,0,2688,0,234,0, 
1.4967,-975.3,-480.3,-2058.0,4013.4,4108.5,-837.6,3921.3,-249.6,1185.6,4050.6,4149.9,4102.2,-2171.1,2806.8,-7857.0,77.4,-6.9,-5.7,3753.6,2942.4,-0.6,4140.3,285.3,4521.6,0,2694,0,235,0, 
1.5000,-969.9,-481.5,-2043.6,4550.1,4647.3,-1235.4,4456.8,-238.2,1556.1,4584.3,4687.5,4641.6,-2312.1,2448.9,-9084.3,207.0,-6.6,-6.0,4296.0,3222.3,-0.6,4671.6,154.5,4971.9,0,2700,0,236,0, 
1.5033,-1133.1,-538.8,-2098.5,4227.9,4321.5,-1389.0,4136.4,-211.5,1556.1,4258.2,4361.1,4305.0,-2336.4,2440.8,-9085.2,238.2,-6.9,-5.7,3968.7,2961.3,-0.6,4346.4,-18.0,4718.1,0,2706,0,237,0, 
1.5067,-1121.7,-523.8,-2146.8,3576.6,3673.5,-1139.7,3487.8,-129.9,1482.0,3605.1,3712.2,3656.4,-2295.9,2854.2,-7952.1,134.4,-6.9,-6.0,3315.6,2444.1,-0.6,3700.2,64.5,4169.4,0,2712,0,238,0, 
1.5100,-1123.8,-590.7,-2247.0,3508.5,3601.8,-933.6,3425.7,-203.4,1111.5,3540.9,3644.7,3595.5,-2218.5,3027.6,-7326.6,61.2,-6.9,-6.0,3250.2,2488.2,-0.6,3636.6,135.9,4085.7,0,2718,0,239,0, 
1.5133,-1122.3,-545.7,-2264.4,4177.8,4272.6,-1027.8,4085.4,-171.3,1333.8,4217.1,4312.2,4262.4,-2290.2,2770.5,-8127.0,142.2,-6.9,-6.3,3923.4,3047.1,-0.9,4306.2,117.6,4618.2,0,2724,0,240,0, 
1.5167,-1071.3,-551.7,-2158.8,4667.7,4759.2,-1387.8,4578.0,-307.8,1704.3,4704.6,4803.3,4755.0,-2443.2,2430.6,-9283.5,263.4,-7.2,-6.3,4413.6,3428.7,-1.2,4793.7,-105.0,5039.7,0,2730,0,241,0, 
1.5200,-1023.3,-505.2,-2043.6,4382.1,4476.6,-1425.6,4297.8,-227.4,1778.4,4416.0,4518.6,4471.5,-2423.7,2493.0,-9224.4,351.9,-6.6,-6.3,4127.4,3104.1,-0.6,4508.4,-184.8,4821.0,0,2736,0,242,0, 
1.5233,-1079.1,-561.3,-2029.5,3752.4,3846.3,-1209.6,3667.8,-131.1,1482.0,3785.4,3882.9,3836.4,-2286.9,2754.6,-8125.8,254.7,-7.2,-6.3,3493.5,2637.9,-0.6,3880.2,-58.5,4301.4,0,2742,0,243,0, 
1.5267,-1138.2,-641.1,-2192.4,3685.8,3775.8,-1110.6,3597.9,-226.5,1407.9,3712.2,3813.6,3763.2,-2248.5,2942.7,-7568.4,147.3,-6.9,-6.0,3424.5,2519.7,-0.3,3807.6,-6.9,4198.5,0,2748,0,244,0, 
1.5300,-1138.8,-684.3,-2189.1,4308.3,4399.2,-1242.9,4220.4,-318.3,1482.0,4345.8,4438.5,4389.9,-2329.8,2641.8,-8373.3,194.1,-6.6,-6.0,4049.7,3069.9,-0.6,4433.1,-6.9,4720.8,0,2754,0,245,0, 
1.5333,-1108.8,-609.6,-2205.6,4746.6,4838.1,-1595.1,4653.3,-470.7,1704.3,4779.0,4877.4,4831.2,-2482.8,2277.0,-9595.5,269.7,-6.6,-6.0,4491.9,3439.5,-0.9,4872.9,-173.4,5061.9,0,2760,0,246,0, 
1.5367,-1060.8,-563.7,-2199.0,4441.8,4530.9,-1650.6,4350.3,-423.6,1778.4,4477.2,4568.4,4525.2,-2425.8,2264.4,-9600.0,323.7,-7.2,-6.0,4179.9,3127.8,-0.3,4563.6,-307.8,4826.4,0,2766,0,247,0, 
1.5400,-1155.9,-649.2,-2274.6,3732.6,3822.3,-1433.1,3640.5,-315.0,1482.0,3759.6,3858.0,3811.8,-2336.4,2516.7,-8537.4,170.1,-7.2,-5.7,3470.4,2496.6,0.0,3853.2,-243.3,4221.9,0,2772,0,248,0, 
1.5433,-1146.6,-675.9,-2317.8,3711.0,3806.1,-1244.1,3624.3,-273.3,1333.8,3736.2,3839.1,3786.9,-2288.1,2775.9,-7910.4,93.6,-6.9,-6.3,3444.9,2536.8,-0.6,3837.6,-81.0,4190.1,0,2778,0,249,0, 
1.5467,-1121.7,-670.8,-2328.9,4466.1,4557.6,-1323.6,4375.8,-361.2,1630.2,4509.6,4601.1,4546.5,-2328.9,2548.2,-8790.3,243.3,-6.9,-5.7,4209.6,3076.5,-0.6,4595.4,-38.4,4798.5,0,2784,0,250,0, 
1.5500,-1167.6,-625.2,-2343.9,4971.6,5063.7,-1623.3,4874.7,-500.4,1926.6,5011.2,5103.6,5053.8,-2539.5,2106.3,-9783.6,416.7,-6.9,-6.0,4714.8,3449.1,-0.9,5097.0,-222.6,5230.5,0,2790,0,251,0, 
1.5533,-1100.1,-587.1,-2380.5,4710.0,4805.4,-1706.7,4621.8,-444.3,2074.8,4750.2,4841.1,4789.2,-2464.2,2183.7,-9827.1,473.4,-7.2,-6.3,4449.9,3280.2,-0.6,4837.8,-311.1,5005.2,0,2796,0,252,0, 
1.5567,-1071.0,-542.7,-2461.2,4077.6,4182.0,-1498.5,3991.5,-411.0,1852.5,4121.1,4212.9,4157.4,-2359.2,2595.3,-8874.9,369.9,-6.9,-6.0,3817.5,2868.0,-0.6,4208.4,-269.7,4491.3,0,2802,0,253,0, 
1.5600,-1133.7,-597.0,-2488.2,3915.6,4015.5,-1323.3,3836.1,-368.7,1482.0,3964.5,4055.1,4001.4,-2360.4,2745.3,-8179.8,260.7,-6.6,-6.0,3662.7,2689.5,-0.9,4052.7,-110.7,4335.9,0,2808,0,254,0, 
1.5633,-1115.1,-651.0,-2584.2,4627.8,4728.6,-1493.4,4547.7,-434.4,1778.4,4675.2,4761.9,4716.3,-2508.6,2377.2,-9149.7,295.8,-6.9,-6.0,4373.4,3189.0,-0.9,4754.4,-78.3,4883.7,0,2814,0,255,0, 
1.5667,-1117.5,-563.1,-2474.7,5125.2,5225.4,-1788.6,5036.7,-577.5,2000.7,5160.9,5257.8,5208.0,-2570.7,2043.6,-9830.1,403.2,-6.9,-5.4,4867.8,3617.1,-0.6,5249.1,-142.2,5310.3,0,2820,0,0,0, 
1.5700,-1076.4,-474.9,-2446.2,4866.9,4962.0,-1844.1,4776.3,-508.5,2148.9,4905.0,5000.1,4945.2,-2595.3,2043.0,-9830.1,524.4,-7.2,-6.0,4606.2,3342.0,-0.6,4990.8,-177.9,5103.3,0,2826,536870912,1,0, 
1.5733,-1108.2,-468.6,-2414.7,4280.1,4374.0,-1657.2,4194.3,-458.1,1926.6,4310.4,4410.6,4358.4,-2611.8,2436.9,-9322.2,507.6,-6.6,-5.4,4018.8,2940.6,-0.9,4405.5,-66.0,4605.6,0,2832,536870912,2,0, 
1.5767,-1249.8,-624.3,-2554.5,4154.7,4248.0,-1496.7,4073.1,-480.3,1704.3,4185.3,4282.2,4231.5,-2705.1,2494.8,-8616.6,379.8,-7.2,-5.7,3887.4,2970.3,-0.9,4279.5,-22.2,4491.0,0,2838,536870912,3,0, 
1.5800,-1263.0,-647.1,-2542.8,4842.3,4937.7,-1608.3,4750.8,-449.7,1926.6,4877.7,4977.9,4927.5,-2754.9,2260.8,-9441.6,442.5,-6.9,-6.3,4587.3,3458.7,-0.9,4974.9,22.2,5050.8,0,2844,536870912,4,0, 
1.5833,-1243.8,-703.5,-2560.2,5343.9,5433.0,-1913.4,5250.6,-522.6,2297.1,5380.5,5476.2,5432.4,-2953.8,1769.1,-9830.1,537.0,-6.6,-6.0,5083.2,3733.5,-0.6,5476.5,-213.0,5445.0,0,2850,536870912,5,0, 
1.5867,-1206.9,-618.6,-2535.0,5084.1,5176.5,-1979.7,4998.6,-488.1,2445.3,5120.7,5219.4,5171.7,-3054.0,1756.8,-9830.1,644.4,-7.2,-6.0,4830.3,3495.0,-0.6,5217.9,-286.8,5278.8,0,2856,536870912,6,0, 
1.5900,-1200.9,-636.0,-2535.0,4503.3,4596.9,-1666.8,4416.3,-342.9,2148.9,4538.7,4640.4,4585.5,-2831.4,2106.0,-9673.8,620.7,-6.9,-6.0,4247.4,3207.6,-0.9,4630.2,-149.7,4773.6,0,2862,536870912,7,0, 
1.5933,-1302.9,-751.5,-2615.1,4385.7,4479.3,-1546.5,4288.8,-327.3,1852.5,4419.6,4519.2,4472.4,-2772.0,2314.8,-8988.6,555.6,-6.9,-6.0,4127.7,3161.7,-0.9,4510.5,46.8,4652.4,0,2868,536870912,8,0, 
1.5967,-1320.9,-752.7,-2722.8,5037.6,5130.3,-1632.9,4945.5,-410.1,2148.9,5075.1,5170.5,5125.2,-2916.6,2030.4,-9709.8,546.6,-6.9,-6.0,4778.4,3665.1,-0.9,5163.3,1.5,5158.5,0,2874,536870912,9,0, 
1.6000,-1336.8,-776.1,-2842.5,5476.2,5569.8,-2025.6,5385.0,-547.5,2371.2,5504.1,5604.6,5559.0,-3233.1,1547.7,-9830.1,616.8,-7.5,-6.0,5217.0,3969.9,-0.9,5594.7,-309.9,5520.6,0,2880,536870912,10,0, 
1.6033,-1414.5,-794.1,-2856.6,5175.3,5271.6,-2039.4,5085.3,-582.0,2371.2,5204.7,5298.6,5255.4,-3218.4,1493.4,-9830.1,680.1,-7.2,-6.0,4905.0,3728.4,-0.6,5298.9,-415.2,5283.6,0,2886,536870912,11,0, 
1.6067,-1370.1,-703.8,-2780.1,4548.6,4648.8,-1641.6,4459.5,-378.6,2297.1,4576.8,4677.3,4630.2,-3078.3,1906.2,-9830.1,661.8,-6.9,-6.0,4283.4,3343.8,-0.9,4670.1,-169.5,4783.2,0,2892,536870912,12,0, 
1.6100,-1374.3,-670.2,-2799.3,4548.3,4641.0,-1479.9,4459.2,-361.2,2074.8,4580.7,4679.4,4638.6,-3084.6,2022.0,-9578.7,612.3,-6.9,-6.0,4285.2,3307.5,-0.9,4670.1,-5.1,4728.9,0,2898,536870912,13,0, 
1.6133,-1386.3,-741.9,-2897.7,5256.0,5351.4,-1582.2,5166.9,-455.7,2371.2,5292.3,5392.5,5345.7,-3274.5,1662.0,-9830.1,668.1,-6.9,-6.0,4999.2,3840.9,-0.9,5378.1,-45.3,5329.8,0,2904,536870912,14,0, 
1.6167,-1442.7,-775.5,-3053.7,5664.0,5761.2,-2039.4,5575.8,-682.5,2445.3,5706.9,5799.3,5744.1,-3520.8,1236.9,-9825.0,678.9,-6.6,-6.0,5410.5,4058.7,-1.2,5790.0,-368.4,5641.8,0,2910,536870912,15,0, 
1.6200,-1460.4,-712.2,-3015.3,5433.0,5526.0,-1928.1,5342.1,-534.6,2815.8,5467.8,5565.0,5513.1,-3539.4,1215.3,-9830.1,817.2,-6.9,-6.3,5175.0,3907.8,-0.6,5558.4,-306.9,5473.2,0,2916,536870912,16,0, 
1.6233,-1452.0,-736.5,-3087.0,4818.6,4912.8,-1714.2,4727.7,-334.2,2297.1,4852.5,4947.0,4894.5,-3364.2,1577.4,-9828.0,740.7,-6.9,-6.0,4554.3,3531.0,-0.6,4938.9,-210.3,4960.2,0,2922,536870912,17,0, 
1.6267,-1490.1,-712.5,-3085.8,4653.3,4749.3,-1427.7,4555.5,-281.4,2297.1,4677.6,4785.0,4733.7,-3284.7,1761.6,-9830.1,631.8,-7.2,-6.0,4384.2,3439.5,-0.9,4771.2,-100.8,4823.7,0,2928,536870912,18,0, 
1.6300,-1541.1,-841.5,-3140.7,5409.9,5504.4,-1506.0,5312.7,-408.0,2371.2,5439.0,5541.3,5491.8,-3487.2,1225.8,-9830.1,623.1,-6.9,-5.7,5154.6,4087.5,-0.6,5532.9,-149.1,5433.6,0,2934,536870912,19,0, 
1.6333,-1488.6,-769.5,-3274.2,5759.7,5854.2,-2103.3,5651.4,-545.7,2889.9,5782.8,5895.6,5845.5,-3477.3,1115.4,-9830.1,787.8,-6.9,-6.0,5493.0,4285.2,-0.9,5878.8,-465.6,5678.4,0,2940,536870912,20,0, 
1.6367,-1597.2,-971.4,-3262.2,5801.1,5892.6,-1743.6,5704.2,-564.9,2964.0,5828.7,5925.9,5879.7,-3941.4,440.1,-9830.1,826.5,-7.2,-5.7,5549.7,4353.3,-0.9,5915.4,-332.1,5778.3,0,2946,536870912,21,0, 
1.6400,-1396.5,-643.5,-3269.7,4741.5,4848.9,-2034.0,4637.4,-371.4,2519.4,4770.6,4875.6,4824.6,-3175.2,2036.1,-9830.1,722.1,-7.2,-6.3,4457.4,3630.0,-0.6,4867.2,-320.7,4819.2,0,2952,536870912,22,0, 
1.6433,-2437.8,-2767.5,-2338.2,8824.2,8842.8,4315.2,8807.7,-190.2,4816.5,8848.2,8849.1,8822.4,-8283.3,-6991.2,-9830.1,986.4,-6.9,-5.4,8766.0,8694.0,-0.9,8883.0,1158.9,8814.9,0,2958,536870912,23,0, 
1.6467,-2880.0,-3468.3,-1558.8,9830.1,9819.6,8965.2,9830.1,559.8,6669.0,9830.1,9830.1,9817.5,-9830.1,-9827.4,-9830.1,2255.7,-6.9,-6.0,9830.1,9830.1,-0.9,9830.1,2262.9,9830.1,0,2964,536870912,24,0, 
1.6500,-2855.1,-3049.8,-1356.9,9830.1,9819.6,9536.7,9830.1,769.8,7335.9,9830.1,9830.1,9817.5,-9830.1,-9808.5,-9830.1,2832.0,-7.2,-5.7,9830.1,9830.1,-0.9,9830.1,2364.9,9830.1,0,2970,75110959812672,25,0, 
1.6533,-3070.2,-2974.5,-1473.0,9783.0,9763.5,9562.8,9782.7,822.3,7410.0,9801.3,9774.9,9762.0,-9794.4,-9734.7,-9830.1,3155.1,-6.9,-6.0,9768.9,9792.3,-0.9,9809.4,2244.9,9822.3,0,2976,75110959812672,26,0, 
1.6567,-3375.9,-3086.4,-1659.0,9830.1,9819.6,9659.1,9830.1,722.1,7261.8,9830.1,9830.1,9817.5,-9830.1,-9827.4,-9830.1,3156.9,-7.2,-5.7,9830.1,9830.1,-0.6,9830.1,2167.5,9830.1,0,2982,75110959812672,27,0, 
1.6600,-3607.8,-3136.8,-1957.8,9794.7,9772.8,9405.3,9795.6,532.2,6965.4,9813.3,9783.6,9770.7,-9788.1,-9721.2,-9830.1,3185.4,-6.9,-6.0,9600.9,9802.8,-0.6,9819.0,2109.9,9827.4,0,2988,75110959812672,28,0, 
1.6633,-3870.9,-3249.0,-2249.7,9830.1,9819.6,8913.9,9830.1,173.7,7187.7,9830.1,9830.1,9817.5,-9830.1,-9827.4,-9830.1,3300.3,-6.9,-6.3,9830.1,9830.1,-0.6,9830.1,1814.4,9830.1,0,2994,75110959812672,29,0, 
1.6667,-3875.4,-3090.3,-2228.1,9828.0,9801.6,8264.4,9827.7,105.6,7484.1,9830.1,9812.1,9800.4,-9822.6,-9782.4,-9830.1,3577.2,-6.9,-6.3,9797.1,9830.1,-0.6,9830.1,1623.9,9830.1,0,3000,75110959812672,30,0, 
1.6700,-4085.7,-3101.7,-2474.4,9830.1,9819.6,7788.6,9830.1,12.9,7484.1,9830.1,9830.1,9817.5,-9830.1,-9827.4,-9830.1,3595.5,-6.6,-6.0,9830.1,9830.1,-0.6,9830.1,1491.3,9830.1,0,3006,75110959812672,31,0, 
1.6733,-4392.6,-3368.1,-2807.7,9830.1,9814.8,7465.5,9799.8,-187.5,7261.8,9830.1,9825.0,9816.6,-9830.1,-9823.5,-9830.1,3487.8,-6.9,-6.0,9683.4,9830.1,-0.6,9830.1,1284.6,9830.1,0,3012,75110959812672,32,0, 
1.6767,-4502.4,-3458.1,-3040.2,9690.3,9819.6,7224.3,9563.1,-263.4,6817.2,9726.0,9830.1,9803.1,-9830.1,-9825.6,-9830.1,3438.3,-7.2,-5.7,9355.8,9830.1,-0.9,9830.1,1287.0,9830.1,0,3018,75110959812672,33,0, 
1.6800,-4521.6,-3337.2,-3120.3,9830.1,9814.2,6784.8,9830.1,-440.4,6965.4,9830.1,9824.7,9810.3,-9830.1,-9827.4,-9830.1,3500.1,-7.2,-6.3,9814.2,9830.1,-0.6,9830.1,1247.1,9830.1,0,3024,75110959812672,34,0, 
1.6833,-4413.6,-3093.9,-3064.5,9826.5,9819.6,6262.8,9813.0,-355.2,7484.1,9830.1,9830.1,9817.5,-9830.1,-9822.9,-9830.1,3696.3,-6.9,-5.7,9798.3,9830.1,-0.6,9830.1,1227.6,9830.1,0,3030,75110959812672,35,0, 
1.6867,-4434.0,-3037.8,-3178.8,9830.1,9819.6,5913.0,9830.1,-446.7,7558.2,9830.1,9830.1,9817.5,-9830.1,-9827.4,-9830.1,3778.2,-7.2,-6.0,9830.1,9830.1,-0.9,9830.1,1065.6,9830.1,0,3036,75110959812672,36,0, 
1.6900,-4585.2,-3145.5,-3423.9,9662.7,9743.1,5682.0,9574.5,-523.2,7261.8,9693.3,9759.3,9725.1,-9830.1,-9822.0,-9830.1,3611.7,-7.2,-5.7,9380.7,9830.1,-0.6,9770.4,1063.5,9830.1,0,3042,75110959812672,37,0, 
1.6933,-4698.6,-3150.0,-3552.9,9312.9,9427.5,5586.3,9210.9,-590.4,6594.9,9343.5,9462.6,9405.3,-9830.1,-9827.4,-9830.1,3510.9,-6.9,-6.0,9028.8,9830.1,-0.9,9449.4,1114.8,9830.1,0,3048,75110959812672,38,0, 
1.6967,-4692.0,-3103.5,-3593.4,9828.0,9819.6,5062.8,9792.6,-668.4,6891.3,9830.1,9830.1,9817.5,-9830.1,-9819.9,-9830.1,3544.2,-7.2,-5.7,9685.2,9830.1,-0.6,9830.1,1103.7,9830.1,0,3054,75110959812672,39,0, 
1.7000,-4701.0,-3078.6,-3678.9,9800.7,9777.6,4511.4,9811.8,-624.6,7335.9,9817.5,9786.9,9776.7,-9830.1,-9827.4,-9830.1,3637.8,-6.9,-6.0,9830.1,9830.1,-0.9,9822.6,1033.5,9830.1,0,3060,75110959812672,40,0, 
1.7033,-4633.5,-3003.9,-3710.7,9830.1,9819.6,4120.2,9827.1,-642.0,7113.6,9830.1,9830.1,9817.5,-9830.1,-9827.4,-9830.1,3592.8,-6.9,-5.7,9714.0,9830.1,-0.6,9830.1,950.1,9830.1,0,3066,75110959812672,41,0, 
1.7067,-4778.4,-3061.8,-3906.6,9119.1,9256.5,3954.0,9010.8,-693.9,6594.9,9164.1,9303.9,9242.7,-9830.1,-9697.8,-9830.1,3403.5,-6.6,-6.0,8812.8,9830.1,-0.6,9289.8,838.2,9830.1,0,3072,75110959812672,42,0, 
1.7100,-4835.7,-3077.1,-3956.1,8903.1,8982.6,3849.3,8820.0,-784.5,6520.8,8940.9,9014.1,8972.4,-9830.1,-8963.4,-9830.1,3229.5,-6.9,-6.0,8661.3,9830.1,-0.6,9017.7,889.2,9514.2,0,3078,75110959812672,43,0, 
1.7133,-4815.9,-3019.5,-4006.2,9402.6,9513.6,3465.9,9315.9,-808.5,6520.8,9436.2,9556.5,9499.5,-9830.1,-8822.1,-9830.1,3202.5,-6.9,-6.0,9144.9,9830.1,-0.3,9551.7,857.4,9830.1,0,3084,75110959812672,44,0, 
1.7167,-4644.0,-2882.1,-3970.2,9830.1,9819.6,2991.9,9754.2,-796.8,6817.2,9830.1,9830.1,9817.5,-9830.1,-8757.0,-9830.1,3319.8,-7.2,-5.7,9584.1,9830.1,-0.6,9830.1,736.2,9830.1,0,3090,75110959812672,45,0, 
1.7200,-4631.4,-2793.3,-4023.3,9415.8,9598.2,2676.0,9311.1,-763.2,6594.9,9471.6,9648.6,9594.6,-9830.1,-8601.0,-9830.1,3273.3,-6.9,-6.0,9138.9,9830.1,-0.9,9613.8,621.3,9830.1,0,3096,75110959812672,46,0, 
1.7233,-4727.4,-2865.0,-4138.5,8725.8,8805.0,2661.0,8645.4,-837.3,6372.6,8758.8,8841.3,8793.9,-9830.1,-7922.7,-9830.1,3153.3,-6.6,-6.0,8468.7,9530.7,-0.6,8835.6,646.2,9378.6,0,3102,75110959812672,47,0, 
1.7267,-4782.9,-2990.7,-4265.1,8474.4,8586.0,2523.3,8389.2,-951.3,6224.4,8509.8,8619.3,8572.2,-9830.1,-7624.8,-9830.1,2923.8,-6.9,-6.0,8210.7,9238.8,-1.2,8613.9,749.1,9079.8,0,3108,75110959812672,48,0, 
1.7300,-4653.0,-2844.6,-4172.4,9082.2,9173.7,2263.5,9002.4,-972.3,6150.3,9117.0,9203.7,9155.1,-9830.1,-7634.4,-9830.1,2962.8,-6.9,-6.0,8823.3,9652.2,-0.9,9198.3,771.0,9537.3,0,3114,75110959812672,49,0, 
1.7333,-4552.8,-2718.6,-4215.3,9531.0,9635.4,1795.2,9447.0,-929.7,6372.6,9576.3,9676.5,9629.4,-9830.1,-7677.3,-9830.1,3099.9,-6.3,-6.0,9276.9,9830.1,-0.9,9671.1,652.8,9830.1,0,3120,75110959812672,50,0, 
1.7367,-4550.4,-2722.8,-4283.1,9151.8,9249.3,1524.6,9067.8,-919.5,6520.8,9199.2,9290.4,9242.7,-9830.1,-7562.4,-9830.1,3114.3,-6.9,-5.7,8898.0,9398.7,-0.6,9289.5,466.8,9679.8,0,3126,75110959812672,51,0, 
1.7400,-4635.0,-2727.0,-4430.1,8377.5,8475.9,1486.8,8292.6,-906.3,6076.2,8425.5,8519.1,8468.7,-9830.1,-7010.1,-9830.1,2928.6,-6.9,-5.7,8121.9,8775.6,-1.2,8512.5,587.7,8950.2,0,3132,75110959812672,52,0, 
1.7433,-4750.5,-2846.4,-4640.1,8179.2,8276.7,1458.0,8093.1,-959.7,5631.6,8227.8,8320.5,8272.2,-9830.1,-6771.0,-9830.1,2741.4,-6.6,-5.7,7924.5,8586.3,-0.9,8318.7,579.3,8741.4,0,3138,75110959812672,53,0, 
1.7467,-4776.6,-2886.0,-4725.3,8782.8,8877.9,1142.7,8698.5,-1162.5,6002.1,8843.1,8931.3,8885.4,-9830.1,-6948.0,-9830.1,2751.6,-6.6,-5.7,8534.4,9023.1,-0.9,8925.0,440.4,9218.7,0,3144,75110959812672,54,0, 
1.7500,-4518.3,-2585.7,-4534.8,9283.8,9382.2,926.1,9195.9,-949.8,6224.4,9343.2,9430.2,9385.2,-9830.1,-6967.5,-9830.1,2966.7,-7.2,-5.7,9039.0,9491.4,-0.9,9433.2,497.7,9686.4,0,3150,75110959812672,55,0, 
1.7533,-4542.3,-2560.8,-4567.5,8959.2,9057.3,755.7,8874.3,-873.0,6224.4,9007.8,9097.8,9052.5,-9830.1,-6804.9,-9830.1,2947.8,-6.9,-6.0,8701.8,9013.2,-0.9,9102.6,425.1,9388.8,0,3156,75110959812672,56,0, 
1.7567,-4761.9,-2816.1,-4791.0,8212.2,8311.5,603.6,8132.7,-1079.4,5853.9,8268.6,8355.0,8305.2,-9830.1,-6528.6,-9830.1,2692.8,-6.9,-6.0,7963.8,8258.4,-0.9,8360.1,198.9,8717.7,0,3162,75110959812672,57,0, 
1.7600,-4832.1,-2906.1,-4886.7,8174.4,8271.3,668.7,8095.8,-1133.1,5779.8,8226.6,8304.6,8261.1,-9830.1,-6237.9,-9830.1,2619.0,-6.9,-6.0,7914.6,8336.7,-0.6,8324.1,238.2,8657.7,0,3168,75110959812672,58,0, 
1.7633,-4740.3,-2850.3,-4941.9,8736.3,8834.1,455.7,8653.2,-1137.0,5779.8,8785.5,8863.8,8821.8,-9748.2,-6265.8,-9830.1,2635.8,-6.6,-5.7,8474.1,8814.9,-0.6,8880.9,270.9,9150.6,0,3174,75110959812672,59,0, 
1.7667,-4546.5,-2720.1,-4797.0,9212.1,9310.2,135.9,9131.7,-1124.7,6150.3,9272.7,9344.7,9302.1,-9556.5,-6467.4,-9830.1,2788.2,-6.9,-6.3,8955.0,9125.1,-0.6,9365.4,186.0,9540.9,0,3180,75110959812672,60,0, 
1.7700,-4500.3,-2740.2,-4803.0,8799.6,8904.9,-14.1,8731.5,-1063.8,6150.3,8862.3,8937.0,8894.1,-9312.3,-6404.4,-9830.1,2763.3,-6.9,-5.7,8545.2,8670.3,-0.6,8954.1,108.0,9196.2,0,3186,75110959812672,61,0, 
1.7733,-4633.2,-2867.1,-4910.4,8177.1,8271.9,25.5,8101.8,-975.0,5928.0,8228.1,8306.7,8268.9,-9057.6,-5952.6,-9830.1,2636.7,-6.6,-6.6,7912.2,8153.7,-0.6,8329.5,65.1,8632.5,0,3192,75110959812672,62,0, 
1.7767,-4647.3,-2854.2,-4947.0,8053.5,8154.9,63.6,7973.1,-1044.3,5483.4,8120.1,8193.9,8152.2,-8827.5,-5613.6,-9830.1,2505.3,-6.6,-5.7,7803.6,8073.0,-0.9,8211.6,117.0,8530.2,0,3198,75110959812672,63,0, 
1.7800,-4578.3,-2822.4,-4971.9,8603.4,8700.9,-146.7,8517.0,-1056.6,5853.9,8668.5,8743.5,8697.0,-8664.9,-5714.1,-9830.1,2565.3,-7.2,-6.0,8350.5,8501.7,-0.9,8763.9,80.1,8957.4,0,3204,75110959812672,64,0, 
1.7833,-4474.2,-2693.1,-4948.5,9005.7,9105.9,-469.2,8922.9,-1088.1,6076.2,9073.5,9148.2,9106.5,-8526.6,-6050.4,-9830.1,2635.5,-6.9,-6.0,8759.7,8756.4,-0.9,9164.7,-45.3,9309.3,0,3210,75110959812672,65,0, 
1.7867,-4456.8,-2591.1,-4916.4,8674.8,8773.5,-598.5,8591.1,-1044.6,6076.2,8733.0,8811.3,8769.9,-8306.4,-5865.9,-9830.1,2688.6,-6.9,-6.0,8422.5,8362.5,-0.6,8829.9,-44.1,8995.2,0,3216,75110959812672,66,0, 
1.7900,-4545.0,-2706.6,-5041.2,7918.8,8017.2,-501.3,7833.6,-1062.0,5631.6,7971.3,8053.8,8010.3,-8125.2,-5491.8,-9830.1,2480.7,-6.6,-6.0,7664.4,7802.1,-0.9,8068.2,-29.7,8368.8,0,3222,75110959812672,67,0, 
1.7933,-4542.3,-2717.7,-5041.2,7782.0,7881.0,-267.9,7707.6,-931.8,5335.2,7844.4,7914.9,7875.6,-7908.0,-5240.1,-9830.1,2399.1,-6.9,-6.0,7524.9,7714.8,-0.6,7935.9,6.0,8231.1,0,3228,75110959812672,68,0, 
1.7967,-4448.1,-2690.7,-4995.0,8374.8,8470.5,-493.5,8299.5,-880.2,5557.5,8436.3,8507.4,8471.1,-7812.3,-5398.8,-9830.1,2414.1,-6.6,-5.7,8119.2,8197.2,-0.6,8526.3,108.0,8707.5,0,3234,75110959812672,69,0, 
1.8000,-4302.9,-2668.2,-5020.5,8843.7,8937.9,-839.1,8757.0,-966.9,5853.9,8902.2,8978.7,8930.7,-7842.0,-5808.9,-9830.1,2499.9,-7.2,-6.0,8585.4,8437.5,-0.9,8999.1,-20.1,9088.5,0,3240,75110959812672,70,0, 
1.8033,-4306.2,-2582.4,-4928.1,8509.2,8608.5,-964.8,8424.9,-820.2,5928.0,8564.7,8642.1,8593.8,-7768.8,-5657.7,-9830.1,2602.5,-6.9,-5.4,8251.8,8127.9,-0.9,8664.9,-34.8,8836.5,0,3246,75110959812672,71,0, 
1.8067,-4315.8,-2622.6,-4953.3,7756.8,7855.2,-817.5,7671.6,-822.6,5483.4,7811.1,7888.8,7840.5,-7601.1,-5237.7,-9830.1,2435.4,-7.2,-6.0,7499.1,7599.9,-1.2,7905.9,-13.8,8164.5,0,3252,75110959812672,72,0, 
1.8100,-4249.5,-2595.3,-5001.0,7643.4,7743.3,-638.7,7563.6,-742.8,5261.1,7695.3,7774.5,7732.5,-7356.0,-4974.0,-9830.1,2284.2,-6.6,-6.3,7386.3,7493.1,-0.9,7793.1,131.4,8060.1,0,3258,75110959812672,73,0, 
1.8133,-4276.5,-2643.3,-5142.0,8184.6,8294.4,-862.5,8102.1,-837.3,5409.3,8240.7,8317.8,8277.9,-7368.3,-5234.1,-9830.1,2234.1,-7.2,-6.0,7926.0,7942.2,-1.2,8326.8,71.7,8467.5,0,3264,75110959812672,74,0, 
1.8167,-4178.1,-2534.7,-5043.9,8587.8,8687.7,-1157.4,8504.4,-838.5,5779.8,8645.7,8722.2,8679.3,-7305.3,-5529.3,-9830.1,2294.1,-6.9,-6.0,8334.0,8165.4,-0.9,8739.6,-76.2,8778.9,0,3270,75110959812672,75,0, 
1.8200,-4148.4,-2482.8,-4974.6,8235.3,8339.7,-1266.9,8149.5,-790.2,5631.6,8291.1,8367.6,8326.2,-7122.0,-5448.0,-9830.1,2301.0,-7.5,-6.3,7978.2,7881.6,-0.6,8379.9,-72.0,8504.1,0,3276,75110959812672,76,0, 
1.8233,-4151.1,-2570.7,-4999.2,7504.8,7602.3,-1070.7,7420.5,-740.4,5335.2,7553.4,7636.8,7596.9,-6925.5,-5035.2,-9830.1,2189.4,-6.6,-5.7,7244.1,7325.7,-0.6,7649.7,20.7,7892.1,0,3282,75110959812672,77,0, 
1.8267,-4155.3,-2570.7,-4997.1,7350.3,7445.7,-845.4,7259.1,-642.0,4964.7,7404.3,7479.6,7440.0,-6715.8,-4718.1,-9830.1,2079.0,-6.9,-6.0,7093.5,7223.4,-0.9,7494.0,188.7,7743.9,0,3288,75110959812672,78,0, 
1.8300,-4075.8,-2611.8,-4959.0,7926.9,8021.4,-1004.7,7835.1,-756.3,5187.0,7980.9,8057.4,8017.8,-6723.9,-4959.3,-9830.1,2025.0,-6.9,-5.7,7667.4,7638.3,-0.6,8073.0,169.5,8181.6,0,3294,75110959812672,79,0, 
1.8333,-4014.6,-2580.3,-4909.5,8368.2,8466.0,-1347.9,8280.9,-808.8,5409.3,8420.4,8501.7,8463.3,-6779.7,-5221.2,-9830.1,2105.1,-7.2,-6.0,8113.8,7932.9,-0.9,8513.1,75.3,8553.6,0,3300,75110959812672,80,0, 
1.8367,-4093.2,-2607.9,-4929.6,7961.4,8059.8,-1478.4,7877.1,-654.6,5557.5,8018.4,8095.8,8054.7,-6715.2,-5177.4,-9830.1,2103.0,-7.2,-5.7,7706.7,7553.1,-0.6,8109.3,-3.9,8190.0,0,3306,75110959812672,81,0, 
1.8400,-4076.7,-2603.7,-4918.8,7182.9,7278.9,-1245.6,7096.2,-467.1,4816.5,7236.0,7313.1,7275.6,-6459.3,-4721.7,-9830.1,1929.0,-6.6,-6.3,6921.0,7054.2,-0.9,7327.2,151.8,7549.5,0,3312,75110959812672,82,0, 
1.8433,-4038.3,-2550.0,-4920.3,7069.2,7166.4,-974.1,6989.1,-417.0,4964.7,7128.6,7200.0,7161.6,-6312.3,-4450.2,-9830.1,1810.8,-7.2,-6.0,6807.9,7036.8,-0.9,7222.2,212.1,7460.1,0,3318,75110959812672,83,0, 
1.8467,-3935.7,-2563.5,-4992.0,7662.6,7763.1,-1122.6,7577.4,-471.9,4742.4,7722.6,7796.7,7759.5,-6297.3,-4587.6,-9830.1,1851.3,-6.6,-6.0,7407.3,7373.4,-0.3,7816.8,185.1,7923.6,0,3324,75110959812672,84,0, 
1.8500,-3973.2,-2642.7,-4990.8,8079.3,8176.5,-1441.8,7988.1,-623.4,5261.1,8131.5,8211.9,8169.9,-6377.4,-4956.6,-9830.1,1963.8,-6.6,-6.0,7824.0,7571.1,-0.9,8226.3,33.3,8259.6,0,3330,75110959812672,85,0, 
1.8533,-3960.3,-2595.3,-4890.9,7661.4,7755.3,-1576.2,7574.7,-495.3,5187.0,7708.8,7787.7,7742.1,-6278.7,-4889.7,-9830.1,1974.0,-6.6,-6.0,7398.6,7304.4,-1.2,7802.1,84.6,7906.2,0,3336,75110959812672,86,0, 
1.8567,-3916.5,-2571.0,-4893.6,6910.5,7005.6,-1318.5,6822.9,-320.4,4816.5,6959.7,7040.1,6997.2,-5941.5,-4401.6,-9830.1,1880.1,-7.2,-6.0,6649.2,6807.3,-1.5,7051.2,268.8,7275.9,0,3342,75110959812672,87,0, 
1.8600,-3816.9,-2498.7,-4882.2,6828.3,6928.8,-996.0,6743.7,-163.2,4594.2,6880.5,6956.1,6914.4,-5871.9,-4138.5,-9830.1,1803.0,-6.9,-6.3,6570.0,6722.4,-0.9,6973.8,558.0,7200.9,0,3348,75110959812672,88,0, 
1.8633,-3802.2,-2538.0,-4968.6,7431.0,7526.7,-1113.9,7341.9,-249.3,4668.3,7476.0,7557.6,7518.6,-5874.0,-4393.2,-9830.1,1786.2,-6.9,-5.7,7169.7,7076.4,-0.6,7574.1,465.6,7671.0,0,3354,75110959812672,89,0, 
1.8667,-3755.1,-2528.7,-4950.9,7927.2,8025.3,-1396.8,7840.2,-306.6,5112.9,7983.9,8056.2,8016.9,-5948.4,-4701.3,-9830.1,1948.5,-6.9,-5.4,7672.2,7457.4,-0.9,8074.8,226.2,8098.5,0,3360,75110959812672,90,0, 
1.8700,-3710.1,-2514.9,-4919.4,7416.6,7514.4,-1444.5,7335.3,-359.1,5038.8,7472.4,7545.0,7505.7,-5914.2,-4571.1,-9830.1,1930.8,-6.9,-6.0,7158.6,7169.4,-0.6,7566.6,238.5,7667.4,0,3366,75110959812672,91,0, 
1.8733,-3707.4,-2446.5,-4842.6,6633.3,6730.5,-1124.4,6555.9,-264.0,4594.2,6684.6,6757.5,6723.3,-5659.8,-4097.1,-9830.1,1761.0,-6.9,-6.0,6374.1,6629.4,-0.3,6779.4,512.7,7002.3,0,3372,75110959812672,92,0, 
1.8767,-3693.0,-2446.8,-4843.2,6430.2,6530.4,-796.8,6348.6,-233.4,4297.8,6484.2,6555.9,6525.3,-5457.6,-3845.1,-9830.1,1618.5,-6.6,-5.7,6168.0,6486.6,-0.6,6577.2,632.4,6829.8,0,3378,75110959812672,93,0, 
1.8800,-3761.7,-2426.1,-4905.9,6948.6,7040.7,-884.7,6861.9,-396.0,4297.8,6999.3,7078.5,7040.4,-5507.7,-4156.5,-9830.1,1517.4,-6.9,-5.7,6695.7,6786.9,-0.9,7091.7,450.9,7250.4,0,3384,75110959812672,94,0, 
1.8833,-3748.2,-2383.2,-4887.0,7374.3,7467.6,-1213.5,7284.3,-545.4,4520.1,7427.4,7502.7,7463.4,-5595.6,-4596.6,-9830.1,1584.6,-6.9,-5.7,7113.0,6962.1,-0.9,7518.9,256.8,7602.9,0,3390,75110959812672,95,0, 
1.8867,-3700.8,-2383.5,-4843.5,6882.6,6981.0,-1220.7,6795.9,-498.6,4446.0,6928.5,7009.2,6972.0,-5458.2,-4459.5,-9830.1,1533.6,-7.2,-6.0,6618.0,6655.2,-0.6,7020.6,280.5,7167.6,0,3396,75110959812672,96,0, 
1.8900,-3554.1,-2208.0,-4671.0,6172.5,6274.8,-835.8,6093.6,-237.0,4223.7,6222.3,6300.9,6262.8,-5109.3,-3907.8,-9830.1,1448.7,-6.9,-6.0,5908.8,6149.4,-1.2,6306.6,596.1,6610.8,0,3402,75110959812672,97,0, 
1.8933,-3460.8,-2195.1,-4545.0,6059.4,6158.4,-468.3,5977.8,-141.6,3927.3,6107.4,6187.2,6150.9,-4900.5,-3666.6,-9830.1,1372.5,-6.9,-6.0,5800.5,6006.0,-0.3,6201.0,830.4,6503.4,0,3408,75110959812672,98,0, 
1.8967,-3470.7,-2230.5,-4633.5,6619.8,6713.4,-641.7,6534.3,-309.6,3779.1,6672.3,6749.4,6715.2,-5044.2,-4064.1,-9830.1,1338.6,-6.9,-6.0,6362.1,6324.0,-0.3,6759.3,750.0,6915.6,0,3414,75110959812672,99,0, 
1.9000,-3552.0,-2277.9,-4639.2,7082.1,7178.1,-1034.1,6997.2,-433.2,4297.8,7129.5,7211.1,7172.7,-5246.7,-4476.6,-9830.1,1388.4,-7.2,-6.0,6824.1,6605.7,-0.6,7224.6,445.5,7302.3,0,3420,75110959812672,100,0, 
1.9033,-3633.3,-2187.3,-4506.3,6699.3,6797.1,-931.5,6617.4,-390.9,4075.5,6751.2,6826.8,6789.3,-5133.9,-4385.1,-9830.1,1453.8,-6.9,-6.0,6437.4,6369.0,-0.9,6844.5,453.9,7019.7,0,3426,75110959812672,101,0, 
1.9067,-3570.6,-2195.7,-4464.9,5936.7,6035.7,-537.6,5856.3,-181.8,4001.4,5974.2,6060.9,6022.2,-4877.7,-3897.9,-9830.1,1307.7,-6.9,-6.0,5672.1,5915.4,-0.6,6072.3,739.2,6392.7,0,3432,75110959812672,102,0, 
1.9100,-3475.2,-2138.4,-4371.0,5836.5,5939.7,-274.8,5757.0,-81.9,3630.9,5892.9,5967.0,5930.7,-4647.0,-3603.6,-9830.1,1253.7,-7.2,-6.0,5580.3,5826.3,-0.6,5986.5,871.5,6297.9,0,3438,75110959812672,103,0, 
1.9133,-3492.0,-2181.0,-4457.7,6457.5,6562.8,-541.5,6372.6,-310.5,3927.3,6511.8,6588.0,6555.6,-4763.7,-3963.9,-9820.2,1244.4,-7.2,-5.7,6199.5,6206.1,-0.6,6606.9,824.4,6760.2,0,3444,75110959812672,104,0, 
1.9167,-3568.2,-2300.7,-4560.3,6840.3,6937.2,-899.7,6753.3,-520.8,4075.5,6894.3,6968.1,6938.7,-4959.9,-4452.0,-9830.1,1253.1,-6.9,-6.6,6585.6,6429.0,-0.9,6985.8,493.5,7065.0,0,3450,75110959812672,105,0, 
1.9200,-3568.5,-2218.2,-4446.0,6453.0,6558.0,-921.3,6373.5,-505.2,4001.4,6509.4,6588.3,6552.6,-4949.4,-4315.8,-9812.4,1323.3,-6.9,-6.0,6199.5,6164.7,-0.6,6597.6,452.4,6771.9,0,3456,75110959812672,106,0, 
1.9233,-3445.8,-2203.2,-4384.8,5680.8,5782.5,-590.4,5603.7,-241.8,3705.0,5731.8,5808.0,5771.1,-4702.2,-3822.0,-9830.1,1202.4,-6.6,-6.3,5420.4,5709.0,-0.9,5822.7,666.6,6134.7,0,3462,75110959812672,107,0, 
1.9267,-3358.5,-2227.8,-4365.0,5525.7,5630.1,-222.6,5448.9,-79.8,3408.6,5579.1,5654.1,5619.0,-4507.8,-3519.9,-9103.8,1049.1,-7.2,-6.0,5266.2,5586.6,-0.6,5673.9,912.0,5990.1,0,3468,75110959812672,108,0, 
1.9300,-3381.9,-2287.5,-4402.2,6087.3,6191.7,-309.6,6009.3,-255.0,3482.7,6142.8,6215.7,6177.9,-4625.1,-3852.3,-9664.5,1029.3,-7.2,-6.6,5829.6,5904.6,-0.3,6235.2,839.1,6421.2,0,3474,75110959812672,109,0, 
1.9333,-3355.8,-2232.6,-4380.6,6460.2,6562.2,-603.3,6386.4,-413.7,3630.9,6515.7,6591.0,6552.6,-4728.0,-4253.7,-9828.6,1059.0,-7.5,-6.6,6204.6,6152.1,-0.6,6604.8,614.7,6720.3,0,3480,75110959812672,110,0, 
1.9367,-3345.9,-2159.4,-4386.9,6016.5,6115.5,-720.9,5941.8,-273.6,3705.0,6070.2,6144.3,6108.6,-4641.3,-4269.0,-9830.1,1054.5,-6.6,-5.7,5760.0,5803.2,-0.9,6162.6,537.0,6364.5,0,3486,75110959812672,111,0, 
1.9400,-3240.3,-2094.6,-4243.2,5298.6,5409.6,-256.2,5230.8,-115.5,3260.4,5350.8,5427.9,5394.0,-4391.1,-3807.9,-9383.4,966.9,-6.9,-6.3,5040.3,5366.4,-0.9,5446.5,759.6,5794.8,0,3492,75110959812672,112,0, 
1.9433,-3276.0,-2165.4,-4205.1,5132.4,5235.9,-12.6,5060.4,-110.4,2964.0,5187.9,5258.7,5226.6,-4260.6,-3572.1,-8431.2,810.6,-7.2,-6.0,4872.3,5271.0,-0.6,5279.1,943.2,5618.4,0,3498,75110959812672,113,0, 
1.9467,-3227.1,-2164.2,-4226.7,5777.7,5884.5,0.3,5708.4,-151.5,3112.2,5830.8,5906.1,5870.7,-4322.7,-3821.4,-9242.4,854.7,-6.6,-6.0,5523.3,5586.9,-0.6,5927.7,912.0,6145.8,0,3504,0,114,0, 
1.9500,-3278.1,-2284.8,-4198.8,6148.5,6253.8,-391.8,6071.1,-323.7,3408.6,6202.5,6275.7,6242.7,-4447.5,-4271.4,-9821.7,874.5,-6.6,-6.0,5892.3,5770.2,-0.6,6299.4,692.4,6450.3,0,3510,0,115,0, 
1.9533,-3258.9,-2266.5,-4197.9,5734.8,5840.7,-462.0,5659.8,-164.1,3482.7,5786.4,5858.4,5829.3,-4381.5,-4245.3,-9830.1,850.8,-6.9,-6.0,5470.8,5424.0,-0.9,5883.9,608.1,6120.3,0,3516,0,116,0, 
1.9567,-3165.9,-2131.2,-4046.7,5044.5,5150.7,-123.0,4978.8,45.9,3112.2,5094.3,5164.8,5133.0,-4230.6,-3737.7,-8742.6,808.2,-6.9,-5.7,4776.0,5124.6,-0.6,5184.6,907.5,5545.8,0,3522,536870912,117,0, 
1.9600,-3141.0,-2180.7,-4043.4,4890.0,4993.2,165.3,4820.7,55.5,2889.9,4938.9,5008.8,4977.3,-4038.6,-3420.9,-7818.3,687.3,-6.9,-5.7,4622.7,4952.1,-0.9,5032.5,1016.4,5372.4,0,3528,536870912,118,0, 
1.9633,-3130.8,-2263.8,-3991.8,5496.3,5598.0,-26.7,5419.2,-72.6,2964.0,5549.4,5616.0,5581.2,-4084.2,-3735.3,-8427.9,664.5,-6.6,-5.7,5233.5,5343.6,-0.6,5640.3,925.5,5852.4,0,3534,536870912,119,0, 
1.9667,-3169.5,-2282.1,-3998.4,5960.7,6066.0,-408.6,5880.0,-188.1,3260.4,6011.4,6078.6,6047.4,-4307.7,-4168.2,-9481.2,749.7,-7.2,-5.4,5697.9,5504.4,-0.3,6099.9,684.3,6248.1,0,3540,536870912,120,0, 
1.9700,-3205.8,-2251.5,-3970.5,5578.2,5685.9,-463.8,5506.2,-38.7,3260.4,5626.8,5699.1,5669.1,-4174.5,-4003.2,-9293.1,790.8,-7.2,-5.4,5312.4,5336.4,-0.9,5719.2,625.5,5970.0,0,3546,536870912,121,0, 
1.9733,-3105.6,-2199.3,-3900.3,4781.7,4875.0,-71.4,4707.9,98.1,2815.8,4833.0,4901.4,4867.5,-3936.6,-3605.7,-7954.2,658.2,-7.5,-6.0,4518.9,4843.2,-0.3,4926.6,792.0,5309.1,0,3552,536870912,122,0, 
1.9767,-3045.9,-2175.6,-3881.4,4633.5,4732.8,210.6,4559.4,147.6,2445.3,4692.0,4759.2,4730.4,-3864.3,-3408.9,-7151.7,528.0,-6.6,-6.3,4369.5,4754.1,-0.6,4788.9,1049.7,5155.5,0,3558,536870912,123,0, 
1.9800,-3017.4,-2201.1,-3965.4,5170.8,5269.2,21.9,5093.4,-36.3,2593.5,5218.2,5294.1,5263.5,-3975.9,-3778.2,-7844.7,483.0,-6.9,-6.3,4908.9,5121.3,-0.6,5318.1,943.5,5559.9,0,3564,536870912,124,0, 
1.9833,-2998.8,-2234.4,-3977.4,5626.5,5730.9,-402.3,5549.4,-200.4,2889.9,5680.8,5755.8,5721.9,-4154.7,-4180.5,-9027.6,558.3,-6.9,-5.7,5365.5,5270.4,-0.6,5780.7,637.5,5945.1,0,3570,536870912,125,0, 
1.9867,-2993.4,-2179.2,-3936.6,5261.1,5366.7,-449.7,5182.8,-119.1,3112.2,5311.8,5386.2,5359.5,-4144.2,-4090.8,-8887.5,621.0,-6.9,-6.0,5001.3,5034.6,-0.6,5405.7,671.1,5683.5,0,3576,536870912,126,0, 
1.9900,-2965.8,-2151.6,-3862.5,4555.8,4661.1,-15.9,4479.3,106.8,2445.3,4603.5,4678.2,4651.2,-3922.5,-3680.1,-7559.7,546.3,-6.6,-6.0,4287.9,4601.4,-0.9,4707.3,820.2,5115.3,0,3582,536870912,127,0, 
1.9933,-3029.4,-2154.3,-3875.7,4332.9,4438.8,178.2,4256.4,178.8,2223.0,4380.0,4456.2,4429.8,-3838.2,-3486.3,-6829.8,299.7,-7.2,-5.7,4066.8,4499.1,-0.6,4476.6,872.4,4915.8,0,3588,536870912,128,0, 
1.9967,-3075.0,-2239.8,-3958.5,4869.0,4973.7,70.2,4788.3,81.6,2148.9,4922.7,4992.9,4961.7,-3912.6,-3796.8,-7593.6,284.7,-6.3,-5.7,4607.4,4853.7,-0.6,5017.5,775.5,5323.5,0,3594,536870912,129,0, 
2.0000,-3061.8,-2174.7,-3871.2,5325.6,5431.5,-173.4,5244.9,42.6,2741.7,5379.0,5450.4,5418.3,-3940.2,-4160.1,-8668.2,395.4,-6.9,-6.0,5064.6,5118.0,-0.6,5475.9,619.5,5708.1,0,3600,536870912,130,0, 
2.0033,-2995.5,-2098.5,-3739.5,4997.1,5104.8,-141.6,4919.7,134.4,2593.5,5045.1,5120.1,5086.8,-3922.2,-3999.9,-8466.0,421.5,-6.9,-5.7,4729.5,4798.8,-0.6,5145.9,648.9,5458.2,0,3606,536870912,131,0, 
2.0067,-3020.4,-2132.1,-3798.9,4250.1,4358.7,41.1,4177.2,177.6,2445.3,4300.2,4374.3,4340.4,-3754.2,-3692.4,-7208.1,290.7,-7.2,-6.0,3987.0,4296.6,-0.9,4395.6,742.2,4844.7,0,3612,536870912,132,0, 
2.0100,-2976.0,-2122.8,-3800.7,4110.9,4221.0,309.0,4043.1,240.9,1852.5,4164.6,4233.6,4203.0,-3554.1,-3512.1,-6464.4,169.5,-6.6,-5.7,3846.6,4209.0,-0.6,4253.4,956.4,4701.6,0,3618,536870912,133,0, 
2.0133,-2969.7,-2149.2,-3755.4,4780.2,4883.1,165.6,4708.2,137.1,2297.1,4830.3,4903.2,4869.9,-3661.8,-3749.4,-7226.7,246.0,-7.5,-6.0,4517.7,4574.1,-0.6,4928.7,943.2,5240.4,0,3624,536870912,134,0, 
2.0167,-2919.3,-2123.1,-3723.9,5187.0,5290.8,-109.2,5109.0,48.6,2519.4,5237.1,5310.3,5280.3,-3843.3,-4078.5,-8366.4,336.6,-6.6,-6.3,4924.8,4957.5,-0.9,5339.4,689.1,5581.8,0,3630,536870912,135,0, 
2.0200,-2935.5,-2116.2,-3572.1,4803.9,4907.7,-139.5,4730.1,105.9,2667.6,4854.9,4927.8,4894.8,-3813.9,-4089.9,-8214.0,301.2,-7.2,-6.0,4541.4,4578.3,-0.9,4948.8,631.8,5280.0,0,3636,536870912,136,0, 
2.0233,-2979.3,-2162.7,-3573.0,4125.9,4236.0,149.7,4062.3,125.1,2223.0,4177.2,4246.2,4212.6,-3614.1,-3729.9,-7000.2,218.4,-6.6,-6.0,3856.2,4145.1,-0.6,4275.3,711.3,4704.0,0,3642,536870912,137,0, 
2.0267,-2957.1,-2124.0,-3593.7,3942.9,4054.8,351.9,3872.1,176.4,1778.4,3992.7,4064.4,4035.6,-3551.1,-3504.9,-6211.5,60.6,-6.6,-6.0,3680.4,4094.7,-1.2,4095.6,915.3,4530.6,0,3648,536870912,138,0, 
2.0300,-2925.9,-2147.4,-3613.2,4559.7,4667.4,237.3,4489.8,82.2,2000.7,4616.4,4685.1,4653.0,-3613.5,-3731.7,-6999.6,76.2,-6.6,-6.3,4302.0,4404.0,-0.6,4713.3,851.7,5040.6,0,3654,536870912,139,0, 
2.0333,-2928.0,-2115.3,-3476.7,4984.8,5090.4,-32.7,4911.0,39.0,2297.1,5037.6,5106.3,5073.3,-3697.2,-4086.3,-7985.7,178.8,-7.2,-6.0,4722.9,4756.5,-1.2,5133.9,754.2,5386.8,0,3660,536870912,140,0, 
2.0367,-2924.1,-2068.2,-3431.1,4606.2,4707.6,-82.2,4531.2,17.7,2371.2,4651.8,4724.7,4691.7,-3622.8,-4066.5,-7803.9,141.3,-6.9,-6.0,4344.9,4381.5,-0.9,4752.3,600.6,5098.2,0,3666,536870912,141,0, 
2.0400,-2890.8,-2059.8,-3414.0,3920.7,4032.9,120.3,3856.8,149.1,1926.6,3977.1,4044.9,4010.7,-3445.5,-3618.3,-6615.0,43.8,-6.9,-5.7,3657.6,3956.7,-0.6,4074.6,733.5,4542.0,0,3672,536870912,142,0, 
2.0433,-3014.1,-2142.0,-3472.8,3770.4,3879.0,241.8,3709.2,70.5,1778.4,3827.4,3897.6,3868.8,-3484.5,-3517.2,-5964.9,-105.3,-7.2,-6.3,3512.7,3810.3,-0.9,3924.9,894.3,4398.6,0,3678,536870912,143,0, 
2.0467,-2962.5,-2072.1,-3457.8,4308.3,4413.6,161.1,4239.9,7.8,1704.3,4364.1,4436.1,4404.0,-3470.1,-3752.4,-6630.9,-98.7,-6.9,-5.7,4053.6,4331.4,-1.2,4463.1,902.1,4831.8,0,3684,536870912,144,0, 
2.0500,-2919.0,-2012.4,-3395.4,4823.7,4926.6,-157.8,4753.2,-35.4,2148.9,4888.5,4947.9,4911.3,-3477.6,-4158.9,-7719.6,51.6,-7.2,-6.0,4564.8,4602.9,-0.9,4979.4,724.5,5244.9,0,3690,536870912,145,0, 
2.0533,-2866.5,-1903.5,-3307.2,4394.4,4503.3,-145.5,4328.1,92.7,1926.6,4453.2,4523.4,4486.5,-3430.8,-4049.7,-7485.0,38.1,-6.9,-5.4,4140.0,4351.5,-0.6,4548.6,732.0,4924.2,0,3696,536870912,146,0, 
2.0567,-2915.7,-1941.3,-3296.4,3670.2,3776.7,79.8,3610.5,240.9,1778.4,3729.6,3797.1,3763.5,-3313.5,-3703.2,-6284.4,-112.8,-7.2,-6.6,3411.6,3756.6,-0.9,3826.8,887.1,4302.9,0,3702,536870912,147,0, 
2.0600,-2910.9,-1959.9,-3375.9,3537.6,3642.0,212.7,3471.9,196.2,1407.9,3593.7,3661.2,3627.9,-3264.6,-3512.7,-5654.7,-260.1,-6.9,-6.0,3276.9,3673.2,-0.3,3691.8,966.9,4172.1,0,3708,536870912,148,0, 
2.0633,-2924.4,-1988.7,-3391.5,4179.6,4286.7,58.2,4115.1,105.9,1630.2,4250.1,4309.2,4272.3,-3341.1,-3704.1,-6414.6,-210.9,-6.9,-6.3,3923.1,4043.1,-0.9,4341.9,935.4,4724.7,0,3714,536870912,149,0, 
2.0667,-2919.6,-2018.4,-3372.9,4591.2,4695.0,-223.8,4533.3,42.9,2000.7,4658.7,4720.8,4689.9,-3471.3,-4186.2,-7510.8,-123.6,-7.2,-5.7,4337.4,4376.1,-0.6,4753.2,727.8,5047.5,0,3720,536870912,150,0, 
2.0700,-2885.7,-2041.8,-3341.4,4203.3,4307.1,-224.7,4140.6,96.6,1926.6,4261.2,4329.3,4298.7,-3421.8,-4184.4,-7376.1,-101.7,-6.3,-6.0,3944.4,3959.7,-0.6,4360.8,722.7,4762.8,0,3726,536870912,151,0, 
2.0733,-2877.3,-2036.7,-3282.6,3572.1,3682.8,64.8,3516.9,242.1,1630.2,3637.2,3701.7,3660.6,-3351.0,-3741.6,-6161.7,-167.1,-6.9,-5.4,3320.4,3586.5,-0.6,3735.9,851.4,4235.4,0,3732,536870912,152,0, 
2.0767,-2956.8,-2021.4,-3247.5,3485.4,3591.6,263.4,3420.0,203.4,1482.0,3544.8,3607.5,3575.4,-3269.4,-3564.6,-5509.8,-285.9,-6.9,-6.3,3220.8,3550.2,-0.6,3647.7,931.2,4120.5,0,3738,536870912,153,0, 
2.0800,-2898.9,-2010.3,-3342.9,4108.5,4215.9,166.8,4041.0,156.0,1482.0,4181.7,4237.5,4207.2,-3375.6,-3867.9,-6311.7,-268.8,-6.9,-5.7,3860.1,3990.6,-1.2,4276.5,896.4,4638.6,0,3744,536870912,154,0, 
2.0833,-2860.5,-1999.5,-3231.9,4485.0,4591.2,-119.1,4415.7,14.1,1926.6,4552.5,4613.1,4580.1,-3529.8,-4178.1,-7360.8,-138.9,-6.6,-5.7,4232.1,4269.3,-0.9,4650.6,717.3,4977.0,0,3750,536870912,155,0, 
2.0867,-2805.6,-1894.5,-3195.6,4089.0,4194.6,-142.5,4018.5,122.1,1852.5,4154.7,4214.4,4188.0,-3515.1,-4158.3,-7214.7,-132.6,-7.2,-6.0,3836.1,3942.9,-0.9,4255.8,637.2,4655.1,0,3756,536870912,156,0, 
2.0900,-2814.3,-1904.7,-3159.9,3360.6,3465.3,145.8,3296.4,219.3,1482.0,3426.9,3484.8,3453.3,-3349.5,-3805.2,-6036.6,-299.1,-6.6,-5.7,3103.2,3396.3,-0.9,3522.9,780.6,4038.3,0,3762,536870912,157,0, 
2.0933,-2766.9,-1950.0,-3121.8,3295.2,3402.0,351.3,3230.4,262.8,1037.4,3362.4,3421.5,3383.4,-3198.3,-3570.9,-5368.2,-384.0,-7.2,-5.7,3042.0,3360.3,-0.6,3459.0,874.2,3969.0,0,3768,536870912,158,0, 
2.0967,-2757.9,-1931.1,-3178.8,3873.0,3978.3,296.7,3801.6,134.7,1333.8,3944.4,3999.6,3962.4,-3268.2,-3897.6,-6170.1,-334.5,-7.2,-6.0,3618.0,3769.5,-0.9,4036.2,831.6,4428.6,0,3774,536870912,159,0, 
2.1000,-2722.5,-1928.4,-3169.2,4405.5,4511.1,28.8,4332.6,94.8,1704.3,4473.6,4532.7,4501.2,-3399.9,-4242.3,-7221.3,-202.5,-7.2,-6.0,4153.5,4050.3,-0.9,4571.1,599.7,4895.7,0,3780,536870912,160,0, 
2.1033,-2678.7,-1954.2,-3110.4,4067.7,4173.0,26.1,3997.2,174.9,1778.4,4123.8,4187.1,4153.5,-3375.6,-4114.2,-7077.3,-170.1,-6.9,-6.3,3809.4,3849.6,-0.9,4228.5,537.9,4614.0,0,3786,536870912,161,0, 
2.1067,-2732.1,-1982.1,-3185.4,3308.1,3420.6,222.3,3243.3,199.5,1259.7,3374.7,3430.2,3390.3,-3263.1,-3761.1,-5990.7,-356.4,-6.9,-6.0,3048.9,3326.4,-0.9,3468.6,621.0,3988.2,0,3792,536870912,162,0, 
2.1100,-2758.5,-2014.2,-3196.8,3136.2,3244.5,398.7,3069.0,160.5,963.3,3199.5,3254.7,3214.5,-3222.9,-3582.6,-5323.8,-467.1,-6.6,-6.0,2872.8,3229.5,-0.6,3293.1,788.1,3822.6,0,3798,536870912,163,0, 
2.1133,-2744.7,-2048.4,-3157.8,3653.4,3758.4,254.1,3585.0,60.9,1037.4,3717.6,3774.9,3741.6,-3215.4,-3863.4,-6061.8,-527.7,-7.5,-6.0,3397.2,3605.7,-0.6,3808.5,737.7,4237.8,0,3804,536870912,164,0, 
2.1167,-2723.7,-2029.8,-3147.6,4092.6,4203.3,-5.1,4028.7,96.6,1407.9,4161.9,4215.0,4179.3,-3268.8,-4260.3,-7156.2,-441.0,-6.6,-6.0,3837.3,3927.3,-0.3,4255.2,602.4,4620.9,0,3810,536870912,165,0, 
2.1200,-2681.4,-1990.2,-3106.8,3696.9,3805.5,-43.8,3629.1,183.9,1407.9,3764.4,3821.7,3785.4,-3235.2,-4110.6,-6995.1,-462.0,-6.9,-5.7,3437.1,3658.2,-0.9,3860.4,564.0,4311.3,0,3816,536870912,166,0, 
2.1233,-2723.7,-1980.9,-3104.1,3061.8,3173.7,268.8,2996.4,242.7,963.3,3125.7,3184.5,3153.3,-3115.2,-3828.9,-5809.8,-553.5,-7.2,-5.7,2806.5,3109.2,-0.6,3224.1,666.9,3777.6,0,3822,536870912,167,0, 
2.1267,-2832.6,-2112.6,-3210.9,2935.8,3049.8,386.4,2871.3,185.1,889.2,3004.2,3057.3,3031.2,-3169.8,-3702.0,-5199.9,-687.6,-6.6,-6.0,2679.6,2947.2,-0.6,3100.5,651.0,3647.7,0,3828,536870912,168,0, 
2.1300,-2751.0,-2044.8,-3168.6,3565.5,3678.6,255.9,3500.7,150.6,1037.4,3627.6,3688.8,3660.6,-3122.7,-3879.6,-5929.8,-643.5,-7.2,-6.0,3310.8,3555.0,-0.6,3728.1,739.8,4180.8,0,3834,536870912,169,0, 
2.1333,-2670.9,-1924.2,-3064.2,3976.8,4082.1,41.7,3902.1,146.7,1185.6,4042.2,4099.5,4065.0,-3262.2,-4235.7,-7005.6,-522.9,-6.9,-6.0,3718.2,3838.5,-0.6,4142.1,638.7,4506.3,0,3840,536870912,170,0, 
