Time,P3,C3,F3,Fz,F4,C4,P4,Cz,CM,A1,Fp1,Fp2,T3,T5,O1,O2,X3,X2,F7,F8,X1,A2,T6,T4,Trigger,Time_Offset,ADC_Status,ADC_Sequence,Event,Comments
0.0033,477.6,-260.7,39.9,-13.5,7286.7,-19.5,600.9,9830.1,73433.1,391.5,4228.5,7281.6,-15.0,9827.1,9830.1,9830.1,-7.2,-5.7,9565.2,9830.1,-0.6,465.0,2124.9,876.6,0,6,36150471344128,25,0, 
0.0067,519.0,-285.0,60.3,36.0,-6364.5,-251.7,662.1,-2592.6,1778.4,504.6,-2862.6,-2426.1,-511.2,-2970.6,-7386.9,-2672.7,-6.6,-5.4,-3479.1,-3163.5,-0.3,578.4,-8597.1,819.9,0,12,36150471344128,26,0, 
0.0100,492.9,-296.1,44.7,14.1,-9819.9,-300.0,648.9,-9830.1,-53944.8,483.3,-7176.6,-8199.9,-671.1,-9827.4,-9830.1,-9830.1,-7.2,-5.7,-9830.1,-9830.1,-0.6,559.5,-9830.1,802.5,0,18,36150471344128,27,0, 
0.0133,440.7,-262.8,19.8,-51.6,-3995.4,-98.7,581.7,-5287.2,-15931.5,355.2,-2720.4,-2316.6,-284.4,-5406.3,-9284.7,-5255.1,-6.9,-6.0,-5081.7,-4622.1,-0.6,428.1,-4679.4,846.3,0,24,36150471344128,28,0, 
0.0167,421.8,-247.2,15.0,-76.5,9271.8,61.2,546.0,9364.8,63207.3,289.2,3848.7,6516.3,126.3,9074.4,6758.4,9352.8,-6.6,-5.4,8241.3,8877.0,-0.9,362.4,6477.0,882.6,0,30,36150471344128,29,0, 
0.0200,477.0,-248.7,48.3,-19.2,7302.9,-30.6,601.5,9830.1,73803.6,390.9,4408.5,7209.6,-5.1,9827.1,9830.1,9830.1,-6.9,-5.7,9609.3,9830.1,-0.6,465.0,2103.9,873.3,0,36,36150471344128,30,0, 
0.0233,517.8,-279.9,60.9,33.9,-6378.3,-258.9,663.0,-2559.3,2074.8,504.6,-2928.6,-2474.4,-504.6,-3019.8,-7280.4,-2683.5,-7.2,-5.7,-3516.6,-3177.3,-0.6,582.3,-8630.4,813.9,0,42,36150471344128,31,0, 
0.0267,496.2,-288.9,48.9,19.2,-9819.9,-309.9,657.9,-9830.1,-53722.5,486.6,-7253.1,-8161.2,-669.9,-9827.4,-9830.1,-9830.1,-6.9,-5.7,-9830.1,-9830.1,-0.6,566.1,-9830.1,802.2,0,48,36150471344128,32,0, 
0.0300,442.8,-259.5,28.5,-32.4,-4078.8,-99.0,597.6,-5284.8,-16153.8,363.6,-2809.8,-2246.7,-271.5,-5491.8,-9292.2,-5324.1,-6.6,-6.0,-5131.5,-4768.2,-0.9,439.5,-4689.3,855.3,0,54,36150471344128,33,0, 
0.0333,429.6,-241.2,21.9,-58.8,9255.0,63.6,557.1,9362.4,63059.1,301.5,3849.9,6671.4,120.0,9045.6,6702.6,9308.4,-6.9,-6.0,8156.4,8839.2,-0.9,375.9,6528.6,894.0,0,60,36150471344128,34,0, 
0.0367,480.9,-244.2,42.9,-12.0,7265.1,-39.3,604.2,9830.1,73877.7,393.3,4243.5,7234.5,-19.8,9827.1,9830.1,9830.1,-6.9,-6.3,9594.0,9830.1,-0.9,464.7,2179.2,878.4,0,66,36150471344128,35,0, 
0.0400,514.2,-284.7,51.9,35.7,-6404.4,-275.1,660.6,-2568.6,2223.0,507.6,-2928.3,-2427.9,-522.6,-3040.5,-7275.3,-2724.9,-6.9,-5.4,-3463.2,-3135.0,-0.9,581.7,-8593.5,815.4,0,72,36150471344128,36,0, 
0.0433,488.7,-296.7,40.5,12.0,-9819.9,-321.0,645.3,-9830.1,-53426.1,478.5,-7426.5,-8302.5,-677.4,-9827.4,-9830.1,-9830.1,-6.6,-5.4,-9830.1,-9830.1,-0.9,558.3,-9830.1,796.2,0,78,36150471344128,37,0, 
0.0467,428.4,-281.1,3.0,-60.9,-4140.9,-112.2,574.5,-5345.1,-16153.8,348.6,-2930.7,-2273.4,-288.9,-5503.8,-9310.5,-5343.3,-6.9,-6.0,-5157.6,-4709.7,-0.6,423.0,-4712.7,834.9,0,84,36150471344128,38,0, 
0.0500,416.1,-262.8,7.5,-81.9,9213.0,48.0,539.7,9329.4,63133.2,284.1,3633.6,6552.9,110.7,9030.9,6666.9,9298.5,-6.9,-6.0,8105.7,8840.1,-1.2,357.0,6491.7,882.9,0,90,36150471344128,39,0, 
0.0533,466.5,-265.5,30.9,-25.2,7280.4,-40.5,591.6,9830.1,73877.7,376.2,4168.5,7230.9,-18.9,9827.1,9830.1,9830.1,-7.2,-6.3,9560.1,9830.1,-0.9,454.5,2146.8,868.8,0,96,36150471344128,40,0, 
0.0567,507.0,-295.2,55.8,32.1,-6373.5,-265.5,657.9,-2539.8,2593.5,497.7,-2923.5,-2508.6,-516.9,-2957.4,-7186.5,-2681.1,-6.6,-6.0,-3678.0,-3138.0,-0.9,571.5,-8573.1,818.4,0,102,36150471344128,41,0, 
0.0600,483.9,-290.4,34.8,13.8,-9819.9,-309.0,646.5,-9830.1,-53426.1,466.8,-7291.5,-8334.6,-696.3,-9827.4,-9830.1,-9830.1,-6.6,-6.0,-9830.1,-9830.1,-1.2,546.6,-9830.1,792.6,0,108,36150471344128,42,0, 
0.0633,426.3,-285.9,6.0,-57.6,-4166.7,-120.3,575.1,-5416.2,-16227.9,335.7,-2862.9,-2375.1,-289.2,-5544.3,-9288.0,-5410.2,-6.9,-6.0,-5333.4,-4806.0,-0.6,411.9,-4773.0,837.6,0,114,36150471344128,43,0, 
0.0667,410.4,-270.6,3.0,-78.6,9199.2,38.1,541.2,9311.7,62836.8,277.2,3792.9,6442.2,120.3,9009.0,6665.7,9278.4,-6.9,-6.3,8092.5,8787.9,-0.3,351.0,6457.5,879.6,0,120,36150471344128,44,0, 
0.0700,461.7,-271.8,22.2,-26.7,7306.5,-56.7,588.3,9830.1,74025.9,372.9,4250.1,7056.3,-24.3,9827.1,9830.1,9830.1,-7.2,-6.0,9555.6,9830.1,-1.2,446.7,2187.0,861.3,0,126,36150471344128,45,0, 
0.0733,501.0,-305.4,40.5,25.8,-6334.5,-285.0,647.7,-2540.7,2593.5,483.0,-2964.6,-2457.9,-524.1,-2958.0,-7130.7,-2682.0,-6.6,-5.7,-3630.0,-3033.6,-0.3,558.9,-8593.2,800.4,0,132,36150471344128,46,0, 
0.0767,482.4,-307.2,32.1,18.6,-9819.9,-317.7,640.2,-9830.1,-53426.1,467.4,-7355.1,-8309.4,-684.9,-9827.4,-9830.1,-9830.1,-6.9,-6.0,-9830.1,-9830.1,-0.3,545.4,-9830.1,792.9,0,138,36150471344128,47,0, 
0.0800,427.2,-279.3,5.7,-45.3,-4180.5,-125.4,572.4,-5416.8,-16450.2,346.5,-2869.5,-2412.3,-297.0,-5563.8,-9256.2,-5433.9,-6.3,-5.7,-5343.6,-4710.6,-0.6,415.2,-4782.9,831.6,0,144,36150471344128,48,0, 
0.0833,418.8,-257.7,2.1,-66.3,9170.7,45.6,539.7,9286.8,62985.0,286.2,3679.2,6303.6,117.3,8979.0,6664.8,9254.1,-6.9,-6.3,7975.2,8770.5,-0.6,351.9,6396.0,882.0,0,150,36150471344128,49,0, 
0.0867,463.2,-267.9,23.1,-16.8,7346.4,-48.0,587.4,9830.1,74174.1,377.1,4236.9,7080.9,-15.6,9827.1,9830.1,9830.1,-6.6,-6.0,9571.8,9830.1,-0.6,438.0,2171.7,858.9,0,156,36150471344128,50,0, 
0.0900,508.5,-292.8,51.6,44.4,-6352.2,-273.3,645.3,-2527.2,2741.7,507.6,-2917.8,-2634.3,-501.3,-2951.7,-7140.6,-2627.7,-7.2,-6.0,-3618.9,-2928.3,-0.6,560.1,-8587.2,811.2,0,162,36150471344128,51,0, 
0.0933,482.4,-299.1,38.1,23.7,-9819.9,-313.5,636.9,-9830.1,-53352.0,488.4,-7299.0,-8450.7,-663.0,-9827.4,-9830.1,-9830.1,-6.9,-6.3,-9830.1,-9830.1,-0.3,534.9,-9830.1,786.3,0,168,36150471344128,52,0, 
0.0967,427.5,-274.5,7.5,-39.0,-4233.9,-121.2,567.3,-5423.4,-16302.0,365.7,-2841.0,-2505.6,-282.9,-5605.2,-9219.6,-5417.7,-6.3,-6.0,-5379.6,-4580.1,-0.6,408.6,-4796.1,830.7,0,174,36150471344128,53,0, 
0.1000,421.2,-249.9,8.7,-57.9,9159.0,54.3,536.1,9292.2,62836.8,302.7,3798.3,6322.8,123.0,8973.3,6754.5,9261.0,-6.9,-6.0,8044.2,8875.5,-0.6,350.4,6433.5,884.7,0,180,36150471344128,54,0, 
0.1033,468.6,-256.2,34.2,-5.4,7279.8,-24.3,590.4,9830.1,74248.2,388.2,4260.9,7073.4,-9.3,9827.1,9830.1,9830.1,-6.9,-6.0,9622.2,9830.1,-0.9,441.0,2191.5,873.6,0,186,36150471344128,55,0, 
0.1067,501.0,-294.6,40.8,41.7,-6361.2,-268.8,650.1,-2474.7,3186.3,485.7,-2884.8,-2480.4,-516.0,-2817.0,-7043.4,-2534.4,-6.3,-5.7,-3445.2,-2792.4,-0.6,564.0,-8551.2,807.3,0,192,36150471344128,56,0, 
0.1100,476.7,-303.9,29.1,24.0,-9819.9,-309.9,642.0,-9830.1,-53055.6,463.5,-7320.3,-8313.6,-678.3,-9827.4,-9830.1,-9830.1,-6.9,-6.0,-9830.1,-9830.1,-0.6,556.2,-9830.1,799.8,0,198,36150471344128,57,0, 
0.1133,425.7,-276.0,9.3,-42.3,-4230.6,-102.9,581.1,-5432.7,-16227.9,332.7,-2853.3,-2292.6,-281.4,-5530.5,-9260.4,-5394.9,-6.6,-6.3,-5226.6,-4555.8,-0.9,437.4,-4752.9,848.1,0,204,36150471344128,58,0, 
0.1167,413.7,-252.0,1.8,-67.2,9160.2,66.6,548.4,9279.3,63207.3,265.2,3710.7,6466.5,117.3,8991.6,6610.5,9260.7,-6.6,-5.7,8123.4,8867.1,-0.3,372.6,6457.2,887.1,0,210,36150471344128,59,0, 
0.1200,461.1,-262.8,31.8,-8.1,7380.0,-30.9,591.9,9830.1,75137.4,359.1,4317.3,7246.8,-2.4,9827.1,9830.1,9830.1,-6.3,-6.0,9678.0,9830.1,-0.6,461.1,2299.8,864.9,0,216,36150471344128,60,0, 
0.1233,502.8,-292.8,57.3,42.9,-6256.8,-257.1,656.1,-2380.5,4075.5,480.3,-2862.9,-2389.8,-512.1,-2704.8,-6965.1,-2419.8,-6.9,-5.7,-3168.3,-2697.9,-0.3,580.2,-8510.4,805.8,0,222,36150471344128,61,0, 
0.1267,472.8,-304.2,40.2,18.0,-9819.9,-316.8,640.8,-9830.1,-52166.4,457.5,-7356.6,-8287.8,-685.2,-9827.4,-9830.1,-9830.1,-6.6,-6.3,-9830.1,-9830.1,-0.6,552.9,-9830.1,787.8,0,228,36150471344128,62,0, 
0.1300,426.0,-272.7,21.6,-38.1,-4156.5,-108.6,578.1,-5426.1,-15709.2,342.0,-2892.0,-2372.4,-291.9,-5457.6,-9175.8,-5355.3,-6.9,-6.0,-5130.9,-4534.2,-0.6,428.4,-4784.1,833.4,0,234,36150471344128,63,0, 
0.1333,415.5,-246.9,14.1,-57.0,9179.4,60.6,546.0,9274.2,63800.1,285.0,3748.8,6418.5,113.4,9035.1,6720.0,9271.5,-6.9,-6.0,8153.1,8868.3,-0.9,361.2,6479.4,876.0,0,240,36150471344128,64,0, 
0.1367,470.4,-249.9,41.1,-9.6,7461.3,-19.2,590.7,9830.1,75507.9,372.6,4400.4,7298.1,-14.1,9827.1,9830.1,9830.1,-6.9,-6.0,9712.5,9830.1,-0.6,451.8,2340.6,863.7,0,246,36150471344128,65,0, 
0.1400,509.4,-277.2,60.3,45.9,-6234.3,-247.2,655.2,-2306.4,4668.3,496.2,-2772.9,-2424.6,-523.2,-2607.0,-6816.6,-2362.8,-6.6,-5.7,-3192.0,-2626.5,-0.9,570.9,-8525.1,803.7,0,252,36150471344128,66,0, 
0.1433,484.2,-299.7,50.7,30.3,-9819.9,-288.6,649.5,-9830.1,-51721.8,480.9,-7276.2,-8356.5,-673.2,-9827.4,-9830.1,-9830.1,-6.3,-5.7,-9830.1,-9830.1,-0.9,553.8,-9830.1,789.0,0,258,36150471344128,67,0, 
0.1467,426.6,-276.3,22.2,-37.5,-4219.2,-102.6,577.5,-5404.8,-15042.3,346.2,-2866.5,-2488.5,-285.3,-5424.9,-9071.4,-5335.5,-6.9,-6.0,-5154.9,-4548.9,-0.3,418.2,-4821.9,821.7,0,264,36150471344128,68,0, 
0.1500,414.3,-255.9,10.8,-62.1,9140.4,63.6,544.8,9275.1,64096.5,282.6,3829.5,6371.1,117.3,9021.6,6813.0,9271.5,-6.9,-6.0,8137.8,8838.9,-0.6,351.0,6432.6,862.5,0,270,36150471344128,69,0, 
0.1533,464.4,-264.6,30.0,-13.5,7480.8,-23.7,593.1,9830.1,76397.1,368.4,4423.5,7137.0,-15.3,9827.1,9830.1,9830.1,-6.9,-6.3,9687.6,9830.1,-0.6,439.8,2349.9,853.8,0,276,36150471344128,70,0, 
0.1567,507.0,-291.3,48.6,35.7,-6172.5,-256.8,656.4,-2217.3,5261.1,484.2,-2726.7,-2451.6,-514.8,-2630.7,-6569.4,-2313.9,-6.9,-5.7,-3264.9,-2538.0,-0.6,559.2,-8530.5,799.5,0,282,36150471344128,71,0, 
0.1600,488.1,-306.3,33.6,15.3,-9819.9,-307.8,645.6,-9830.1,-51277.2,474.9,-7213.5,-8358.6,-680.7,-9827.4,-9830.1,-9830.1,-6.9,-5.7,-9830.1,-9830.1,-0.6,544.8,-9830.1,782.7,0,288,36150471344128,72,0, 
0.1633,428.1,-278.7,8.1,-49.2,-4225.5,-119.4,571.5,-5471.1,-14894.1,344.7,-2814.9,-2535.9,-300.6,-5596.5,-8965.2,-5379.9,-6.6,-5.7,-5242.8,-4499.1,-0.9,411.0,-4824.9,823.2,0,294,36150471344128,73,0, 
0.1667,418.8,-258.6,3.3,-75.0,9097.5,48.3,538.2,9231.3,64244.7,280.2,3829.2,6301.8,107.4,8947.8,6919.2,9250.2,-6.9,-5.7,8045.1,8838.9,-0.6,343.5,6406.8,865.8,0,300,36150471344128,74,0, 
0.1700,464.7,-277.2,23.7,-28.8,7495.2,-50.4,579.0,9830.1,76397.1,368.1,4383.9,7132.2,-24.6,9827.1,9830.1,9830.1,-6.9,-6.3,9743.1,9830.1,-0.9,428.7,2339.1,843.3,0,306,36150471344128,75,0, 
0.1733,506.7,-297.9,51.0,30.9,-6198.0,-277.5,640.2,-2284.2,5631.6,482.4,-2838.9,-2516.7,-525.6,-2604.9,-6409.8,-2361.3,-6.9,-5.7,-3282.9,-2545.2,-0.9,555.6,-8501.7,791.1,0,312,36150471344128,76,0, 
0.1767,484.2,-300.0,36.6,12.9,-9819.9,-319.5,629.1,-9830.1,-51203.1,470.7,-7338.0,-8430.9,-680.4,-9827.4,-9830.1,-9830.1,-6.6,-5.7,-9830.1,-9830.1,0.0,540.3,-9830.1,777.0,0,318,36150471344128,77,0, 
0.1800,428.4,-277.5,8.4,-51.3,-4288.8,-128.1,566.4,-5540.4,-15116.4,350.7,-3019.5,-2538.3,-309.0,-5555.1,-8902.8,-5448.9,-6.6,-6.0,-5349.9,-4539.6,-0.6,418.2,-4826.4,824.7,0,324,36150471344128,78,0, 
0.1833,421.5,-255.3,8.4,-63.3,9064.8,49.5,540.0,9205.5,64096.5,292.2,3644.7,6309.6,112.5,8947.2,6985.2,9224.1,-6.6,-6.3,7972.8,8853.9,-0.6,357.9,6459.0,880.5,0,330,36150471344128,79,0, 
0.1867,465.9,-268.5,35.1,-10.5,7464.3,-30.9,587.7,9830.1,76619.4,373.2,4314.3,7104.3,-28.8,9827.1,9830.1,9830.1,-7.2,-6.0,9711.0,9830.1,-0.9,446.4,2415.9,862.8,0,336,36150471344128,80,0, 
0.1900,502.8,-301.8,47.1,35.7,-6212.7,-267.0,652.5,-2354.7,5779.8,487.8,-2877.6,-2523.6,-530.7,-2645.4,-6403.5,-2295.0,-6.9,-6.0,-3367.8,-2597.7,-0.3,558.6,-8491.5,798.6,0,342,36150471344128,81,0, 
0.1933,483.6,-304.2,42.9,21.9,-9819.9,-316.8,646.5,-9830.1,-51351.3,474.0,-7401.9,-8464.8,-698.7,-9827.4,-9830.1,-9830.1,-6.9,-6.3,-9830.1,-9830.1,-0.6,543.9,-9830.1,786.9,0,348,36150471344128,82,0, 
0.1967,429.0,-287.1,13.8,-43.8,-4394.1,-105.0,581.1,-5625.6,-15486.9,341.7,-2991.9,-2596.5,-327.6,-5643.3,-9010.2,-5545.8,-6.6,-6.0,-5526.0,-4678.2,-0.6,414.3,-4917.6,837.0,0,354,36150471344128,83,0, 
0.2000,417.6,-262.5,3.9,-72.0,9051.0,52.8,543.9,9173.1,63800.1,277.5,3617.4,6279.0,83.7,8922.3,6798.6,9162.3,-6.9,-6.0,7887.3,8775.0,-0.6,348.9,6354.9,876.3,0,360,36150471344128,84,0, 
0.2033,470.7,-271.5,30.3,-17.4,7418.1,-24.3,594.9,9830.1,76174.8,365.1,4344.9,7160.7,-30.3,9827.1,9830.1,9830.1,-6.6,-5.7,9742.2,9830.1,-0.9,441.0,2389.2,860.7,0,366,36150471344128,85,0, 
0.2067,513.3,-299.4,55.8,36.6,-6249.6,-264.6,657.0,-2302.5,5483.4,483.6,-2775.6,-2351.1,-527.4,-2553.3,-6455.7,-2325.6,-7.2,-5.4,-3403.8,-2595.3,-0.6,557.7,-8484.0,798.9,0,372,36150471344128,86,0, 
0.2100,494.4,-297.6,42.3,14.7,-9819.9,-317.7,650.1,-9830.1,-51499.5,467.7,-7395.0,-8443.5,-702.0,-9827.4,-9830.1,-9830.1,-7.2,-5.4,-9830.1,-9830.1,-0.6,542.4,-9830.1,792.6,0,378,36150471344128,87,0, 
0.2133,441.9,-287.4,18.9,-51.3,-4467.0,-123.9,585.6,-5663.7,-15783.3,348.3,-3000.0,-2768.4,-293.4,-5693.1,-9002.7,-5592.0,-6.9,-6.3,-5685.3,-4860.0,-0.9,416.7,-4957.2,833.4,0,384,36150471344128,88,0, 
0.2167,426.6,-266.1,7.2,-85.2,9018.3,31.5,541.8,9143.4,63429.6,283.5,3700.5,6090.0,102.9,8885.7,6807.0,9139.5,-7.2,-6.3,7784.1,8720.7,-0.9,350.4,6332.7,870.3,0,390,36150471344128,89,0, 
0.2200,487.2,-261.3,42.0,-19.2,7442.7,-39.6,601.8,9830.1,76174.8,383.4,4369.2,7146.3,-5.4,9827.1,9830.1,9830.1,-7.2,-6.0,9655.5,9830.1,-0.6,446.7,2373.3,862.5,0,396,36150471344128,90,0, 
0.2233,528.0,-295.8,62.4,34.5,-6226.8,-270.9,666.3,-2309.4,5483.4,497.4,-2699.1,-2358.9,-503.1,-2493.6,-6424.8,-2350.5,-7.2,-5.7,-3540.3,-2575.5,-0.9,571.2,-8481.9,810.0,0,402,36150471344128,91,0, 
0.2267,505.8,-294.6,58.5,29.7,-9819.9,-315.3,660.3,-9830.1,-51573.6,493.2,-7257.9,-8316.9,-680.1,-9827.4,-9830.1,-9830.1,-6.6,-6.3,-9830.1,-9830.1,-0.6,559.2,-9830.1,794.7,0,408,36150471344128,92,0, 
0.2300,444.0,-276.0,25.5,-48.3,-4399.2,-133.8,582.9,-5673.0,-15857.4,354.3,-2913.0,-2484.3,-301.2,-5603.4,-9001.2,-5623.2,-6.9,-5.7,-5578.2,-4709.4,-0.6,423.3,-4890.6,834.9,0,414,36150471344128,93,0, 
0.2333,435.9,-254.4,24.0,-67.2,8997.0,43.5,551.7,9125.7,63207.3,301.2,3694.2,6338.1,116.4,8902.8,6795.6,9121.5,-6.6,-6.0,7786.5,8688.3,-0.9,361.8,6348.3,884.4,0,420,36150471344128,94,0, 
0.2367,482.1,-255.3,53.1,-13.2,7548.3,-42.6,600.0,9830.1,76174.8,386.4,4384.8,7253.1,-7.2,9827.1,9830.1,9830.1,-7.5,-5.7,9721.8,9830.1,-0.9,453.3,2478.6,870.3,0,426,36150471344128,95,0, 
0.2400,517.8,-288.0,69.6,41.7,-6124.8,-273.3,660.9,-2245.5,6076.2,505.2,-2837.7,-2352.6,-501.6,-2478.3,-6304.5,-2261.4,-6.6,-6.3,-3502.5,-2609.1,-0.6,566.1,-8437.5,815.1,0,432,36150471344128,96,0, 
0.2433,495.9,-289.8,63.3,29.4,-9819.9,-320.7,651.6,-9830.1,-51203.1,488.4,-7293.3,-8244.3,-685.5,-9827.4,-9830.1,-9830.1,-6.9,-5.7,-9830.1,-9830.1,-0.9,552.9,-9830.1,802.2,0,438,36150471344128,97,0, 
0.2467,439.8,-276.0,33.3,-33.0,-4448.7,-127.2,582.3,-5772.9,-16079.7,354.9,-3093.6,-2536.5,-299.7,-5798.7,-9040.5,-5690.7,-6.9,-6.0,-5779.8,-4968.0,-0.9,417.6,-4994.7,845.1,0,444,36150471344128,98,0, 
0.2500,431.4,-252.0,33.3,-49.2,8991.6,48.6,550.5,9066.6,62688.6,297.3,3546.3,6279.9,112.5,8807.7,6760.2,9077.7,-6.6,-5.7,7659.3,8652.3,-1.2,364.5,6238.5,888.0,0,450,36150471344128,99,0, 
0.2533,478.2,-262.5,52.8,-1.2,7467.9,-36.6,597.0,9830.1,75656.1,383.1,4231.2,7257.0,-12.9,9827.1,9830.1,9830.1,-7.2,-5.7,9669.3,9830.1,-0.9,447.6,2343.6,883.2,0,456,36150471344128,100,0, 
0.2567,515.4,-291.6,69.3,50.1,-6213.9,-270.6,657.9,-2384.4,5261.1,497.1,-2829.3,-2357.1,-508.2,-2620.5,-6405.6,-2456.1,-7.2,-5.7,-3627.9,-2748.9,-0.9,565.8,-8481.9,817.2,0,462,36150471344128,101,0, 
0.2600,492.6,-297.3,63.9,35.1,-9819.9,-324.6,653.4,-9830.1,-52240.5,480.6,-7356.3,-8429.4,-684.0,-9827.4,-9830.1,-9830.1,-6.9,-6.0,-9830.1,-9830.1,-0.9,549.9,-9830.1,795.6,0,468,36150471344128,102,0, 
0.2633,442.5,-272.4,43.2,-29.1,-4642.5,-123.9,585.0,-5987.7,-17709.9,360.0,-3062.1,-2675.1,-306.3,-5930.7,-9243.0,-5888.7,-6.9,-5.7,-5886.9,-5136.6,-0.3,420.9,-5100.3,837.3,0,474,36150471344128,103,0, 
0.2667,436.2,-249.6,41.7,-44.4,8901.6,47.7,549.9,8955.0,61132.5,302.1,3558.0,6153.3,113.1,8732.1,6501.9,8969.1,-6.6,-6.0,7625.4,8516.4,-0.6,362.1,6163.8,887.4,0,480,36150471344128,104,0, 
0.2700,481.2,-256.8,56.4,-1.2,7393.2,-35.1,595.8,9830.1,74470.5,395.7,4228.8,6932.1,-9.9,9827.1,9830.1,9830.1,-7.2,-6.0,9574.2,9830.1,-0.3,450.9,2292.3,868.2,0,486,36150471344128,105,0, 
0.2733,520.8,-287.7,65.7,43.5,-6273.6,-274.8,654.0,-2603.1,3779.1,508.8,-2777.4,-2529.3,-506.7,-2828.4,-6742.5,-2595.3,-6.9,-6.0,-3822.0,-3004.8,-0.3,566.7,-8476.2,810.0,0,492,36150471344128,106,0, 
0.2767,501.9,-294.9,54.6,26.1,-9819.9,-334.5,652.5,-9830.1,-53722.5,495.6,-7337.7,-8665.8,-679.5,-9827.4,-9830.1,-9830.1,-6.9,-5.7,-9830.1,-9830.1,-0.3,555.0,-9830.1,799.2,0,498,36150471344128,107,0, 
0.2800,447.0,-275.1,35.7,-33.6,-4726.2,-133.5,588.3,-6196.2,-19414.2,366.9,-2929.2,-2917.2,-301.5,-6091.8,-9521.4,-6067.5,-6.3,-6.0,-6056.7,-5396.4,-0.9,423.6,-5118.0,848.1,0,504,36150471344128,108,0, 
0.2833,427.8,-257.1,24.0,-64.2,8812.8,31.8,546.0,8834.1,59502.3,297.9,3695.1,5849.1,101.7,8636.1,6099.0,8868.3,-6.6,-6.0,7501.8,8391.3,-0.9,354.9,6111.9,877.2,0,510,36150471344128,109,0, 
0.2867,486.9,-252.6,49.8,-9.3,7426.5,-52.5,597.3,9830.1,72988.5,380.1,4337.7,6770.7,-30.0,9827.1,9830.1,9830.1,-7.2,-6.6,9598.5,9830.1,-0.6,443.7,2330.4,875.4,0,516,36150471344128,110,0, 
0.2900,531.9,-279.6,75.9,48.3,-6259.5,-284.4,665.1,-2697.0,3260.4,506.7,-2649.9,-2709.3,-511.2,-2841.3,-7062.9,-2685.6,-6.9,-5.7,-3825.0,-3070.8,-0.6,565.2,-8460.6,820.8,0,522,36150471344128,111,0, 
0.2933,510.0,-289.8,67.5,42.0,-9819.9,-329.4,663.9,-9830.1,-54463.5,495.3,-7307.7,-8824.2,-682.2,-9827.4,-9830.1,-9830.1,-6.9,-6.0,-9830.1,-9830.1,-0.6,554.4,-9830.1,806.1,0,528,36150471344128,112,0, 
0.2967,453.6,-266.7,34.2,-28.2,-4742.1,-128.7,591.9,-6258.0,-19858.8,361.2,-3096.6,-3153.0,-315.6,-6162.0,-9681.3,-6114.6,-6.6,-6.0,-6163.8,-5477.4,-0.9,422.4,-5142.9,847.2,0,534,36150471344128,113,0, 
0.3000,440.7,-253.2,32.4,-56.1,8831.1,48.0,556.5,8821.8,59057.7,300.0,3539.7,5819.1,95.1,8613.3,5885.1,8865.3,-6.6,-6.0,7445.1,8354.1,-0.9,353.1,6129.3,894.0,0,540,36150471344128,114,0, 
0.3033,486.6,-256.8,53.1,-9.6,7448.4,-41.1,600.3,9830.1,72766.2,389.7,4215.9,6680.7,-19.2,9827.1,9830.1,9830.1,-7.2,-6.0,9520.8,9830.1,-0.9,442.8,2403.6,875.1,0,546,36150471344128,115,0, 
0.3067,521.4,-290.4,58.2,32.7,-6201.6,-273.6,663.9,-2604.3,2889.9,503.7,-2857.2,-2604.3,-506.7,-2773.8,-7228.5,-2572.8,-6.9,-6.0,-4023.3,-2951.4,-0.6,562.5,-8406.6,820.5,0,552,36150471344128,116,0, 
0.3100,501.3,-298.5,43.5,10.8,-9819.9,-326.4,654.3,-9830.1,-54982.2,488.7,-7392.6,-8748.6,-684.9,-9827.4,-9830.1,-9830.1,-6.6,-5.7,-9830.1,-9830.1,-0.6,549.9,-9830.1,801.6,0,558,36150471344128,117,0, 
0.3133,444.3,-275.7,12.6,-49.5,-4796.4,-130.5,586.2,-6303.3,-20970.3,369.6,-3031.5,-3031.2,-302.1,-6231.6,-9830.1,-6157.8,-6.9,-6.0,-6072.9,-5569.8,0.0,423.6,-5166.3,843.3,0,564,36150471344128,118,0, 
0.3167,434.1,-254.7,10.5,-69.9,8786.1,37.2,555.0,8779.2,58020.3,302.7,3630.0,5647.5,102.3,8550.0,5727.3,8820.3,-6.9,-6.0,7577.4,8240.7,-0.6,360.9,6065.1,882.0,0,570,36150471344128,119,0, 
0.3200,483.3,-255.3,31.8,-17.7,7391.4,-50.7,592.5,9830.1,71580.6,390.0,4134.0,6627.0,-7.5,9827.1,9830.1,9830.1,-6.9,-6.0,9374.1,9830.1,-0.3,444.6,2340.9,866.1,0,576,36150471344128,120,0, 
0.3233,518.1,-296.1,41.4,34.5,-6310.5,-276.6,654.9,-2737.8,1852.5,504.0,-2895.6,-2629.2,-505.5,-2859.0,-7488.3,-2690.4,-6.9,-5.7,-4369.8,-3084.9,-0.6,558.6,-8450.4,809.1,0,582,36150471344128,121,0, 
0.3267,503.7,-298.2,29.1,18.0,-9819.9,-328.5,649.2,-9830.1,-56167.8,492.3,-7563.3,-8978.7,-681.9,-9827.4,-9804.0,-9830.1,-6.9,-5.7,-9830.1,-9830.1,-0.9,549.6,-9830.1,797.1,0,588,36150471344128,122,0, 
0.3300,449.7,-279.6,2.4,-45.6,-4959.6,-130.8,587.4,-6488.1,-22748.7,370.8,-3162.6,-3284.4,-309.3,-6354.3,-9830.1,-6385.2,-6.3,-6.0,-6413.7,-5856.9,-0.6,421.5,-5322.6,840.6,0,594,36150471344128,123,0, 
0.3333,432.9,-264.9,-15.3,-78.3,8681.1,31.8,543.6,8660.4,55649.1,302.4,3575.7,5500.8,96.6,8469.9,5353.8,8675.7,-6.9,-6.0,7380.0,8051.4,-0.6,356.1,5888.4,883.2,0,600,36150471344128,124,0, 
0.3367,480.0,-267.3,17.4,-21.0,7274.7,-45.9,597.3,9830.1,69579.9,393.0,3976.2,6233.1,-12.0,9827.1,9830.1,9830.1,-6.6,-6.0,9266.7,9830.1,-0.3,449.4,2154.9,885.9,0,606,36150471344128,125,0, 
0.3400,520.2,-298.2,34.8,32.4,-6377.4,-273.0,656.4,-2996.1,-444.6,500.7,-3031.5,-2778.3,-511.2,-3206.7,-7863.6,-3011.7,-6.9,-5.7,-4687.8,-3425.7,-0.9,563.4,-8505.0,824.4,0,612,36150471344128,126,0, 
0.3433,493.8,-309.0,24.9,13.5,-9819.9,-324.0,646.5,-9830.1,-58835.4,486.0,-7756.2,-9158.1,-701.1,-9827.4,-9637.2,-9830.1,-7.5,-5.7,-9830.1,-9830.1,-0.6,552.9,-9830.1,806.1,0,618,36150471344128,127,0, 
0.3467,441.0,-285.0,-0.3,-52.5,-5162.4,-140.4,582.6,-6698.1,-25416.3,362.1,-3299.4,-3460.8,-321.6,-6694.8,-9830.1,-6646.2,-6.3,-6.3,-6732.6,-6164.7,-0.9,428.7,-5442.9,854.1,0,624,36150471344128,128,0, 
0.3500,428.1,-267.6,-5.1,-76.2,8520.3,27.3,547.8,8538.3,53055.6,295.5,3512.1,5322.0,87.6,8259.3,4677.0,8538.0,-6.9,-6.3,7189.8,7861.8,-0.3,360.0,5776.8,895.5,0,630,36150471344128,129,0, 
0.3533,475.5,-273.9,21.6,-30.6,7158.3,-53.7,596.7,9830.1,67134.6,379.5,3971.4,6120.0,-31.5,9827.1,9643.5,9830.1,-6.9,-6.6,9060.0,9830.1,-0.9,446.1,2133.9,881.7,0,636,36150471344128,130,0, 
0.3567,517.2,-297.3,42.0,27.6,-6525.6,-279.3,657.9,-3193.5,-2964.0,495.9,-3144.6,-2961.3,-522.6,-3486.3,-8574.6,-3219.6,-7.2,-6.3,-5168.1,-3503.4,-0.6,564.0,-8524.8,823.5,0,642,36150471344128,131,0, 
0.3600,491.4,-307.8,27.9,11.7,-9819.9,-324.6,650.7,-9830.1,-61651.2,478.8,-8012.7,-9276.9,-711.9,-9827.4,-9380.1,-9830.1,-6.9,-6.0,-9830.1,-9830.1,-0.9,549.3,-9830.1,799.5,0,648,36150471344128,132,0, 
0.3633,437.1,-278.7,6.0,-55.8,-5366.4,-130.5,584.1,-6960.0,-28676.7,343.5,-3550.8,-3591.9,-341.7,-6948.9,-9830.1,-6852.6,-6.9,-6.0,-7023.9,-6282.9,-0.6,414.0,-5567.4,840.0,0,654,36150471344128,133,0, 
0.3667,417.3,-274.2,-10.5,-85.5,8417.1,31.2,538.8,8360.4,49943.4,276.3,3273.9,5440.2,78.0,8078.4,3893.1,8395.5,-6.9,-6.0,7039.5,7738.2,-0.3,341.1,5671.5,878.4,0,660,36150471344128,134,0, 
0.3700,469.8,-285.3,19.2,-34.5,7017.0,-49.2,587.1,9830.1,63874.2,361.2,3489.9,6021.3,-31.8,9827.1,9112.2,9830.1,-6.6,-6.0,8731.8,9830.1,-0.9,432.0,1944.9,867.9,0,666,36150471344128,135,0, 
0.3733,506.7,-305.1,30.3,12.3,-6607.2,-281.1,647.1,-3605.7,-6298.5,476.4,-3500.7,-2943.0,-527.7,-3887.1,-9227.4,-3528.9,-6.9,-6.3,-5492.4,-3724.5,-0.6,551.1,-8577.3,806.1,0,672,36150471344128,136,0, 
0.3767,483.6,-310.2,29.7,0.9,-9819.9,-338.1,638.7,-9830.1,-64985.7,468.0,-8300.1,-9346.5,-728.7,-9827.4,-9139.2,-9830.1,-6.6,-6.0,-9830.1,-9830.1,-0.9,536.1,-9830.1,783.0,0,678,36150471344128,137,0, 
0.3800,431.1,-281.4,10.8,-52.2,-5471.4,-132.0,576.6,-7226.1,-32381.7,336.0,-3781.8,-3664.2,-351.0,-7352.1,-9830.1,-7054.2,-6.9,-6.0,-7292.1,-6482.7,-0.3,411.0,-5645.4,832.5,0,684,36150471344128,138,0, 
0.3833,421.2,-261.0,3.6,-74.1,8339.1,39.9,541.5,8193.9,46238.4,273.3,3030.3,5087.4,58.8,7773.3,2888.4,8286.0,-6.6,-5.7,6725.1,7654.5,-1.2,345.3,5562.3,879.0,0,690,36150471344128,139,0, 
0.3867,463.8,-278.4,12.6,-27.3,6930.3,-49.5,589.8,9830.1,60391.5,354.9,3412.8,5681.4,-66.0,9827.1,8233.2,9830.1,-6.9,-6.0,8563.5,9830.1,-0.6,431.4,1846.8,865.2,0,696,36150471344128,140,0, 
0.3900,506.1,-306.9,23.7,17.7,-6747.3,-281.1,655.8,-3824.7,-10003.5,480.6,-3641.7,-3259.5,-550.5,-4331.4,-9830.1,-3741.0,-7.2,-6.3,-5779.2,-3887.1,-0.6,555.6,-8629.8,808.5,0,702,36150471344128,141,0, 
0.3933,489.6,-316.5,17.4,8.1,-9819.9,-330.9,654.0,-9830.1,-68764.8,480.3,-8577.0,-9772.8,-729.6,-9827.4,-8917.5,-9830.1,-6.6,-5.7,-9830.1,-9830.1,-0.6,552.0,-9830.1,799.5,0,708,36150471344128,142,0, 
0.3967,440.1,-282.3,-8.7,-54.3,-5651.7,-135.0,589.8,-7421.1,-36309.0,357.0,-4037.7,-4038.6,-362.4,-7677.6,-9830.1,-7292.7,-6.3,-6.0,-7569.3,-6655.5,-0.6,432.9,-5777.7,840.9,0,714,36150471344128,143,0, 
0.4000,426.6,-257.4,-13.8,-74.1,8157.3,43.5,547.5,8056.5,42014.7,293.1,2771.7,4900.8,54.3,7499.1,1377.6,8103.6,-6.6,-5.7,6278.4,7460.7,-1.2,365.1,5467.5,886.8,0,720,36150471344128,144,0, 
0.4033,472.8,-273.0,20.7,-15.0,6858.0,-27.3,601.5,9830.1,56390.1,385.5,3186.6,5686.2,-50.1,9827.1,6766.5,9830.1,-6.9,-6.3,8286.6,9830.1,-0.9,461.7,1850.1,885.0,0,726,36150471344128,145,0, 
0.4067,510.9,-292.5,43.5,50.1,-6780.3,-261.3,663.3,-3937.5,-13634.4,504.3,-3762.6,-3165.6,-542.1,-4679.7,-9830.1,-3972.9,-6.9,-5.7,-6156.9,-3978.9,-0.6,584.1,-8622.3,829.2,0,732,36150471344128,146,0, 
0.4100,488.1,-307.2,33.3,33.6,-9819.9,-317.4,658.5,-9830.1,-72840.3,488.4,-8775.3,-9732.3,-740.4,-9827.4,-8758.2,-9830.1,-6.9,-6.0,-9830.1,-9830.1,-1.2,572.4,-9830.1,812.7,0,738,36150471344128,147,0, 
0.4133,430.8,-279.9,-0.9,-33.0,-5730.3,-117.0,594.6,-7532.7,-40162.2,359.7,-4309.5,-4154.1,-368.1,-7892.1,-9830.1,-7464.9,-6.6,-5.7,-7847.4,-6740.4,-0.9,442.8,-5789.7,858.0,0,744,36150471344128,148,0, 
0.4167,411.9,-256.5,-12.9,-67.2,8111.1,48.0,558.3,7978.8,38235.6,295.2,2720.4,4991.7,42.3,7324.8,-433.2,7987.5,-6.6,-5.7,6007.8,7456.5,-0.9,376.8,5422.8,894.9,0,750,36150471344128,149,0, 
0.4200,459.9,-262.5,0.3,-36.0,6829.5,-38.7,596.1,9830.1,53796.6,372.3,2838.9,5413.2,-70.5,9827.1,4699.2,9830.1,-6.9,-6.0,7719.3,9768.9,-0.6,450.6,1824.6,868.2,0,756,36150471344128,150,0, 
0.4233,513.0,-291.0,28.8,17.1,-6812.4,-273.6,661.2,-4087.2,-15931.5,489.0,-4273.2,-3744.3,-557.4,-5013.0,-9830.1,-4085.1,-6.9,-6.0,-6535.5,-4435.5,-0.6,570.9,-8663.4,813.0,0,762,36150471344128,151,0, 
0.4267,486.9,-300.9,18.3,-4.2,-9819.9,-332.7,653.4,-9830.1,-75285.6,473.1,-9328.8,-9817.8,-751.2,-9827.4,-8715.6,-9830.1,-6.9,-6.0,-9830.1,-9830.1,-0.3,551.4,-9830.1,788.7,0,768,36150471344128,152,0, 
0.4300,438.0,-277.2,3.3,-50.7,-5829.6,-114.3,590.7,-7666.8,-43052.1,348.6,-4730.4,-4493.7,-368.1,-8142.9,-9830.1,-7562.1,-6.9,-6.3,-8101.2,-7120.5,-0.6,425.4,-5889.3,835.5,0,774,36150471344128,153,0, 
0.4333,425.7,-257.7,-0.6,-60.9,8060.4,69.6,556.2,7872.0,35568.0,280.5,2401.5,4857.6,41.4,7108.5,-1976.4,7916.4,-6.6,-5.7,5608.5,7182.9,-0.6,357.0,5359.8,888.0,0,780,36150471344128,154,0, 
0.4367,475.8,-266.4,34.5,1.8,6848.7,-6.9,608.4,9830.1,50462.1,368.4,2750.1,5591.1,-71.7,9827.1,2733.3,9830.1,-7.2,-6.0,7780.2,9830.1,-0.6,447.9,1772.4,880.5,0,786,36150471344128,155,0, 
0.4400,514.8,-286.8,38.7,48.3,-6777.9,-252.9,659.7,-4056.9,-18969.6,478.8,-4248.0,-3278.1,-577.8,-5191.5,-9830.1,-4095.9,-7.2,-6.3,-6458.4,-4302.3,-0.9,567.0,-8647.8,825.0,0,792,36150471344128,156,0, 
0.4433,487.5,-312.6,17.1,24.9,-9819.9,-313.8,654.3,-9830.1,-78175.5,472.2,-9289.2,-9817.8,-768.0,-9827.4,-8761.2,-9830.1,-7.2,-6.3,-9830.1,-9830.1,-0.6,559.2,-9830.1,801.9,0,798,36150471344128,157,0, 
0.4467,443.4,-279.3,-3.3,-32.7,-5783.1,-112.5,592.8,-7605.6,-45645.6,358.2,-4692.9,-4274.4,-383.1,-8244.6,-9830.1,-7576.8,-7.2,-6.0,-8099.7,-6916.8,-1.2,440.4,-5890.2,846.3,0,804,36150471344128,158,0, 
0.4500,426.6,-259.8,-15.0,-59.7,8105.4,57.0,547.8,7919.4,33122.7,290.4,2421.3,4914.3,38.1,7025.1,-3315.3,7902.9,-6.9,-6.6,5694.0,7335.3,-0.6,367.5,5342.7,884.1,0,810,36150471344128,159,0, 
0.4533,482.7,-258.3,24.3,2.1,6858.6,-22.8,597.3,9830.1,48165.0,387.6,2974.5,5803.8,-62.7,9827.1,759.0,9830.1,-6.9,-5.7,8001.9,9830.1,-0.9,462.6,1801.5,875.7,0,816,36150471344128,160,0, 
0.4567,520.2,-285.3,42.6,46.2,-6780.3,-252.0,657.0,-3912.0,-21489.0,498.6,-4031.1,-3234.9,-548.4,-5343.3,-9830.1,-4050.9,-6.9,-5.7,-6395.7,-4081.5,-0.9,580.5,-8637.0,821.4,0,822,36150471344128,161,0, 
0.4600,502.8,-286.2,27.6,30.9,-9819.9,-310.2,656.1,-9830.1,-80694.9,495.3,-9231.9,-9817.8,-744.0,-9827.4,-8837.1,-9830.1,-7.2,-6.3,-9830.1,-9830.1,-0.9,573.9,-9830.1,797.7,0,828,36150471344128,162,0, 
0.4633,448.8,-269.4,3.6,-31.5,-5850.9,-110.4,594.9,-7582.8,-48609.6,372.6,-4649.4,-4283.4,-369.9,-8427.0,-9830.1,-7598.1,-6.9,-5.7,-8119.5,-6956.7,-0.3,449.1,-5919.6,853.8,0,834,36150471344128,163,0, 
0.4667,433.2,-246.6,-5.7,-54.9,8045.1,70.5,556.8,7928.4,30232.8,306.9,2516.4,5013.6,45.3,6862.2,-4425.0,7877.7,-6.9,-6.3,5562.0,7288.8,-0.9,382.2,5346.0,899.1,0,840,36150471344128,164,0, 
0.4700,483.0,-243.0,19.2,-2.1,6810.3,-5.1,603.3,9830.1,45423.3,387.6,3032.4,5940.9,-59.4,9827.1,-771.9,9830.1,-6.6,-5.4,7768.2,9830.1,-0.9,465.9,1822.8,888.0,0,846,36150471344128,165,0, 
0.4733,525.9,-277.2,33.9,52.2,-6801.0,-237.9,669.3,-3892.8,-24156.6,503.1,-3966.6,-3013.2,-553.5,-5419.8,-9830.1,-3957.6,-6.9,-5.4,-6441.0,-4015.8,-0.6,585.3,-8609.1,827.1,0,852,36150471344128,166,0, 
0.4767,500.4,-291.0,18.9,36.9,-9819.9,-287.1,662.7,-9830.1,-83362.5,491.1,-9209.7,-9817.8,-761.1,-9827.4,-8929.8,-9830.1,-6.3,-5.7,-9830.1,-9830.1,-0.6,577.2,-9830.1,803.1,0,858,36150471344128,167,0, 
0.4800,444.9,-272.1,-8.4,-23.1,-5904.3,-94.2,598.8,-7625.7,-51129.0,372.3,-4599.9,-4361.4,-372.6,-8523.0,-9830.1,-7569.9,-6.9,-6.3,-8227.2,-6977.1,-0.6,451.8,-5988.6,851.1,0,864,36150471344128,168,0, 
0.4833,432.6,-253.2,-9.0,-49.5,7996.5,73.5,556.5,7874.7,27787.5,303.0,2618.4,5064.0,42.9,6692.4,-5637.9,7896.3,-6.9,-6.0,5430.9,7287.3,-0.9,376.8,5311.2,894.3,0,870,36150471344128,169,0, 
0.4867,480.9,-254.7,22.5,0.6,6873.6,-3.0,602.1,9830.1,43348.5,386.7,3021.3,5890.2,-64.2,9827.1,-2740.8,9830.1,-6.9,-6.3,7765.2,9830.1,-0.9,461.4,1785.6,881.1,0,876,36150471344128,170,0, 
0.4900,519.6,-288.0,39.6,53.1,-6764.1,-243.3,662.4,-3826.8,-26157.3,498.6,-3926.1,-3094.8,-554.1,-5670.6,-9830.1,-3926.1,-6.6,-5.7,-6508.8,-4011.9,-1.2,574.5,-8649.0,821.4,0,882,36150471344128,171,0, 
0.4933,495.3,-300.3,32.1,38.7,-9819.9,-297.3,661.5,-9830.1,-85511.4,486.9,-9112.2,-9817.8,-753.3,-9827.4,-9063.3,-9830.1,-6.9,-6.0,-9830.1,-9830.1,-0.6,562.8,-9830.1,797.4,0,888,36150471344128,172,0, 
0.4967,445.5,-275.1,9.9,-25.2,-5856.9,-100.5,598.8,-7563.9,-53277.9,366.6,-4621.5,-4342.8,-383.7,-8644.2,-9830.1,-7575.9,-6.9,-6.0,-8244.0,-6990.3,-0.3,439.5,-6016.8,842.4,0,894,36150471344128,173,0, 
0.5000,421.5,-259.2,-8.4,-66.3,8054.4,68.1,551.1,7925.4,25786.8,294.9,2596.5,5022.9,24.3,6596.4,-6423.6,7875.3,-6.9,-6.0,5529.0,7382.7,-0.6,366.6,5276.7,879.9,0,900,36150471344128,174,0, 
0.5033,471.0,-264.6,12.3,-17.1,7006.2,-16.5,600.3,9830.1,41496.0,375.6,3090.6,5926.8,-83.1,9827.1,-3776.7,9830.1,-6.6,-5.4,8002.2,9830.1,-0.6,452.7,1840.8,868.5,0,906,36150471344128,175,0, 
0.5067,508.2,-298.2,26.1,32.1,-6681.6,-244.2,660.6,-3595.5,-27491.1,492.9,-3992.4,-2968.8,-570.0,-5659.2,-9830.1,-3762.9,-7.2,-5.7,-6324.9,-3789.6,-0.6,575.1,-8620.5,810.0,0,912,36150471344128,176,0, 
0.5100,492.6,-308.1,21.6,21.0,-9819.9,-308.1,654.3,-9830.1,-87141.6,487.2,-9174.9,-9817.8,-768.6,-9827.4,-9143.1,-9830.1,-6.9,-6.0,-9830.1,-9830.1,-0.6,565.5,-9830.1,792.3,0,918,36150471344128,177,0, 
0.5133,441.9,-273.0,-1.2,-36.0,-5863.2,-109.2,589.2,-7496.7,-55130.4,357.6,-4691.1,-4392.6,-408.3,-8695.8,-9830.1,-7525.8,-6.6,-6.0,-8033.7,-6917.4,-0.3,437.4,-6022.2,836.7,0,924,36150471344128,178,0, 
0.5167,426.0,-253.5,-8.1,-64.8,8057.4,66.0,552.3,7960.8,23934.3,292.8,2497.8,4817.4,23.7,6526.5,-7023.3,7899.6,-6.6,-6.0,5846.4,7352.1,-0.6,366.3,5268.0,878.1,0,930,36150471344128,179,0, 
0.5200,467.1,-266.7,13.2,-17.7,7037.7,-8.4,597.0,9830.1,40014.0,378.3,3094.8,5797.8,-68.1,9827.1,-4828.5,9830.1,-6.6,-6.0,8261.4,9830.1,-0.9,454.8,1833.3,865.5,0,936,36150471344128,180,0, 
0.5233,517.5,-287.4,34.2,41.4,-6674.4,-235.2,662.1,-3537.3,-29269.5,502.5,-3934.2,-3267.6,-559.2,-5823.9,-9830.1,-3668.7,-6.9,-6.0,-6158.4,-3760.2,-0.6,579.3,-8646.0,816.0,0,942,36150471344128,181,0, 
0.5267,493.8,-303.6,12.9,30.3,-9819.9,-297.3,657.9,-9830.1,-88994.1,494.4,-9168.9,-9817.8,-757.8,-9827.4,-9249.6,-9830.1,-6.3,-5.7,-9830.1,-9830.1,-0.3,571.5,-9830.1,799.2,0,948,36150471344128,182,0, 
0.5300,442.2,-269.7,-9.9,-30.3,-5944.2,-104.1,590.7,-7540.2,-57427.5,373.8,-4719.0,-4564.8,-385.8,-8872.2,-9830.1,-7543.8,-6.6,-6.3,-8171.7,-6863.7,-0.6,446.7,-6110.4,842.7,0,954,36150471344128,183,0, 
0.5333,434.1,-240.0,-10.5,-45.3,8009.1,76.5,564.0,7913.7,21563.1,313.5,2610.9,5049.6,44.7,6329.1,-7803.3,7875.3,-7.2,-6.0,5733.9,7418.1,-0.9,381.9,5229.0,894.0,0,960,36150471344128,184,0, 
0.5367,483.9,-241.5,26.1,4.2,6946.8,-0.3,606.9,9830.1,37494.6,396.0,3057.3,5867.7,-49.5,9827.1,-6153.3,9830.1,-6.9,-6.3,8112.6,9830.1,-0.6,471.3,1775.7,884.4,0,966,36150471344128,185,0, 
0.5400,523.5,-269.7,46.8,54.3,-6761.4,-233.1,674.4,-3630.0,-31937.1,524.1,-3984.9,-3080.1,-542.7,-6153.6,-9830.1,-3758.1,-6.9,-5.4,-6326.1,-3764.1,-0.9,592.2,-8639.7,830.4,0,972,36150471344128,186,0, 
0.5433,498.9,-288.0,27.6,30.9,-9819.9,-294.6,658.8,-9830.1,-91809.9,509.1,-9308.7,-9817.8,-753.3,-9827.4,-9393.3,-9830.1,-7.2,-5.7,-9830.1,-9830.1,-0.6,579.9,-9830.1,802.2,0,978,36150471344128,187,0, 
0.5467,443.4,-268.8,-5.4,-41.7,-6054.9,-105.0,593.1,-7659.6,-60465.6,377.4,-4870.5,-4490.7,-385.2,-9084.6,-9830.1,-7675.8,-6.6,-5.7,-8251.2,-6936.0,-0.9,445.5,-6203.7,838.2,0,984,36150471344128,188,0, 
0.5500,429.6,-247.8,-15.3,-67.2,7890.3,66.3,558.9,7798.2,18376.8,306.6,2455.2,5005.2,38.7,6035.1,-8612.7,7749.9,-6.6,-6.0,5613.0,7305.0,-0.6,376.5,5083.2,884.4,0,990,36150471344128,189,0, 
0.5533,473.4,-262.8,3.9,-27.0,6869.7,-16.8,600.9,9830.1,34604.7,381.3,2981.7,5926.8,-66.6,9827.1,-7500.3,9830.1,-7.2,-6.0,8037.9,9830.1,-1.2,456.6,1703.1,873.0,0,996,36150471344128,190,0, 
0.5567,519.6,-280.5,24.9,29.7,-6790.5,-237.3,665.4,-3743.1,-34530.6,501.3,-4125.0,-3075.6,-552.6,-6288.6,-9830.1,-3850.2,-7.2,-6.0,-6403.8,-3698.4,-0.6,575.7,-8687.1,817.5,0,1002,36150471344128,191,0, 
0.5600,492.3,-300.6,3.9,4.5,-9819.9,-311.1,662.4,-9830.1,-94551.6,485.7,-9407.1,-9817.8,-768.9,-9827.4,-9544.8,-9830.1,-7.2,-6.0,-9830.1,-9830.1,-1.2,557.4,-9830.1,786.9,0,1008,36150471344128,192,0, 
0.5633,442.8,-273.9,-21.9,-60.9,-6111.9,-128.1,595.5,-7732.5,-63281.4,362.7,-4998.0,-4631.4,-380.1,-9257.1,-9830.1,-7737.9,-6.6,-6.0,-8403.6,-6949.2,-0.9,431.4,-6256.5,828.3,0,1014,36150471344128,193,0, 
0.5667,424.5,-260.1,-37.5,-94.5,7845.3,46.8,553.2,7746.9,15783.3,288.9,2430.3,5014.2,30.6,5797.2,-9280.8,7710.9,-6.9,-5.7,5192.1,7343.1,-0.9,354.6,5086.5,865.8,0,1020,36150471344128,194,0, 
0.5700,474.9,-257.7,-9.3,-41.1,6861.9,-29.4,597.3,9830.1,32233.5,372.9,2969.7,5975.7,-67.8,9827.1,-8644.2,9830.1,-6.9,-6.0,7795.5,9830.1,-0.9,439.5,1778.7,851.7,0,1026,36150471344128,195,0, 
0.5733,521.4,-284.1,19.5,15.9,-6759.9,-272.1,658.5,-3675.6,-36901.8,483.9,-4029.3,-2943.6,-555.6,-6550.8,-9830.1,-3743.4,-6.9,-5.7,-6522.3,-3594.9,-0.6,561.9,-8655.9,787.2,0,1032,36150471344128,196,0, 
0.5767,491.4,-296.7,0.0,-5.1,-9819.9,-352.5,645.9,-9830.1,-96848.7,480.0,-9551.1,-9817.8,-764.4,-9827.4,-9676.5,-9830.1,-6.6,-5.7,-9830.1,-9830.1,-0.6,546.9,-9830.1,766.5,0,1038,36150471344128,197,0, 
0.5800,437.7,-275.4,-21.0,-67.5,-6092.4,-155.1,584.7,-7715.1,-65578.5,349.8,-5113.8,-4616.1,-388.2,-9388.8,-9830.1,-7719.0,-6.3,-6.0,-8527.8,-6840.6,-0.6,425.1,-6249.6,819.6,0,1044,36150471344128,198,0, 
0.5833,427.2,-251.7,-22.5,-86.4,7896.6,30.0,543.9,7750.5,13412.1,291.6,2237.7,5039.7,28.8,5585.7,-9603.6,7693.5,-6.9,-5.7,4919.4,7415.1,-0.6,358.5,5096.4,869.1,0,1050,36150471344128,199,0, 
0.5867,475.2,-252.9,3.6,-37.5,7004.7,-39.0,587.4,9830.1,30381.0,369.0,2873.4,6041.7,-65.7,9827.1,-9293.4,9830.1,-6.9,-5.7,7459.2,9830.1,-0.9,444.3,1806.0,860.1,0,1056,36150471344128,200,0, 
0.5900,513.9,-293.7,19.2,19.8,-6740.7,-268.5,654.9,-3525.9,-38680.2,492.9,-4257.6,-2987.1,-545.4,-6680.7,-9830.1,-3735.3,-6.9,-6.0,-6779.7,-3292.8,-0.9,567.3,-8641.5,806.4,0,1062,36150471344128,201,0, 
0.5933,493.5,-286.5,15.0,4.5,-9819.9,-332.4,650.4,-9830.1,-98627.1,484.8,-9813.9,-9817.8,-745.5,-9827.4,-9761.1,-9830.1,-6.6,-5.7,-9830.1,-9830.1,-0.6,557.4,-9830.1,788.1,0,1068,36150471344128,202,0, 
0.5967,441.0,-270.9,-11.1,-55.2,-6123.0,-150.3,581.1,-7692.6,-67579.2,358.5,-5434.2,-4642.8,-376.8,-9511.8,-9830.1,-7734.0,-6.9,-6.0,-8715.3,-6677.7,-1.2,428.7,-6266.7,831.3,0,1074,36150471344128,203,0, 
0.6000,428.1,-244.5,-19.8,-76.8,7860.6,30.0,544.2,7756.5,11485.5,293.7,2108.7,5108.1,44.7,5466.0,-9794.1,7686.3,-7.2,-6.0,4390.2,7564.5,-0.9,362.4,5064.9,873.9,0,1080,36150471344128,204,0, 
0.6033,472.2,-252.3,5.7,-27.3,7019.4,-46.2,589.5,9830.1,28454.4,375.6,2700.0,6106.8,-52.5,9827.1,-9734.4,9830.1,-6.9,-5.4,7070.1,9830.1,-0.9,444.0,1754.4,866.1,0,1086,36150471344128,205,0, 
0.6067,507.0,-286.2,30.0,27.6,-6694.2,-282.3,649.8,-3513.0,-40384.5,491.4,-4356.0,-2841.3,-550.2,-6777.9,-9830.1,-3679.2,-6.3,-5.7,-6942.0,-3108.6,-0.6,568.5,-8661.6,810.9,0,1092,36150471344128,206,0, 
0.6100,491.7,-290.4,22.5,18.6,-9819.9,-349.8,649.8,-9830.1,-101072.4,493.8,-9565.5,-9817.8,-751.2,-9827.4,-9818.7,-9830.1,-6.3,-6.0,-9830.1,-9830.1,-0.3,566.1,-9830.1,784.5,0,1098,36150471344128,207,0, 
0.6133,435.3,-271.5,-3.6,-38.4,-6240.6,-154.5,591.3,-7787.4,-70617.3,366.0,-5122.8,-4722.9,-387.9,-9718.8,-9830.1,-7824.9,-6.3,-6.0,-8441.4,-7128.6,-0.6,435.9,-6402.9,830.4,0,1104,36150471344128,208,0, 
0.6167,417.3,-251.4,-14.7,-69.9,7706.7,16.5,548.7,7644.9,8151.0,296.1,2343.3,4955.4,38.1,5016.9,-9830.1,7575.0,-7.2,-5.7,5378.4,7040.1,-0.9,364.8,4925.7,868.2,0,1110,36150471344128,209,0, 
0.6200,461.1,-264.6,-0.6,-25.5,6822.6,-64.5,594.9,9830.1,25268.1,376.8,3125.4,5977.5,-57.6,9827.1,-9830.1,9830.1,-7.2,-5.7,8334.0,9830.1,-0.6,450.0,1697.7,852.6,0,1116,36150471344128,210,0, 
0.6233,504.6,-288.3,19.2,27.6,-6813.3,-291.3,663.6,-3684.6,-43719.0,498.0,-3839.1,-3011.4,-546.3,-7301.1,-9830.1,-3944.4,-6.9,-6.0,-6030.3,-4103.4,-0.6,573.6,-8711.4,801.6,0,1122,36150471344128,211,0, 
0.6267,481.2,-300.3,5.7,9.6,-9819.9,-353.1,656.4,-9830.1,-104036.4,486.9,-9329.4,-9817.8,-756.0,-9827.4,-9830.1,-9830.1,-6.6,-6.0,-9830.1,-9830.1,-0.3,561.9,-9830.1,787.2,0,1128,36150471344128,212,0, 
0.6300,435.6,-264.9,-16.5,-43.2,-6254.4,-153.6,592.8,-7836.3,-73210.8,366.6,-5064.9,-4747.5,-394.2,-9827.4,-9830.1,-7880.1,-6.6,-5.7,-8467.2,-7191.3,-0.6,441.3,-6380.1,832.2,0,1134,36150471344128,213,0, 
0.6333,423.9,-240.6,-17.1,-67.2,7764.9,30.0,560.7,7632.9,6150.3,297.0,2315.4,4996.2,37.2,4782.0,-9830.1,7563.6,-7.2,-6.0,4985.7,7135.2,-0.6,367.8,5004.0,880.5,0,1140,36150471344128,214,0, 
0.6367,474.6,-248.4,3.9,-28.2,7045.5,-46.8,600.9,9830.1,23786.1,375.3,2875.2,6194.4,-70.2,9827.1,-9830.1,9830.1,-7.2,-6.3,7564.2,9830.1,-0.6,447.0,1793.4,866.4,0,1146,36150471344128,215,0, 
0.6400,513.3,-275.1,17.7,20.4,-6692.7,-283.5,657.3,-3454.5,-44830.5,486.3,-4232.1,-2813.7,-572.1,-7317.0,-9830.1,-3681.3,-7.2,-5.7,-6793.2,-3263.1,-0.3,563.1,-8675.4,797.1,0,1152,36150471344128,216,0, 
0.6433,499.8,-291.0,6.9,8.4,-9819.9,-341.1,653.7,-9830.1,-105073.8,482.7,-9810.6,-9817.8,-774.9,-9806.4,-9830.1,-9830.1,-7.2,-5.7,-9830.1,-9830.1,-1.2,557.1,-9830.1,777.9,0,1158,36150471344128,217,0, 
0.6467,450.0,-264.9,-18.9,-54.6,-6220.2,-156.0,591.9,-7728.6,-74766.9,352.8,-5363.1,-4585.2,-415.5,-9827.4,-9830.1,-7788.0,-7.2,-5.7,-8921.4,-6765.0,-0.9,431.1,-6399.0,821.4,0,1164,36150471344128,218,0, 
0.6500,430.8,-242.4,-26.7,-83.7,7747.2,22.5,547.5,7693.8,4297.8,280.5,2133.3,5172.0,11.1,4673.4,-9830.1,7614.9,-6.9,-6.0,4098.3,7443.6,-0.9,354.3,4984.2,858.9,0,1170,36150471344128,219,0, 
0.6533,475.2,-247.5,-4.2,-37.5,7060.5,-51.9,590.7,9830.1,22081.8,362.1,2807.4,6299.1,-87.0,9827.1,-9830.1,9830.1,-7.2,-6.0,6873.9,9830.1,-0.6,435.0,1758.0,845.4,0,1176,36150471344128,220,0, 
0.6567,514.8,-282.6,17.4,24.0,-6680.7,-285.3,656.7,-3301.2,-46386.6,486.9,-4257.9,-2710.5,-570.9,-7426.5,-9830.1,-3515.7,-6.9,-5.7,-7173.3,-2730.9,-0.9,560.1,-8655.9,794.7,0,1182,36150471344128,221,0, 
0.6600,498.9,-276.3,1.8,8.7,-9819.9,-366.0,654.6,-9830.1,-107000.4,474.0,-9764.4,-9817.8,-799.5,-9757.2,-9830.1,-9830.1,-7.2,-5.4,-9830.1,-9830.1,-0.3,549.3,-9830.1,769.8,0,1188,36150471344128,222,0, 
0.6633,448.8,-263.1,-21.6,-52.2,-6239.1,-167.7,593.7,-7719.6,-76915.8,360.6,-5513.7,-4548.3,-406.8,-9827.4,-9830.1,-7788.6,-6.9,-6.3,-9122.1,-6575.4,-0.6,428.1,-6434.7,816.0,0,1194,36150471344128,223,0, 
0.6667,433.8,-239.7,-23.7,-73.2,7775.7,15.0,559.8,7688.7,2223.0,297.9,2062.8,5289.0,29.7,4486.5,-9830.1,7596.3,-7.2,-5.4,3657.9,7546.2,-0.6,365.7,4955.1,867.3,0,1200,36150471344128,224,0, 
0.6700,480.6,-239.4,4.2,-20.4,7131.3,-53.7,605.1,9830.1,20229.3,386.4,2831.4,6500.4,-66.3,9823.2,-9830.1,9830.1,-6.9,-6.3,6577.2,9830.1,-0.3,453.0,1902.0,860.7,0,1206,36150471344128,225,0, 
0.6733,521.7,-272.4,20.1,42.0,-6624.3,-284.7,668.4,-3183.0,-47794.5,502.8,-4335.9,-2577.6,-565.5,-7561.2,-9830.1,-3362.7,-7.2,-6.0,-7332.0,-2601.3,-1.2,577.8,-8615.4,804.9,0,1212,36150471344128,226,0, 
0.6767,508.5,-270.6,14.7,39.9,-9819.9,-348.0,673.5,-9830.1,-108482.4,508.2,-9780.0,-9768.3,-763.2,-9706.2,-9830.1,-9830.1,-6.6,-6.0,-9830.1,-9830.1,-0.3,582.3,-9830.1,792.3,0,1218,36150471344128,227,0, 
0.6800,446.1,-257.4,-15.6,-30.3,-6242.7,-158.7,598.2,-7624.8,-78397.8,377.1,-5499.6,-4397.7,-411.3,-9827.4,-9830.1,-7724.1,-6.9,-6.3,-9226.5,-6538.8,-0.6,450.0,-6421.8,831.9,0,1224,36150471344128,228,0, 
0.6833,433.2,-228.3,-13.8,-54.0,7745.7,24.0,570.6,7758.6,518.7,315.6,1987.8,5142.6,20.7,4156.8,-9830.1,7630.2,-6.9,-5.7,3326.7,7549.2,-1.5,385.2,4943.7,879.9,0,1230,36150471344128,229,0, 
0.6867,478.2,-233.4,13.2,-8.4,7129.2,-48.9,606.0,9830.1,18525.0,393.3,2862.9,6537.0,-74.1,9712.5,-9830.1,9830.1,-6.9,-6.3,6331.8,9830.1,-0.6,466.5,1899.0,870.6,0,1236,36150471344128,230,0, 
0.6900,522.3,-271.2,36.3,43.8,-6605.7,-279.6,672.6,-3070.2,-49647.0,514.5,-4271.4,-2651.1,-562.8,-7755.0,-9830.1,-3388.8,-6.9,-6.0,-7542.6,-2440.5,-0.9,586.2,-8637.3,813.3,0,1242,36150471344128,231,0, 
0.6933,501.6,-282.0,25.2,27.3,-9819.9,-347.1,667.2,-9830.1,-110557.2,502.8,-9723.0,-9793.8,-780.3,-9637.8,-9830.1,-9830.1,-6.9,-6.3,-9830.1,-9830.1,-0.3,579.9,-9830.1,791.4,0,1248,36150471344128,232,0, 
0.6967,441.6,-264.0,-0.6,-31.8,-6318.9,-161.4,601.2,-7686.6,-80991.3,383.1,-5569.8,-4571.4,-411.9,-9827.4,-9830.1,-7795.2,-6.9,-6.0,-9385.2,-6414.6,-1.2,454.2,-6516.9,831.6,0,1254,36150471344128,233,0, 
0.7000,427.8,-242.7,-5.1,-60.6,7697.7,19.2,560.1,7684.2,-1630.2,309.9,1969.2,5258.7,19.5,3846.6,-9830.1,7561.5,-6.9,-6.3,2908.8,7645.8,-0.6,378.9,4870.8,878.1,0,1260,36150471344128,234,0, 
0.7033,475.8,-246.0,18.0,-10.2,7215.9,-45.9,608.4,9830.1,16598.4,392.1,2769.9,6626.7,-60.9,9620.1,-9830.1,9830.1,-7.2,-5.7,6108.0,9830.1,-0.6,464.1,1845.0,869.1,0,1266,36150471344128,235,0, 
0.7067,513.9,-280.8,33.9,42.9,-6591.6,-285.6,669.3,-3060.6,-51425.4,508.8,-4411.8,-2531.4,-558.9,-7899.9,-9830.1,-3355.8,-6.9,-6.0,-7629.3,-2174.4,-0.6,581.4,-8636.4,810.6,0,1272,36150471344128,236,0, 
0.7100,486.0,-300.9,19.5,25.8,-9819.9,-360.9,658.2,-9830.1,-112261.5,499.5,-9830.1,-9749.1,-785.4,-9582.0,-9830.1,-9830.1,-6.6,-6.0,-9830.1,-9830.1,-0.9,571.2,-9830.1,784.5,0,1278,36150471344128,237,0, 
0.7133,433.8,-279.3,-9.0,-45.0,-6270.6,-171.6,594.6,-7661.4,-82473.3,373.5,-5702.4,-4387.8,-422.1,-9827.4,-9830.1,-7782.0,-6.6,-6.0,-9419.4,-6296.1,-0.9,440.7,-6523.2,826.8,0,1284,36150473441280,238,0, 
0.7167,420.0,-253.8,-19.8,-67.2,7729.5,11.4,556.8,7702.8,-3112.2,297.6,1880.1,5343.0,1.2,3713.4,-9830.1,7569.0,-6.6,-5.7,2822.4,7726.2,-0.9,366.0,4906.2,876.3,0,1290,36150473441280,239,0, 
0.7200,467.7,-252.0,7.5,-15.3,7282.8,-56.7,605.4,9830.1,15264.6,378.6,2770.8,6755.7,-77.4,9517.5,-9830.1,9830.1,-6.9,-6.0,5988.0,9830.1,-0.6,448.2,1952.7,865.8,0,1296,36150473441280,240,0, 
0.7233,514.8,-280.5,15.9,39.0,-6558.9,-292.8,671.4,-2973.3,-52536.9,501.6,-4417.2,-2547.3,-568.2,-8020.5,-9830.1,-3245.4,-6.9,-5.7,-7721.4,-1928.7,-0.6,573.3,-8619.0,813.9,0,1302,36150473441280,241,0, 
0.7267,504.3,-290.7,0.3,18.3,-9819.9,-357.3,669.0,-9830.1,-113743.5,489.3,-9830.1,-9684.0,-788.7,-9541.5,-9830.1,-9830.1,-6.9,-6.3,-9830.1,-9830.1,-0.6,565.8,-9830.1,791.4,0,1308,36150473441280,242,0, 
0.7300,444.0,-268.8,-21.9,-47.7,-6317.1,-171.6,603.0,-7743.9,-84251.7,364.2,-5810.4,-4524.0,-424.2,-9827.4,-9830.1,-7791.0,-6.3,-5.7,-9544.2,-6333.9,-0.6,435.6,-6596.4,829.2,0,1314,36150473441280,243,0, 
0.7333,427.2,-254.1,-30.6,-75.0,7696.8,4.2,559.2,7625.4,-5038.8,299.1,1755.6,5266.5,5.1,3558.3,-9830.1,7532.7,-6.9,-6.3,2507.4,7768.2,-0.9,365.1,4831.8,875.1,0,1320,36150473441280,244,0, 
0.7367,473.4,-248.7,-8.7,-28.2,7303.2,-54.0,597.9,9830.1,13486.2,365.7,2685.6,7032.0,-87.6,9402.0,-9830.1,9830.1,-6.6,-6.3,5915.7,9830.1,-0.6,436.8,1930.2,862.5,0,1326,36150473441280,245,0, 
0.7400,509.7,-290.1,12.0,24.0,-6511.5,-296.7,660.6,-2938.8,-54093.0,493.2,-4524.0,-2223.3,-570.0,-8125.5,-9830.1,-3256.2,-6.9,-5.7,-7800.6,-1703.1,-0.6,563.7,-8624.7,804.9,0,1332,36150473441280,246,0, 
0.7433,494.1,-299.7,1.2,13.5,-9819.9,-366.9,660.6,-9830.1,-115447.8,486.6,-9830.1,-9427.8,-788.4,-9519.0,-9830.1,-9830.1,-6.6,-6.0,-9821.7,-9830.1,-0.6,557.4,-9830.1,783.6,0,1338,36150473441280,247,0, 
0.7467,440.4,-270.9,-21.9,-50.1,-6255.3,-178.5,594.6,-7690.2,-85881.9,367.8,-5915.7,-4033.2,-424.8,-9827.4,-9830.1,-7766.1,-6.6,-5.7,-9627.9,-5987.1,-0.9,435.0,-6537.6,823.8,0,1344,36150473441280,248,0, 
0.7500,421.5,-255.9,-36.9,-80.7,7701.6,6.6,552.9,7659.6,-6076.2,290.1,1569.3,5449.5,0.6,3297.0,-9830.1,7569.9,-6.9,-6.0,2142.3,7965.6,-0.3,360.9,4927.5,872.7,0,1350,36150473441280,249,0, 
0.7533,463.8,-258.9,-15.0,-34.5,7550.1,-70.2,593.1,9830.1,13115.7,369.3,2739.0,7365.9,-82.5,9595.5,-9830.1,9830.1,-6.9,-5.7,5612.1,9830.1,-0.6,438.0,2139.0,853.2,0,1356,36150473441280,250,0, 
0.7567,504.9,-297.0,4.2,25.8,-6290.1,-296.1,651.9,-2592.9,-53722.5,486.9,-4626.0,-1956.9,-576.9,-8072.1,-9830.1,-2854.2,-7.2,-6.3,-7929.6,-776.7,-0.6,557.1,-8525.7,799.8,0,1362,36150473441280,251,0, 
0.7600,483.3,-304.2,-1.5,13.5,-9819.9,-372.9,643.5,-9830.1,-114410.4,488.4,-9830.1,-9071.7,-792.0,-9530.1,-9830.1,-9830.1,-6.9,-5.7,-9771.6,-9830.1,-0.9,555.3,-9830.1,775.5,0,1368,36150473441280,252,0, 
0.7633,432.0,-276.9,-19.8,-45.0,-5953.8,-167.4,585.3,-7300.5,-84325.8,364.5,-5975.1,-3769.5,-426.0,-9827.4,-9830.1,-7382.4,-7.2,-6.0,-9801.6,-5058.0,-0.6,433.8,-6365.1,825.3,0,1374,36150473441280,253,0, 
0.7667,422.4,-248.1,-19.2,-64.8,8000.7,19.2,551.1,8046.3,-3927.3,301.8,1457.4,5811.3,19.5,3734.4,-9830.1,7938.6,-6.6,-6.3,1546.2,8627.7,-0.9,366.0,5211.3,880.5,0,1380,36150473441280,254,0, 
0.7700,463.2,-263.1,-2.1,-17.1,7899.9,-41.1,590.7,9830.1,16227.9,375.9,2625.0,7753.2,-75.6,9827.1,-9830.1,9830.1,-6.9,-5.7,4902.6,9830.1,-0.9,442.8,2482.8,868.2,0,1386,36150473441280,255,0, 
0.7733,500.7,-296.7,14.4,36.6,-5921.1,-282.9,653.1,-1770.3,-50610.3,498.3,-4721.1,-1580.1,-573.6,-7564.8,-9830.1,-2041.8,-7.2,-6.3,-8295.6,539.7,-0.3,566.4,-8390.7,811.5,0,1392,36150473441280,0,0, 
0.7767,483.9,-301.8,1.8,27.0,-9819.9,-349.8,654.0,-9830.1,-111594.6,491.7,-9830.1,-8644.2,-782.7,-9663.0,-9830.1,-9830.1,-6.9,-5.7,-9687.9,-9830.1,-0.6,563.4,-9830.1,796.8,0,1398,36150473441280,1,0, 
0.7800,426.3,-282.0,-27.9,-40.5,-5807.1,-157.8,588.6,-6995.4,-82176.9,363.9,-6046.2,-3407.1,-420.6,-9827.4,-9830.1,-7066.5,-6.9,-5.7,-9830.1,-4370.4,-0.6,435.0,-6297.3,835.5,0,1404,36150473441280,2,0, 
0.7833,412.2,-256.2,-33.3,-63.6,8094.0,21.6,552.6,8211.3,-2371.2,294.3,1334.4,6172.2,12.6,3956.4,-9830.1,8114.4,-6.6,-5.7,971.1,8849.1,-0.9,359.4,5235.0,880.8,0,1410,36150473441280,3,0, 
0.7867,459.6,-258.9,-5.4,-16.8,7898.4,-44.1,592.8,9830.1,17191.2,370.5,2522.1,7966.8,-75.9,9827.1,-9830.1,9830.1,-6.9,-6.3,4356.6,9830.1,-0.6,438.3,2413.2,867.0,0,1416,36150473441280,4,0, 
0.7900,504.6,-291.6,12.3,34.8,-5923.5,-271.8,657.3,-1582.8,-49869.3,487.8,-4854.9,-1380.6,-566.4,-7573.2,-9830.1,-1895.7,-6.9,-6.0,-8560.8,1021.8,-0.6,558.3,-8409.6,808.2,0,1422,36150473441280,5,0, 
0.7933,489.9,-297.3,-0.9,21.9,-9819.9,-343.8,654.0,-9830.1,-111075.9,483.0,-9830.1,-8438.4,-780.9,-9676.2,-9830.1,-9830.1,-6.9,-6.0,-9623.4,-9830.1,-0.9,555.9,-9830.1,785.4,0,1428,36150473441280,6,0, 
0.7967,436.8,-281.4,-27.9,-41.1,-5770.2,-168.9,591.0,-6906.3,-81584.1,359.1,-6186.9,-3191.4,-417.6,-9827.4,-9830.1,-6977.7,-6.6,-6.0,-9830.1,-3972.6,-1.2,428.4,-6318.9,828.9,0,1434,36150473441280,7,0, 
0.8000,421.5,-255.3,-39.9,-70.5,8131.5,26.1,559.5,8291.7,-1407.9,287.1,1352.7,6413.7,17.7,4057.2,-9830.1,8190.9,-6.6,-6.0,544.5,9007.2,-0.9,354.0,5264.1,871.2,0,1440,36150473441280,8,0, 
0.8033,470.1,-246.9,-6.0,-18.3,8013.0,-57.9,597.6,9830.1,18599.1,372.6,2451.3,8166.3,-51.3,9827.1,-9830.1,9830.1,-7.2,-6.3,4045.8,9830.1,-0.9,438.9,2533.8,863.4,0,1446,36150473441280,9,0, 
0.8067,510.6,-285.9,12.3,33.6,-5767.5,-293.1,658.2,-1248.6,-48165.0,488.7,-4678.8,-1110.9,-552.3,-7377.3,-9830.1,-1572.3,-6.9,-5.7,-8635.2,1319.4,-0.6,557.4,-8360.4,805.5,0,1452,36150473441280,10,0, 
0.8100,489.9,-291.6,3.3,19.8,-9819.9,-366.9,659.7,-9830.1,-109519.8,486.6,-9830.1,-8169.9,-778.5,-9715.5,-9830.1,-9830.1,-7.2,-5.7,-9604.5,-9830.1,-0.6,556.5,-9830.1,782.7,0,1458,36150473441280,11,0, 
0.8133,429.9,-269.7,-31.8,-52.8,-5756.1,-178.8,588.6,-6802.8,-80546.7,351.9,-5955.0,-3176.7,-424.8,-9827.4,-9830.1,-6924.3,-6.6,-5.7,-9830.1,-3826.8,-0.9,426.3,-6287.4,818.1,0,1464,36150473441280,12,0, 
0.8167,416.7,-258.6,-34.2,-74.1,8109.3,11.1,556.8,8310.3,-592.8,292.2,1401.9,6348.6,22.5,4005.9,-9830.1,8194.2,-6.9,-6.3,584.1,8931.3,-0.9,354.9,5235.0,864.6,0,1470,0,13,0, 
0.8200,462.9,-259.5,-9.6,-26.1,7940.1,-60.6,596.4,9830.1,18969.6,364.2,2461.5,8071.2,-74.4,9827.1,-9830.1,9830.1,-6.9,-5.7,4212.0,9830.1,-0.9,438.0,2444.4,862.5,0,1476,536870912,14,0, 
0.8233,514.5,-269.4,26.7,39.3,-5911.8,-288.9,667.5,-1493.7,-48387.3,501.0,-4896.9,-1309.5,-564.6,-7524.9,-9830.1,-1689.3,-6.6,-6.3,-8580.9,846.0,-0.6,568.5,-8417.4,812.1,0,1482,276488536064,15,0, 
0.8267,495.9,-288.6,14.1,22.2,-9819.9,-357.9,662.4,-9830.1,-110927.7,488.7,-9830.1,-8541.3,-785.1,-9661.8,-9830.1,-9830.1,-6.9,-6.3,-9612.6,-9830.1,-0.9,561.9,-9830.1,786.3,0,1488,276488536064,16,0, 
0.8300,450.6,-256.5,-11.1,-35.1,-6021.0,-171.9,596.7,-7143.0,-82325.1,375.0,-6035.7,-3384.9,-428.1,-9827.4,-9830.1,-7210.2,-6.9,-6.3,-9830.1,-4587.6,-0.3,442.2,-6464.1,831.3,0,1494,36012766052352,17,0, 
0.8333,425.7,-241.2,-22.2,-68.4,7867.8,8.4,548.7,8018.1,-2964.0,297.6,1399.2,6016.2,-2.7,3474.9,-9830.1,7923.6,-6.9,-6.3,694.5,8649.3,-1.2,362.4,4998.6,873.3,0,1500,36150205005824,18,0, 
0.8367,475.2,-243.0,4.5,-18.3,7712.1,-57.6,592.8,9830.1,16005.6,383.7,2519.4,7775.1,-70.5,9471.6,-9830.1,9830.1,-7.2,-6.0,4363.5,9830.1,-0.6,452.1,2234.1,865.5,0,1506,36150205005824,19,0, 
0.8400,516.6,-278.1,26.7,35.7,-6202.2,-289.2,657.0,-2134.5,-51425.4,501.0,-4864.8,-1602.6,-570.6,-8081.7,-9830.1,-2339.4,-6.9,-6.0,-8520.0,159.3,-0.9,571.8,-8513.7,806.4,0,1512,36150205005824,20,0, 
0.8433,508.5,-272.4,26.1,38.7,-9819.9,-354.3,659.4,-9830.1,-113743.5,512.1,-9830.1,-8753.4,-775.5,-9500.1,-9830.1,-9830.1,-6.9,-5.7,-9631.5,-9830.1,-0.6,583.5,-9830.1,795.9,0,1518,36150205005824,21,0, 
0.8467,451.8,-252.0,4.5,-23.7,-6235.8,-163.8,596.4,-7458.3,-85289.1,388.8,-6031.8,-3692.7,-404.1,-9827.4,-9830.1,-7491.3,-6.6,-6.0,-9830.1,-4932.6,-1.2,459.0,-6568.5,840.6,0,1524,36150205005824,22,0, 
0.8500,430.8,-231.0,2.1,-56.4,7779.3,25.2,559.2,7824.9,-5631.6,312.6,1399.2,5842.8,19.2,2876.7,-9830.1,7742.1,-6.9,-6.0,746.1,8530.5,-0.9,379.8,4953.9,880.8,0,1530,36150205005824,23,0, 
0.8533,471.0,-243.9,17.7,-15.0,7629.3,-48.3,601.2,9830.1,13930.8,387.0,2544.9,7513.5,-71.7,9165.6,-9830.1,9830.1,-6.3,-6.0,4452.6,9830.1,-0.9,453.3,2265.6,861.9,0,1536,36150205005824,24,0, 
0.8567,508.5,-274.5,36.3,34.8,-6260.1,-283.5,664.5,-2358.6,-53574.3,503.4,-4755.6,-1884.6,-571.5,-8376.0,-9830.1,-2605.2,-7.2,-6.0,-8444.4,-126.0,-0.9,568.8,-8503.8,792.3,0,1542,36150205005824,25,0, 
0.8600,492.3,-292.2,29.4,25.8,-9819.9,-356.7,661.8,-9830.1,-116188.8,495.9,-9830.1,-9201.6,-788.1,-9395.4,-9830.1,-9830.1,-6.9,-6.3,-9661.2,-9830.1,-0.3,563.7,-9830.1,778.2,0,1548,36150205005824,26,0, 
0.8633,432.0,-270.0,0.3,-41.7,-6458.1,-186.9,594.0,-7789.8,-88549.5,371.1,-6141.6,-3935.7,-429.3,-9827.4,-9830.1,-7872.9,-6.6,-6.0,-9830.1,-5444.4,-0.9,435.3,-6724.8,819.6,0,1554,36150205005824,27,0, 
0.8667,416.1,-246.0,-15.0,-72.0,7504.8,-2.4,554.7,7486.8,-9410.7,294.0,1434.6,5491.8,-9.6,2241.9,-9830.1,7362.6,-6.6,-6.0,754.2,8130.6,-0.6,354.9,4710.0,867.0,0,1560,36150205005824,28,0, 
0.8700,460.5,-251.1,-0.9,-27.3,7356.6,-80.7,597.9,9830.1,9855.3,364.2,2632.5,7289.7,-93.3,8450.4,-9830.1,9830.1,-7.2,-6.0,4629.9,9830.1,-1.2,432.0,1997.4,852.0,0,1566,36150205005824,29,0, 
0.8733,501.6,-287.7,9.6,25.2,-6594.9,-315.0,663.3,-3092.1,-58094.4,487.8,-4544.1,-2143.5,-587.1,-8877.9,-9830.1,-3290.7,-7.2,-5.7,-8321.1,-971.1,-0.9,549.3,-8637.9,793.2,0,1572,36150205005824,30,0, 
0.8767,491.7,-293.4,-3.3,18.6,-9819.9,-378.3,662.7,-9830.1,-121375.8,491.1,-9830.1,-9571.8,-812.4,-9259.5,-9830.1,-9830.1,-6.9,-6.0,-9690.0,-9830.1,-0.3,554.1,-9830.1,775.8,0,1578,36150205005824,31,0, 
0.8800,439.2,-266.4,-23.4,-46.5,-6796.2,-189.3,594.0,-8300.7,-94107.0,371.4,-6123.6,-4461.9,-449.1,-9827.4,-9830.1,-8342.1,-6.9,-5.7,-9830.1,-6301.2,-0.9,431.4,-6927.0,816.3,0,1584,36150205005824,32,0, 
0.8833,419.4,-238.2,-34.5,-72.0,7099.5,-9.0,552.9,6988.2,-15264.6,299.7,1463.4,5082.9,-28.8,1228.2,-9830.1,6900.3,-6.6,-6.0,1060.2,7640.1,-0.6,358.5,4461.9,862.5,0,1590,36150205005824,33,0, 
0.8867,468.0,-249.9,-15.0,-27.3,6882.9,-86.4,591.3,9830.1,3630.9,369.0,2656.8,6841.2,-118.5,7371.0,-9830.1,9830.1,-7.2,-6.0,4734.9,9830.1,-1.2,430.2,1706.7,847.8,0,1596,36150205005824,34,0, 
0.8900,509.1,-279.3,15.9,39.3,-6859.2,-302.7,659.1,-3875.7,-64392.9,504.0,-4542.3,-2550.6,-600.3,-9288.6,-9830.1,-4117.2,-6.6,-6.0,-8241.3,-2178.9,-0.6,567.6,-8737.5,798.3,0,1602,36150205005824,35,0, 
0.8933,490.8,-286.2,9.6,30.9,-9819.9,-379.2,657.6,-9830.1,-128044.8,502.8,-9830.1,-9817.8,-831.9,-9171.0,-9830.1,-9830.1,-6.6,-5.7,-9729.3,-9830.1,-1.2,562.5,-9830.1,774.3,0,1608,36150205005824,36,0, 
0.8967,439.8,-259.8,-11.7,-25.5,-6996.6,-192.9,599.1,-8704.2,-100850.1,384.0,-6150.6,-5076.0,-463.5,-9827.4,-9830.1,-8769.9,-6.6,-6.0,-9810.6,-7026.6,-0.3,441.9,-7065.3,819.0,0,1614,36150205005824,37,0, 
0.9000,423.3,-231.9,-14.7,-53.7,6735.3,-4.8,557.7,6538.2,-21859.5,309.6,1441.2,4710.3,-25.8,86.1,-9830.1,6410.7,-6.9,-6.0,1404.9,6997.2,-1.2,369.0,4228.5,872.7,0,1620,36150205005824,38,0, 
0.9033,474.0,-231.6,8.4,-5.4,6579.3,-69.6,603.3,9830.1,-2593.5,394.8,2550.6,6393.0,-100.8,5987.7,-9830.1,9830.1,-6.9,-6.0,5240.7,9830.1,-0.6,454.8,1554.0,871.8,0,1626,36150205005824,39,0, 
0.9067,522.0,-253.2,25.2,49.5,-7011.9,-301.5,665.7,-4459.5,-70691.4,520.2,-4595.7,-2867.4,-587.7,-9645.3,-9830.1,-4668.9,-6.9,-5.7,-8004.6,-3016.8,-1.5,577.8,-8791.5,816.9,0,1632,36150205005824,40,0, 
0.9100,498.3,-273.0,16.8,38.4,-9819.9,-378.9,663.9,-9830.1,-134269.2,516.6,-9830.1,-9817.8,-816.0,-9110.1,-9830.1,-9830.1,-6.9,-5.7,-9787.5,-9830.1,-0.9,573.6,-9830.1,790.2,0,1638,36150205005824,41,0, 
0.9133,452.4,-246.6,-2.7,-21.9,-7162.5,-189.3,600.0,-8955.0,-106852.2,392.1,-6201.9,-5268.9,-453.6,-9827.4,-9830.1,-9032.4,-6.9,-6.0,-9675.0,-7530.9,-0.6,448.5,-7144.5,830.7,0,1644,36150205005824,42,0, 
0.9167,435.0,-225.9,-9.6,-50.7,6544.2,-3.9,558.0,6296.7,-27639.3,310.5,1486.8,4427.7,-18.3,-537.6,-9830.1,6099.6,-6.9,-6.0,1948.5,6477.3,-0.6,370.5,4180.5,885.9,0,1650,36150205005824,43,0, 
0.9200,478.5,-233.4,18.6,-9.6,6495.3,-84.9,594.6,9830.1,-8076.9,384.3,2684.1,6240.3,-102.9,5402.1,-9830.1,9830.1,-6.9,-6.0,5850.3,9830.1,-0.6,444.9,1536.6,874.5,0,1656,36150205005824,44,0, 
0.9233,522.6,-268.5,43.8,46.5,-7056.3,-319.2,660.0,-4582.5,-75730.2,502.8,-4504.5,-3027.0,-597.0,-9760.5,-9830.1,-4923.0,-6.9,-6.0,-7665.0,-3555.3,-0.6,564.0,-8815.5,816.0,0,1662,36150205005824,45,0, 
0.9267,509.1,-274.2,36.0,39.0,-9819.9,-393.0,662.7,-9830.1,-139233.9,497.7,-9830.1,-9817.8,-830.1,-9090.9,-9830.1,-9830.1,-6.9,-6.0,-9830.1,-9830.1,-0.3,562.8,-9830.1,793.5,0,1668,36150205005824,46,0, 
0.9300,457.5,-247.8,8.4,-20.4,-7215.6,-199.2,595.5,-9034.2,-111965.1,369.0,-6083.4,-5576.1,-471.3,-9827.4,-9830.1,-9140.4,-6.6,-5.7,-9488.1,-7744.2,-0.6,437.1,-7191.9,833.1,0,1674,36150205005824,47,0, 
0.9333,437.7,-231.3,0.0,-55.2,6539.1,-7.8,560.1,6180.0,-32381.7,293.7,1709.4,4248.6,-29.1,-1005.3,-9830.1,5980.8,-7.2,-6.3,2393.1,6374.1,-0.9,354.3,4085.4,879.0,0,1680,36150205005824,48,0, 
0.9367,481.8,-239.4,23.4,-7.8,6519.0,-81.3,601.5,9830.1,-13634.4,372.9,3377.4,6477.6,-120.9,4879.2,-9830.1,9830.1,-6.6,-6.0,6906.6,9830.1,-0.9,432.6,1494.6,868.2,0,1686,36150205005824,49,0, 
0.9400,522.9,-272.7,28.5,39.6,-7021.5,-315.6,661.8,-4560.6,-81213.6,485.4,-3555.0,-2572.8,-607.2,-9807.3,-9830.1,-4959.3,-6.6,-6.0,-7010.7,-3216.9,-0.3,550.5,-8805.9,806.7,0,1692,36150205005824,50,0, 
0.9433,504.6,-288.6,15.0,26.4,-9819.9,-380.4,666.6,-9830.1,-144420.9,491.1,-9626.1,-9817.8,-841.8,-9090.3,-9830.1,-9830.1,-6.6,-6.0,-9830.1,-9830.1,-0.6,555.6,-9830.1,789.0,0,1698,36150205005824,51,0, 
0.9467,451.8,-264.9,-18.9,-40.5,-7145.1,-198.3,600.9,-8991.9,-116781.6,362.1,-5435.7,-5332.5,-477.0,-9827.4,-9830.1,-9107.1,-6.9,-5.7,-9282.6,-7675.5,-0.3,427.8,-7206.0,836.1,0,1704,36150205005824,52,0, 
0.9500,438.9,-234.0,-22.8,-62.4,6636.6,-6.6,564.9,6218.1,-37124.1,293.4,2250.0,4527.3,-37.5,-1283.4,-9830.1,6045.9,-7.2,-6.0,3260.7,6376.2,-0.3,358.2,4097.4,885.0,0,1710,36150205005824,53,0, 
0.9533,473.1,-251.4,-10.5,-25.2,6642.0,-85.8,598.5,9830.1,-16598.4,358.5,3413.7,6327.3,-126.0,4569.3,-9830.1,9830.1,-6.9,-6.3,7237.5,9830.1,-0.6,429.3,1527.6,866.7,0,1716,36150205005824,54,0, 
0.9567,512.1,-288.9,6.0,28.8,-6956.1,-318.3,663.3,-4358.7,-83881.2,486.6,-3760.2,-3035.7,-616.2,-9827.4,-9830.1,-4761.3,-6.9,-5.7,-6894.0,-3670.8,-0.3,557.1,-8797.8,803.1,0,1722,36150205005824,55,0, 
0.9600,496.5,-285.6,-3.9,18.3,-9819.9,-401.1,660.6,-9830.1,-147162.6,486.6,-9773.7,-9817.8,-852.3,-9066.9,-9830.1,-9830.1,-6.9,-6.0,-9830.1,-9830.1,-0.9,552.9,-9830.1,782.7,0,1728,36150205005824,56,0, 
0.9633,439.8,-274.2,-28.2,-42.3,-7139.7,-200.7,595.5,-8837.4,-119597.4,364.5,-5563.8,-5748.0,-470.7,-9827.4,-9830.1,-9000.6,-6.6,-6.0,-9115.8,-7831.8,-0.6,433.8,-7180.8,825.0,0,1734,36150205005824,57,0, 
0.9667,424.2,-241.8,-31.2,-61.5,6707.7,-10.2,556.5,6455.1,-39717.6,292.5,2343.3,4485.9,-34.2,-1314.6,-9830.1,6190.5,-6.9,-5.7,3801.9,6295.2,-0.9,359.4,4137.6,873.6,0,1740,36150205005824,58,0, 
0.9700,465.0,-250.5,-4.2,-17.4,6770.4,-83.4,591.3,9830.1,-19043.7,369.9,3575.1,6218.7,-120.9,4529.1,-9830.1,9830.1,-6.6,-6.0,7711.2,9830.1,-0.3,435.0,1540.5,857.1,0,1746,36150205005824,59,0, 
0.9733,511.2,-276.0,22.2,46.8,-6882.3,-307.2,657.6,-4088.4,-86252.4,499.5,-3558.3,-2948.1,-611.1,-9827.4,-9830.1,-4529.1,-6.9,-6.0,-6549.3,-3719.1,-0.6,566.7,-8794.5,805.2,0,1752,36150205005824,60,0, 
0.9767,499.2,-278.4,16.8,43.2,-9819.9,-375.3,660.9,-9830.1,-149385.6,509.4,-9586.2,-9817.8,-833.1,-9078.0,-9830.1,-9830.1,-6.9,-6.0,-9830.1,-9830.1,-0.6,576.9,-9830.1,783.0,0,1758,36150205005824,61,0, 
0.9800,450.9,-252.9,-6.0,-18.0,-7064.7,-172.8,600.0,-8721.3,-121894.5,392.1,-5358.6,-5530.5,-462.3,-9827.4,-9830.1,-8911.5,-6.9,-6.0,-8893.8,-7848.6,-0.6,457.2,-7172.7,839.4,0,1764,36150205005824,62,0, 
0.9833,435.3,-225.6,-15.6,-48.0,6792.9,9.6,560.4,6578.4,-42088.8,319.5,2487.9,4638.9,-21.6,-1494.0,-9830.1,6290.4,-6.9,-6.0,4292.1,6253.5,-0.9,384.6,4148.1,892.5,0,1770,36150205005824,63,0, 
0.9867,474.3,-237.3,4.5,0.0,6876.3,-57.9,600.0,9830.1,-21266.7,395.4,3711.9,6333.0,-101.1,4459.8,-9830.1,9830.1,-7.2,-6.0,8403.9,9830.1,-0.9,461.7,1608.3,876.6,0,1776,36150205005824,64,0, 
0.9900,525.0,-261.3,32.7,56.1,-6825.9,-291.0,664.2,-3869.4,-88475.4,522.0,-3443.1,-2845.5,-596.4,-9827.4,-9830.1,-4334.7,-7.2,-6.0,-6129.9,-3787.5,-0.3,590.7,-8763.9,821.7,0,1782,36150205005824,65,0, 
0.9933,508.8,-279.3,27.0,48.3,-9819.9,-369.9,665.1,-9830.1,-151682.7,518.4,-9457.8,-9817.8,-828.0,-9076.5,-9830.1,-9830.1,-6.9,-6.0,-9830.1,-9830.1,-0.9,589.2,-9830.1,801.9,0,1788,36150205005824,66,0, 
0.9967,456.3,-246.6,6.9,-9.6,-7056.6,-176.4,602.1,-8652.3,-124488.0,395.1,-5363.1,-5597.1,-468.6,-9827.4,-9830.1,-8842.5,-6.9,-5.4,-8744.4,-7993.5,-0.9,466.2,-7184.1,846.0,0,1794,36150205005824,67,0, 
1.0000,428.4,-232.8,-7.2,-43.2,6850.8,7.5,559.8,6656.4,-44608.2,315.0,2575.5,4577.7,-29.7,-1711.2,-9830.1,6366.9,-6.6,-6.0,4753.5,6133.8,-0.9,384.3,4196.4,887.4,0,1800,36150205005824,68,0, 
1.0033,473.1,-236.4,6.9,-2.4,6923.1,-72.3,599.1,9830.1,-23860.2,388.8,3865.5,6416.4,-112.8,4170.6,-9830.1,9830.1,-6.9,-6.0,8798.4,9830.1,-0.3,449.7,1617.9,870.6,0,1806,36150205005824,69,0, 
1.0067,522.3,-268.5,24.0,48.3,-6804.6,-309.9,666.3,-3708.0,-90994.8,513.0,-3315.3,-2823.3,-613.8,-9827.4,-9830.1,-4235.7,-6.9,-5.7,-5872.2,-3795.3,-0.6,575.4,-8774.4,815.1,0,1812,36150205005824,70,0, 
1.0100,504.0,-279.9,8.1,32.7,-9819.9,-394.2,663.6,-9830.1,-154646.7,507.6,-9415.2,-9817.8,-848.4,-9072.6,-9830.1,-9830.1,-6.6,-6.0,-9830.1,-9830.1,-0.6,568.8,-9830.1,787.8,0,1818,36150205005824,71,0, 
1.0133,451.5,-268.5,-27.6,-36.9,-7090.2,-203.1,598.2,-8642.1,-127452.0,375.3,-5283.0,-5640.6,-504.0,-9827.4,-9830.1,-8834.4,-6.9,-6.0,-8769.6,-8054.4,-0.9,432.9,-7238.4,827.4,0,1824,36150205005824,72,0, 
1.0167,427.5,-245.4,-37.2,-70.8,6769.8,-10.5,552.0,6632.7,-47572.2,303.9,2634.9,4541.7,-51.3,-2204.1,-9830.1,6367.2,-6.6,-6.0,4736.4,6072.9,-0.9,347.1,4123.5,863.4,0,1830,36150205005824,73,0, 
1.0200,472.5,-252.9,-17.1,-28.5,6817.2,-81.0,587.7,9830.1,-26898.3,385.5,3809.4,6287.7,-135.0,3312.3,-9830.1,9830.1,-6.9,-6.0,8778.6,9830.1,-0.6,421.5,1569.0,856.2,0,1836,36150205005824,74,0, 
1.0233,521.1,-276.0,5.4,33.0,-6860.4,-315.9,656.4,-3729.0,-94107.0,515.1,-3233.1,-2954.1,-628.2,-9827.4,-9830.1,-4231.2,-6.9,-5.7,-5875.8,-3957.9,-0.6,549.3,-8779.8,799.2,0,1842,36150205005824,75,0, 
1.0267,504.3,-287.1,-7.2,23.7,-9819.9,-403.5,657.9,-9830.1,-157907.1,507.3,-9366.3,-9817.8,-864.3,-9064.5,-9830.1,-9830.1,-6.9,-6.0,-9830.1,-9830.1,-0.9,547.5,-9830.1,775.2,0,1848,36150205005824,76,0, 
1.0300,448.2,-268.5,-36.0,-40.2,-7185.0,-208.8,597.3,-8682.0,-131082.9,375.6,-5247.6,-5761.5,-509.4,-9827.4,-9830.1,-8862.3,-6.9,-6.3,-8752.2,-8109.6,-0.9,423.6,-7285.2,819.3,0,1854,36150205005824,77,0, 
1.0333,432.9,-247.8,-49.8,-71.4,6647.1,-15.3,556.8,6557.4,-51054.9,285.9,2649.3,4504.5,-63.6,-2592.0,-9830.1,6307.8,-6.6,-6.0,4693.5,5987.7,-0.6,356.1,4045.5,868.8,0,1860,36150205005824,78,0, 
1.0367,474.6,-250.2,-21.0,-16.8,6762.3,-74.4,600.0,9830.1,-30232.8,363.0,3849.6,6309.9,-129.0,2802.6,-9830.1,9830.1,-6.9,-6.0,8701.2,9830.1,-0.9,441.6,1510.5,859.5,0,1866,36150205005824,79,0, 
1.0400,516.3,-271.8,2.1,43.5,-6951.9,-309.0,662.1,-3858.9,-97812.0,483.6,-3409.5,-2973.3,-629.1,-9827.4,-9830.1,-4371.6,-7.2,-6.3,-6055.8,-4019.1,-0.6,579.6,-8820.3,805.5,0,1872,36150205005824,80,0, 
1.0433,507.6,-271.8,-0.6,38.1,-9819.9,-386.4,668.7,-9830.1,-161760.3,492.0,-9475.5,-9817.8,-860.7,-9069.3,-9830.1,-9830.1,-6.9,-5.7,-9830.1,-9830.1,-0.6,584.4,-9830.1,787.2,0,1878,36150205005824,81,0, 
1.0467,451.8,-254.7,-15.0,-17.7,-7248.0,-188.1,607.5,-8709.9,-134787.9,374.4,-5377.5,-5724.9,-480.3,-9827.4,-9830.1,-8934.3,-6.6,-5.7,-8815.8,-8127.6,-0.3,465.3,-7365.6,834.6,0,1884,36150205005824,82,0, 
1.0500,433.8,-227.1,-19.2,-48.6,6613.2,3.0,563.1,6551.4,-54611.7,306.3,2609.4,4569.9,-49.8,-3099.0,-9830.1,6186.6,-6.9,-6.0,4622.4,5976.0,-0.9,390.9,4013.1,882.6,0,1890,36150205005824,83,0, 
1.0533,475.2,-242.1,6.3,1.5,6750.9,-63.9,606.3,9830.1,-33567.3,380.7,3827.4,6431.1,-120.3,2242.8,-9830.1,9830.1,-6.6,-6.3,8601.0,9830.1,-1.2,467.7,1546.2,879.3,0,1896,36150205005824,84,0, 
1.0567,520.5,-270.0,31.5,67.2,-6906.9,-309.9,666.9,-3706.5,-100627.8,507.3,-3311.1,-2618.4,-620.1,-9827.4,-9830.1,-4373.7,-6.6,-5.7,-5983.8,-3867.3,-0.9,587.4,-8803.5,825.0,0,1902,36150205005824,85,0, 
1.0600,504.0,-279.0,23.4,60.3,-9819.9,-384.3,667.5,-9830.1,-164353.8,510.9,-9398.1,-9817.8,-850.8,-9061.2,-9830.1,-9830.1,-6.9,-5.7,-9830.1,-9830.1,-0.9,585.9,-9830.1,795.9,0,1908,36150205005824,86,0, 
1.0633,451.2,-250.5,-5.1,-7.5,-7172.7,-202.5,602.1,-8637.9,-137159.1,384.6,-5370.0,-5541.3,-495.0,-9827.4,-9830.1,-8897.1,-6.9,-5.7,-8812.5,-8046.3,-0.3,459.3,-7322.1,843.9,0,1914,36150205005824,87,0, 
1.0667,432.9,-232.8,-11.4,-42.3,6725.7,-19.5,561.0,6617.7,-56834.7,310.8,2573.7,4824.3,-38.7,-3297.0,-9830.1,6271.8,-6.6,-6.3,4540.2,6079.8,-0.6,374.4,4068.6,883.5,0,1920,36150205005824,88,0, 
1.0700,480.3,-230.7,11.4,10.2,6959.1,-85.8,608.1,9830.1,-35419.8,388.2,3863.4,6712.8,-126.0,2025.0,-9830.1,9830.1,-7.2,-5.7,8640.6,9830.1,-0.6,455.1,1627.2,866.7,0,1926,36150205005824,89,0, 
1.0733,517.8,-268.8,19.8,55.2,-6760.2,-332.7,666.9,-3470.7,-102406.2,506.1,-3360.0,-2561.4,-631.8,-9827.4,-9830.1,-4027.5,-6.9,-6.0,-6047.4,-3629.4,-0.9,571.5,-8785.5,810.3,0,1932,36150205005824,90,0, 
1.0767,497.4,-286.5,6.0,41.7,-9819.9,-409.5,662.4,-9830.1,-165687.6,503.7,-9440.7,-9817.8,-866.4,-9063.3,-9830.1,-9830.1,-6.9,-5.7,-9830.1,-9830.1,-0.6,573.3,-9830.1,781.8,0,1938,36150205005824,91,0, 
1.0800,450.0,-258.9,-14.1,-14.1,-7078.8,-220.5,603.0,-8484.9,-138492.9,384.0,-5307.3,-5385.6,-504.6,-9827.4,-9830.1,-8721.3,-6.9,-6.0,-8836.2,-7934.1,-0.6,451.8,-7258.8,838.2,0,1944,36150205005824,92,0, 
1.0833,435.3,-234.0,-21.3,-38.7,6924.6,-30.9,562.8,6813.6,-58020.3,303.9,2737.2,4956.0,-61.2,-3384.6,-9830.1,6491.1,-7.2,-5.7,4562.4,6242.7,-0.9,367.8,4120.5,881.4,0,1950,36150205005824,93,0, 
1.0867,479.7,-236.1,4.2,5.1,7164.3,-96.3,600.0,9830.1,-36160.8,382.2,4119.6,6808.5,-131.7,2094.3,-9830.1,9830.1,-6.6,-6.0,8818.5,9830.1,-0.6,442.2,1707.3,874.8,0,1956,36150205005824,94,0, 
1.0900,528.9,-256.5,28.2,71.1,-6639.0,-322.5,669.9,-3079.5,-102924.9,497.7,-3063.3,-2441.7,-623.7,-9827.4,-9830.1,-3707.7,-7.2,-5.7,-5808.6,-3298.5,-0.6,568.5,-8734.5,817.5,0,1962,36150205005824,95,0, 
1.0933,508.2,-279.0,10.2,55.2,-9819.9,-403.2,667.2,-9830.1,-166576.8,501.0,-9183.0,-9817.8,-856.5,-9058.8,-9830.1,-9830.1,-6.6,-6.0,-9830.1,-9830.1,-0.3,565.2,-9830.1,788.1,0,1968,36150205005824,96,0, 
1.0967,456.9,-253.2,-12.6,-11.7,-7031.1,-217.5,603.6,-8293.2,-139382.1,375.3,-5109.9,-5273.1,-501.0,-9827.4,-9830.1,-8560.5,-6.0,-6.0,-8775.9,-7697.4,-0.6,437.4,-7259.1,828.9,0,1974,36150205005824,97,0, 
1.1000,438.3,-229.5,-20.7,-46.5,7018.5,-21.0,558.3,7005.9,-58539.0,296.7,2815.5,5020.8,-57.0,-3237.6,-9830.1,6684.3,-6.6,-6.0,4663.8,6480.0,-0.9,356.7,4174.8,878.7,0,1980,36150205005824,98,0, 
1.1033,481.2,-240.3,1.2,-2.7,7340.1,-86.4,594.6,9830.1,-36605.4,374.1,4263.6,7025.7,-132.0,2263.8,-9830.1,9830.1,-6.9,-5.7,9065.7,9830.1,-0.9,435.6,1767.6,868.8,0,1986,36150205005824,99,0, 
1.1067,528.9,-266.4,20.4,53.4,-6554.7,-325.2,663.6,-2723.7,-103295.4,498.9,-2954.1,-2073.3,-621.0,-9827.4,-9830.1,-3360.9,-6.9,-5.7,-5747.7,-2906.7,-0.9,567.6,-8709.0,818.1,0,1992,36150205005824,100,0, 
1.1100,510.3,-276.6,1.5,35.7,-9819.9,-402.3,660.9,-9830.1,-166650.9,499.2,-9061.2,-9817.8,-853.2,-9067.8,-9830.1,-9830.1,-6.6,-6.3,-9830.1,-9830.1,-0.6,564.3,-9830.1,788.4,0,1998,36150205005824,101,0, 
1.1133,461.1,-257.1,-25.5,-21.3,-6934.8,-211.2,600.3,-8110.2,-139456.2,383.4,-4899.6,-5127.6,-487.5,-9827.4,-9830.1,-8424.3,-6.9,-6.3,-8677.8,-7482.3,-0.6,444.0,-7192.8,829.5,0,2004,36150205005824,102,0, 
1.1167,435.3,-231.3,-35.1,-54.9,7109.1,-21.9,555.0,7183.2,-58909.5,304.2,3011.4,5212.8,-38.4,-3218.1,-9830.1,6813.6,-6.6,-5.7,4936.5,6787.5,-0.9,368.7,4289.7,879.9,0,2010,36150205005824,103,0, 
1.1200,482.1,-243.0,-17.4,-16.5,7482.9,-96.9,592.5,9830.1,-36679.5,381.3,4402.5,7106.4,-128.7,2397.9,-9830.1,9830.1,-7.2,-6.0,9353.7,9830.1,-0.9,440.4,1932.9,862.2,0,2016,36150205005824,104,0, 
1.1233,533.4,-251.1,8.4,44.4,-6411.6,-333.0,661.2,-2425.8,-102999.0,506.4,-2850.0,-2110.8,-621.3,-9827.4,-9830.1,-3114.6,-7.2,-5.7,-5372.7,-2446.5,-0.6,570.6,-8632.5,810.3,0,2022,36150205005824,105,0, 
1.1267,505.5,-289.5,-1.2,34.8,-9819.9,-413.4,661.5,-9830.1,-166576.8,511.2,-8866.8,-9817.8,-849.3,-9059.7,-9830.1,-9830.1,-6.9,-6.3,-9830.1,-9830.1,-0.9,573.6,-9830.1,789.9,0,2028,36150205005824,106,0, 
1.1300,456.0,-249.3,-23.1,-25.8,-6780.3,-209.7,600.3,-7923.6,-139530.3,390.3,-4805.1,-5032.2,-492.0,-9827.4,-9830.1,-8269.8,-6.9,-5.7,-8381.1,-7291.8,-0.3,453.0,-7143.6,840.9,0,2034,36150205005824,107,0, 
1.1333,445.2,-221.7,-18.9,-41.7,7318.5,-1.5,570.3,7377.9,-58464.9,324.0,3190.8,5333.7,-24.0,-3157.2,-9830.1,6966.0,-6.6,-6.0,5427.0,6927.3,-0.6,384.3,4359.6,905.7,0,2040,36150205005824,108,0, 
1.1367,494.4,-204.0,8.1,11.1,7733.7,-61.5,615.9,9830.1,-36012.6,408.3,4575.6,7285.8,-103.8,2451.0,-9830.1,9830.1,-7.2,-6.0,9636.0,9830.1,-1.2,465.6,2054.1,904.2,0,2046,36150205005824,109,0, 
1.1400,540.0,-236.1,33.9,75.3,-6217.2,-288.9,685.5,-2088.9,-102258.0,535.2,-2622.0,-1899.3,-588.9,-9827.4,-9830.1,-2768.1,-6.6,-6.0,-4858.2,-2293.5,-0.9,596.1,-8591.1,848.7,0,2052,36150205005824,110,0, 
1.1433,516.9,-255.0,20.7,59.1,-9819.9,-383.4,677.7,-9830.1,-165761.7,526.2,-8667.3,-9817.8,-828.6,-9053.4,-9830.1,-9830.1,-7.2,-6.0,-9830.1,-9830.1,-0.3,592.8,-9830.1,813.0,0,2058,36150205005824,111,0, 
1.1467,468.0,-227.7,-2.7,-6.3,-6645.0,-195.3,617.7,-7773.0,-138715.2,404.1,-4667.1,-4938.9,-473.4,-9827.4,-9830.1,-8051.1,-6.6,-6.0,-8116.8,-7237.8,-0.9,463.2,-7101.6,853.8,0,2064,36150205005824,112,0, 
1.1500,453.3,-200.1,-7.8,-32.4,7485.3,-3.0,581.1,7520.7,-57427.5,329.1,3286.8,5487.9,-12.9,-2948.1,-9830.1,7220.7,-6.9,-5.4,5810.4,6976.2,-0.9,392.7,4496.1,914.4,0,2070,36150205005824,113,0, 
1.1533,499.2,-211.2,21.9,16.5,7856.1,-70.2,623.1,9830.1,-34975.2,408.6,4729.2,7434.6,-87.9,2749.2,-9830.1,9830.1,-7.2,-6.0,9830.1,9830.1,-0.9,468.3,2196.3,902.1,0,2076,36150205005824,114,0, 
1.1567,537.6,-243.3,38.1,68.7,-6116.1,-316.8,683.7,-1770.9,-101368.8,524.7,-2513.7,-1811.4,-592.5,-9827.4,-9830.1,-2369.4,-6.9,-6.0,-4465.5,-2043.9,-0.6,586.5,-8536.5,835.2,0,2082,36218924482560,115,0, 
1.1600,519.6,-259.5,24.6,51.6,-9819.9,-396.0,681.0,-9830.1,-164946.6,522.9,-8448.9,-9767.7,-823.8,-9060.0,-9830.1,-9830.1,-6.9,-5.7,-9830.1,-9830.1,-0.6,583.2,-9830.1,810.0,0,2088,36218924482560,116,0, 
1.1633,466.2,-240.9,-4.8,-16.2,-6604.5,-204.0,620.1,-7660.2,-138048.3,398.1,-4469.7,-4797.3,-478.8,-9827.4,-9830.1,-7933.8,-7.2,-6.0,-7973.7,-7201.8,-0.9,458.1,-7061.7,851.7,0,2094,36218924482560,117,0, 
1.1667,452.4,-209.7,-12.0,-45.9,7517.4,-9.0,579.3,7603.8,-56982.9,318.0,3562.5,5475.3,-31.8,-3051.6,-9830.1,7305.9,-6.6,-6.0,5988.9,6933.9,-0.6,378.6,4510.8,900.9,0,2100,36218924482560,118,0, 
1.1700,491.4,-220.2,-1.2,-4.2,7930.5,-79.2,616.8,9830.1,-34456.5,389.7,4908.9,7388.1,-101.1,2661.3,-9830.1,9830.1,-7.5,-6.0,9830.1,9830.1,-0.9,445.8,2201.4,882.9,0,2106,36218924482560,119,0, 
1.1733,533.4,-244.5,21.9,58.2,-6036.9,-313.8,684.3,-1605.6,-100924.2,517.2,-2287.2,-1920.3,-599.1,-9827.4,-9830.1,-2181.3,-7.2,-5.7,-4316.4,-2314.2,-0.6,575.7,-8532.0,827.7,0,2112,36218924482560,120,0, 
1.1767,516.9,-254.4,12.3,48.0,-9819.9,-396.9,684.0,-9830.1,-164946.6,521.7,-8359.2,-9817.8,-828.0,-9063.0,-9830.1,-9830.1,-6.6,-5.7,-9830.1,-9830.1,-0.3,581.1,-9830.1,804.3,0,2118,36218924482560,121,0, 
1.1800,462.3,-232.8,-18.3,-21.3,-6597.9,-205.8,619.5,-7614.3,-138048.3,399.0,-4356.0,-5045.1,-471.9,-9827.4,-9830.1,-7901.1,-6.9,-6.0,-7968.0,-7346.4,-0.6,457.5,-7096.8,844.5,0,2124,36218924482560,122,0, 
1.1833,447.0,-205.8,-19.5,-47.1,7462.2,-15.6,580.2,7632.9,-57279.3,324.9,3596.4,5260.2,-31.2,-3155.1,-9830.1,7303.2,-6.6,-6.0,5898.9,6829.2,-0.6,384.3,4483.5,896.7,0,2130,36218924482560,123,0, 
1.1867,491.7,-203.7,3.6,-0.3,7917.3,-64.5,618.0,9830.1,-34827.0,397.8,5064.0,7303.8,-101.7,2409.6,-9830.1,9830.1,-7.2,-6.0,9830.1,9830.1,-0.6,459.0,2198.7,882.3,0,2136,36218924482560,124,0, 
1.1900,530.1,-242.1,21.6,54.0,-6072.0,-314.7,679.2,-1608.0,-101146.5,525.0,-2133.9,-2103.9,-600.0,-9827.4,-9830.1,-2247.3,-6.9,-5.7,-4220.4,-2428.2,-0.9,580.2,-8550.3,821.1,0,2142,36218924482560,125,0, 
1.1933,515.7,-241.5,16.5,43.8,-9819.9,-395.7,679.5,-9830.1,-165317.1,523.5,-8145.3,-9817.8,-834.3,-9075.6,-9830.1,-9830.1,-6.9,-6.0,-9830.1,-9830.1,-0.6,581.1,-9830.1,797.1,0,2148,36218924482560,126,0, 
1.1967,459.6,-228.6,-6.0,-17.7,-6641.1,-214.2,610.2,-7642.5,-138418.8,401.4,-4202.7,-5157.3,-486.0,-9827.4,-9830.1,-7939.2,-6.9,-5.7,-7843.8,-7526.7,-0.6,453.9,-7116.6,834.6,0,2154,36218924482560,127,0, 
1.2000,451.2,-197.7,-6.0,-37.2,7474.2,-18.0,575.1,7613.1,-57575.7,327.9,3790.2,5273.7,-23.4,-3511.8,-9830.1,7266.6,-6.9,-6.0,6152.4,6607.2,-0.9,378.0,4466.4,893.7,0,2160,36218924482560,128,0, 
1.2033,483.3,-221.1,3.9,-0.9,7950.3,-86.4,606.6,9830.1,-34901.1,402.9,5296.2,7354.5,-101.1,2017.5,-9830.1,9830.1,-6.9,-6.0,9830.1,9830.1,-0.6,455.4,2194.8,874.5,0,2166,36218924482560,129,0, 
1.2067,535.2,-234.3,24.9,58.8,-6031.8,-317.7,671.4,-1508.1,-101072.4,525.6,-1889.7,-1969.8,-607.5,-9827.4,-9830.1,-2154.0,-7.2,-5.7,-3836.4,-2604.3,-1.2,579.6,-8524.5,818.1,0,2172,36218924482560,130,0, 
1.2100,512.1,-264.6,8.7,45.0,-9819.9,-401.7,671.7,-9830.1,-165243.0,529.2,-7980.3,-9817.8,-827.1,-9094.2,-9830.1,-9830.1,-6.9,-6.0,-9830.1,-9830.1,-0.6,582.0,-9830.1,791.4,0,2178,36218924482560,131,0, 
1.2133,460.2,-227.1,-8.1,-11.1,-6622.8,-206.4,609.3,-7571.4,-138418.8,408.0,-3924.0,-5031.3,-465.3,-9827.4,-9830.1,-7879.5,-6.3,-5.7,-7551.9,-7615.5,-0.9,464.4,-7086.3,844.2,0,2184,36218924482560,132,0, 
1.2167,443.4,-199.5,-12.9,-42.9,7494.3,-16.5,569.7,7684.2,-57205.2,336.9,4002.3,5366.7,-11.7,-3659.1,-9830.1,7347.9,-6.9,-5.7,6456.6,6546.3,-0.9,384.6,4523.4,896.7,0,2190,36218924482560,133,0, 
1.2200,487.2,-198.3,9.9,8.1,8048.7,-77.7,609.6,9830.1,-34234.2,410.4,5453.1,7469.1,-78.6,2105.7,-9830.1,9830.1,-7.2,-5.7,9830.1,9830.1,-0.9,462.3,2319.9,885.3,0,2196,36218924482560,134,0, 
1.2233,535.8,-225.0,34.2,69.6,-5920.5,-311.4,678.0,-1341.6,-100035.0,536.4,-1699.5,-1840.8,-567.9,-9827.4,-9830.1,-1945.8,-7.2,-6.3,-3186.0,-2765.4,-0.3,590.1,-8474.7,835.5,0,2202,36218924482560,135,0, 
1.2267,518.7,-239.7,18.0,60.3,-9819.9,-388.2,676.2,-9830.1,-164131.5,535.8,-7731.9,-9817.8,-811.8,-9074.1,-9830.1,-9830.1,-6.6,-5.7,-9830.1,-9830.1,-0.6,591.3,-9830.1,808.8,0,2208,36218924482560,136,0, 
1.2300,460.5,-227.7,-10.5,-5.4,-6459.6,-199.8,612.0,-7479.3,-137233.2,402.6,-3753.3,-4986.6,-469.2,-9827.4,-9830.1,-7740.6,-6.6,-6.0,-7143.6,-7765.2,-0.9,459.3,-6996.0,849.3,0,2214,36218924482560,137,0, 
1.2333,442.8,-195.9,-11.7,-27.0,7632.3,4.2,571.2,7789.8,-56019.6,326.7,4375.5,5388.9,-13.2,-3373.8,-9830.1,7495.8,-6.6,-6.0,6968.7,6404.4,-0.9,378.3,4700.4,909.0,0,2220,36218924482560,138,0, 
1.2367,485.4,-208.2,3.0,11.7,8226.6,-57.3,612.9,9830.1,-32455.8,397.8,5899.5,7545.6,-86.1,2617.8,-9830.1,9830.1,-6.9,-5.7,9830.1,9830.1,-0.6,447.6,2551.2,893.4,0,2226,36218924482560,139,0, 
1.2400,529.8,-231.9,28.5,64.8,-5591.4,-302.1,676.5,-823.8,-97812.0,518.7,-1223.1,-1657.2,-588.9,-9827.4,-9830.1,-1417.8,-7.2,-6.0,-1959.3,-2811.6,-0.6,570.0,-8348.4,827.1,0,2232,36218924482560,140,0, 
1.2433,516.3,-243.6,20.1,54.3,-9819.9,-380.7,678.0,-9830.1,-160797.0,519.9,-7112.4,-9673.8,-819.0,-9058.5,-9830.1,-9830.1,-6.9,-5.7,-9830.1,-9830.1,-0.9,572.1,-9830.1,801.9,0,2238,36218924482560,141,0, 
1.2467,461.4,-216.3,-6.6,-13.8,-6038.1,-188.1,612.6,-6949.8,-133157.7,392.1,-2839.5,-4681.2,-465.9,-9827.4,-9830.1,-7264.8,-6.9,-5.7,-5607.3,-7748.7,-0.6,443.7,-6756.9,839.7,0,2244,36218924482560,142,0, 
1.2500,437.7,-207.3,-20.1,-56.4,7977.6,-5.1,564.0,8366.4,-50313.9,311.1,5238.0,5588.7,-14.4,-2327.7,-9830.1,8023.8,-6.9,-5.7,8414.7,6310.8,-0.9,355.8,5103.6,877.8,0,2250,36218924482560,143,0, 
1.2533,488.4,-204.3,2.1,-7.5,8671.8,-63.0,600.6,9830.1,-25712.7,388.2,6925.2,7809.9,-78.0,4508.1,-9830.1,9830.1,-6.6,-6.0,9830.1,9830.1,-0.6,434.7,3053.7,873.0,0,2256,36218924482560,144,0, 
1.2567,532.5,-241.5,21.9,52.8,-4938.0,-303.6,665.7,502.8,-90253.8,511.8,-203.7,-1564.8,-568.2,-9827.4,-9830.1,-238.5,-7.2,-5.7,1137.3,-2861.1,-0.9,561.9,-8110.8,819.9,0,2262,36218924482560,145,0, 
1.2600,517.5,-251.1,11.7,49.5,-9819.9,-379.5,666.0,-9830.1,-153238.8,512.7,-6021.6,-9362.7,-801.0,-9055.8,-9830.1,-9830.1,-7.2,-6.0,-9830.1,-9830.1,-0.6,567.6,-9830.1,796.2,0,2268,36218924482560,146,0, 
1.2633,462.3,-230.1,-15.3,-16.2,-5579.1,-196.8,605.4,-6286.5,-125895.9,388.8,-2142.3,-4363.8,-450.9,-9827.4,-9830.1,-6702.6,-6.9,-6.0,-3757.8,-7739.4,-0.9,438.9,-6549.3,840.6,0,2274,36218924482560,147,0, 
1.2667,438.0,-218.4,-26.1,-49.5,8254.8,-8.4,558.3,8763.6,-42978.0,308.1,5433.9,5518.8,-6.0,-1112.4,-9830.1,8429.7,-6.9,-6.0,8929.2,6361.5,-0.9,356.4,5377.5,884.1,0,2280,36218924482560,148,0, 
1.2700,485.4,-221.7,1.5,-2.1,8825.4,-71.1,599.1,9830.1,-18302.7,383.7,6819.6,7564.2,-66.9,5826.0,-9830.1,9830.1,-7.2,-6.3,9830.1,9830.1,-0.9,436.2,3176.1,881.7,0,2286,36218924482560,149,0, 
1.2733,528.9,-249.3,27.0,55.2,-4684.8,-303.6,664.5,1152.9,-83584.8,515.1,-392.1,-1563.6,-559.8,-9566.7,-9830.1,470.4,-6.9,-5.7,1223.4,-2579.7,-0.6,564.9,-8049.0,827.7,0,2292,36218924482560,150,0, 
1.2767,513.9,-255.3,6.9,44.4,-9819.9,-387.0,664.2,-9830.1,-147236.7,515.7,-6224.1,-9289.2,-794.7,-9108.0,-9830.1,-9830.1,-7.2,-5.7,-9830.1,-9830.1,-0.6,569.1,-9830.1,808.5,0,2298,36218924482560,151,0, 
1.2800,458.1,-234.3,-12.3,-15.9,-5448.0,-194.7,602.1,-6039.9,-119893.8,395.7,-2484.0,-4464.9,-451.8,-9827.4,-9830.1,-6338.1,-6.6,-6.3,-4092.6,-7580.4,-0.3,455.1,-6454.8,858.3,0,2304,36218924482560,152,0, 
1.2833,440.7,-209.7,-17.1,-45.9,8297.7,-4.8,561.0,8893.5,-38013.3,320.1,5431.8,5829.0,0.6,-790.8,-9830.1,8633.4,-6.9,-5.7,8800.5,6658.2,-0.6,374.4,5474.4,909.9,0,2310,36218924482560,153,0, 
1.2867,493.5,-205.5,10.8,5.4,8889.0,-54.3,612.0,9830.1,-13930.8,403.8,7018.8,8211.9,-61.2,6268.5,-9830.1,9830.1,-6.6,-6.3,9830.1,9830.1,-0.9,460.5,3338.1,906.6,0,2316,36218924482560,154,0, 
1.2900,547.2,-222.3,38.1,68.7,-4602.6,-286.8,679.5,1330.8,-79287.0,526.5,-355.5,-1184.1,-567.9,-9459.6,-9830.1,669.3,-6.9,-6.0,1071.6,-2046.9,-0.9,583.5,-7985.1,850.2,0,2322,36218924482560,155,0, 
1.2933,521.4,-255.3,27.3,56.7,-9819.9,-375.3,682.8,-9830.1,-143161.2,526.2,-6430.2,-8987.1,-803.4,-9127.8,-9830.1,-9830.1,-6.9,-6.0,-9830.1,-9830.1,-0.6,582.3,-9830.1,825.6,0,2328,36218924482560,156,0, 
1.2967,468.0,-226.8,3.9,-2.1,-5418.6,-186.9,620.4,-6019.8,-116337.0,396.6,-2534.7,-4183.5,-458.7,-9827.4,-9830.1,-6352.8,-6.9,-6.3,-4469.7,-7284.0,-0.9,453.0,-6453.3,870.0,0,2334,36218924482560,157,0, 
1.3000,450.3,-204.3,0.3,-32.1,8290.5,7.8,581.7,8892.6,-34678.8,318.0,5382.3,6087.6,-6.6,-637.2,-9830.1,8626.2,-6.6,-5.4,8618.4,6880.5,-0.6,378.3,5457.9,921.9,0,2340,36218924482560,158,0, 
1.3033,496.8,-212.1,23.7,12.9,8890.5,-55.8,620.1,9830.1,-10522.2,390.9,6947.4,8270.7,-64.2,6426.9,-9830.1,9830.1,-6.6,-6.0,9830.1,9830.1,-0.6,453.0,3318.0,909.6,0,2346,36218924482560,159,0, 
1.3067,530.4,-244.8,37.8,66.0,-4585.2,-299.1,678.0,1318.2,-76174.8,507.9,-438.9,-959.7,-572.1,-9418.8,-9830.1,702.6,-7.2,-6.0,562.5,-1790.7,-0.9,571.5,-8008.8,841.5,0,2352,36218924482560,160,0, 
1.3100,520.2,-244.2,30.9,62.7,-9819.9,-369.0,684.9,-9830.1,-140197.2,511.8,-6462.9,-8866.2,-810.0,-9142.5,-9830.1,-9830.1,-7.2,-6.0,-9830.1,-9830.1,-0.6,576.3,-9830.1,819.0,0,2358,36218924482560,161,0, 
1.3133,460.5,-232.2,-5.1,-8.4,-5461.2,-194.7,614.1,-6095.4,-113595.3,382.2,-2750.4,-4077.3,-468.0,-9827.4,-9830.1,-6398.7,-6.9,-6.0,-5002.8,-7191.9,-0.6,449.7,-6494.4,849.6,0,2364,36218924482560,162,0, 
1.3167,441.9,-210.6,-15.9,-41.1,8271.9,7.5,573.6,8847.9,-31937.1,304.8,5049.9,6046.5,-12.3,-657.0,-9830.1,8572.5,-6.6,-5.7,8321.7,6987.3,-0.6,371.7,5452.5,903.3,0,2370,36218924482560,163,0, 
1.3200,484.2,-209.1,5.4,9.3,8864.4,-46.8,612.3,9830.1,-8002.8,383.7,6710.4,8382.0,-84.9,6528.6,-9830.1,9830.1,-6.6,-5.7,9830.1,9830.1,-0.9,451.5,3362.7,885.3,0,2376,36218924482560,164,0, 
1.3233,534.9,-245.1,30.3,68.1,-4619.4,-293.7,680.4,1208.4,-73136.7,510.6,-671.1,-1093.5,-572.4,-9433.8,-9830.1,510.0,-6.9,-6.0,-139.5,-1594.2,-0.9,582.3,-7988.1,842.1,0,2382,36218924482560,165,0, 
1.3267,516.3,-261.6,21.6,53.1,-9819.9,-369.3,683.1,-9830.1,-137603.7,515.1,-6537.0,-8993.1,-808.8,-9132.3,-9830.1,-9830.1,-7.2,-6.0,-9830.1,-9830.1,-0.6,586.2,-9830.1,819.9,0,2388,36218924482560,166,0, 
1.3300,463.8,-233.7,-7.8,-5.1,-5459.4,-180.9,615.0,-6165.6,-110705.4,386.7,-2699.4,-4165.5,-464.1,-9827.4,-9830.1,-6450.0,-6.9,-5.7,-5339.1,-7056.6,-1.2,459.6,-6434.4,859.8,0,2394,36218924482560,167,0, 
1.3333,442.2,-213.3,-17.1,-32.7,8280.0,17.1,573.3,8832.0,-28973.1,311.7,5210.4,6011.4,-4.8,-449.1,-9830.1,8583.3,-6.9,-6.0,8211.0,7125.9,-0.9,383.7,5501.1,909.0,0,2400,36218924482560,168,0, 
1.3367,483.9,-218.4,3.0,13.2,8951.7,-48.6,609.9,9830.1,-4594.2,387.9,6736.2,8314.5,-63.6,6991.2,-9830.1,9830.1,-7.2,-5.4,9830.1,9830.1,-0.9,458.7,3447.3,895.8,0,2406,36218924482560,169,0, 
1.3400,525.0,-249.3,21.6,65.7,-4433.4,-293.7,669.9,1362.0,-69579.9,510.0,-551.7,-903.6,-570.0,-9223.8,-9830.1,764.7,-6.9,-5.7,9.6,-1258.8,-0.6,580.5,-7874.7,833.7,0,2412,36218924482560,170,0, 
1.3433,519.3,-258.6,18.3,56.7,-9819.9,-369.6,677.7,-9830.1,-133602.3,520.2,-6470.4,-8762.1,-800.4,-9167.7,-9830.1,-9830.1,-6.6,-6.0,-9830.1,-9830.1,-0.9,590.4,-9830.1,813.6,0,2418,36218924482560,171,0, 
1.3467,464.4,-233.4,-12.3,-12.0,-5340.0,-192.0,610.8,-6036.0,-107074.5,396.0,-2682.3,-4089.9,-444.3,-9827.4,-9830.1,-6335.4,-6.6,-5.7,-5299.5,-6982.5,-1.2,465.6,-6304.5,865.5,0,2424,36218924482560,172,0, 
1.3500,448.2,-214.8,-20.1,-40.8,8328.6,6.0,571.8,8919.0,-24971.7,318.0,5157.0,6033.3,18.3,5.1,-9830.1,8664.6,-7.5,-6.0,8202.6,7158.9,-0.6,384.0,5652.6,910.2,0,2430,36218924482560,173,0, 
1.3533,494.7,-216.0,0.9,3.6,9046.8,-49.8,610.8,9830.1,-370.5,390.0,6870.6,8469.3,-41.1,7656.6,-9830.1,9830.1,-6.9,-5.7,9830.1,9830.1,-0.6,458.1,3639.9,904.2,0,2436,36218924482560,174,0, 
1.3567,536.7,-251.1,19.2,59.1,-4279.2,-285.6,673.8,1613.7,-65356.2,510.0,-471.3,-987.0,-544.5,-9090.9,-9830.1,1038.0,-6.9,-6.0,204.0,-1147.5,-0.6,580.8,-7807.2,839.1,0,2442,36218924482560,175,0, 
1.3600,521.1,-256.2,7.5,46.2,-9819.9,-360.9,678.6,-9830.1,-129304.5,509.7,-6330.6,-8770.8,-781.8,-9186.3,-9830.1,-9830.1,-6.6,-5.7,-9830.1,-9830.1,-0.9,582.3,-9830.1,820.5,0,2448,36218924482560,176,0, 
1.3633,457.8,-241.8,-28.5,-27.3,-5143.2,-181.8,608.7,-5877.6,-102554.4,375.3,-2592.0,-4074.0,-441.6,-9827.4,-9830.1,-6144.3,-7.2,-6.0,-5052.9,-6789.6,-0.3,448.8,-6234.9,854.7,0,2454,36218924482560,177,0, 
1.3667,442.2,-218.4,-36.6,-53.7,8439.9,19.2,567.3,9048.6,-20451.6,301.5,5389.8,6191.7,9.6,674.7,-9830.1,8805.6,-7.2,-6.3,8412.9,7363.5,-0.6,371.1,5809.2,912.9,0,2460,36218924482560,178,0, 
1.3700,481.2,-224.7,-12.3,-9.6,9120.3,-44.4,603.0,9830.1,4520.1,375.9,7040.7,8463.6,-46.8,8661.0,-9830.1,9830.1,-6.6,-6.0,9830.1,9830.1,-0.9,443.4,3790.2,897.6,0,2466,36218924482560,179,0, 
1.3733,534.6,-258.0,15.0,41.7,-4087.2,-281.4,671.7,1930.8,-60243.3,494.7,-341.1,-887.1,-543.3,-8741.4,-9830.1,1333.2,-6.3,-5.7,559.8,-867.6,-0.9,570.0,-7727.1,835.5,0,2472,36218924482560,180,0, 
1.3767,522.0,-260.4,12.6,32.4,-9819.9,-360.3,680.7,-9830.1,-124117.5,502.5,-6101.1,-8576.4,-773.7,-9249.6,-9830.1,-9830.1,-6.9,-5.7,-9830.1,-9830.1,-0.3,574.5,-9830.1,816.3,0,2478,36218924482560,181,0, 
1.3800,470.7,-234.0,-3.0,-19.8,-4979.4,-170.4,622.8,-5706.6,-97441.5,385.2,-2371.8,-3857.1,-415.5,-9827.4,-9830.1,-5989.2,-6.9,-5.7,-4749.3,-6755.4,-0.6,459.9,-6156.9,860.7,0,2484,36218924482560,182,0, 
1.3833,446.4,-219.9,-23.4,-61.2,8499.9,20.4,577.8,9167.4,-15264.6,300.9,5472.0,6347.7,27.3,1263.0,-9830.1,8914.8,-6.9,-6.3,8523.3,7382.4,-0.3,371.7,5878.5,903.9,0,2490,36218924482560,183,0, 
1.3867,493.5,-216.6,-3.0,-14.4,9211.8,-34.5,615.9,9830.1,9855.3,377.1,7168.8,8774.7,-24.9,9290.1,-9830.1,9830.1,-6.9,-5.7,9830.1,9830.1,-0.6,447.9,3943.8,894.6,0,2496,36218924482560,184,0, 
1.3900,532.8,-257.1,8.7,36.9,-3835.8,-271.8,675.9,2343.9,-54834.0,493.5,-128.7,-566.1,-530.4,-8384.4,-9830.1,1649.7,-6.6,-6.0,816.0,-658.2,-0.6,569.7,-7622.4,825.9,0,2502,36218924482560,185,0, 
1.3933,526.5,-255.6,6.6,37.2,-9819.9,-350.7,681.6,-9830.1,-118782.3,508.5,-5991.3,-8392.5,-768.3,-9339.3,-9830.1,-9830.1,-7.2,-6.0,-9830.1,-9830.1,-0.9,577.2,-9830.1,805.2,0,2508,36218924482560,186,0, 
1.3967,464.4,-251.4,-24.0,-26.7,-4752.6,-171.9,609.3,-5511.6,-92106.3,378.0,-2266.5,-3771.9,-407.1,-9827.4,-9830.1,-5779.2,-6.6,-6.0,-4501.2,-6612.3,-0.6,450.9,-6055.5,846.3,0,2514,36218924482560,187,0, 
1.4000,449.4,-213.0,-32.7,-55.8,8597.1,35.1,567.9,9279.3,-9633.0,306.3,5518.5,6479.1,42.3,1861.8,-9830.1,9060.6,-6.6,-6.0,8615.1,7480.8,-0.6,378.0,6045.6,904.8,0,2520,36218924482560,188,0, 
1.4033,491.1,-226.8,-12.6,-16.8,9282.3,-20.1,597.0,9830.1,15264.6,375.0,7171.2,8874.0,-11.4,9690.9,-9830.1,9830.1,-6.6,-5.7,9830.1,9830.1,-0.9,440.4,4099.5,885.6,0,2526,36218924482560,189,0, 
1.4067,534.6,-257.7,1.5,37.2,-3690.0,-255.3,662.4,2628.9,-49128.3,503.7,-164.1,-480.6,-513.3,-8033.4,-9830.1,1998.9,-6.6,-5.1,1039.2,-485.4,-0.9,570.6,-7533.3,827.7,0,2532,36218924482560,190,0, 
1.4100,525.6,-268.2,1.5,35.4,-9819.9,-335.7,670.8,-9830.1,-113076.6,508.5,-5995.2,-8174.1,-742.8,-9450.9,-9830.1,-9830.1,-6.6,-6.0,-9830.1,-9830.1,-0.6,578.7,-9830.1,807.3,0,2538,36218924482560,191,0, 
1.4133,470.7,-238.5,-21.9,-21.0,-4702.2,-147.9,604.2,-5354.4,-86548.8,385.8,-2317.5,-3601.2,-400.2,-9827.4,-9830.1,-5642.4,-6.6,-5.7,-4457.1,-6575.7,-0.9,459.6,-5946.9,854.4,0,2544,36218924482560,192,0, 
1.4167,446.1,-215.1,-27.6,-55.5,8625.0,52.5,561.0,9383.4,-4149.6,306.3,5612.1,6640.5,47.4,2310.0,-9830.1,9167.4,-6.6,-5.7,8709.0,7559.4,-0.9,375.0,6163.8,899.1,0,2550,36218924482560,193,0, 
1.4200,493.2,-223.8,-9.6,-7.2,9345.9,-0.6,608.1,9830.1,21489.0,381.3,7245.6,8927.1,-9.3,9827.1,-9830.1,9830.1,-7.2,-6.0,9830.1,9830.1,-0.6,453.0,4293.0,891.3,0,2556,36218924482560,194,0, 
1.4233,532.8,-260.7,5.7,46.2,-3425.4,-231.3,665.1,2928.6,-42903.9,500.7,54.6,-233.7,-509.1,-7465.2,-9830.1,2381.7,-6.9,-5.7,1439.4,-248.7,-0.3,571.5,-7392.3,834.6,0,2562,36218924482560,195,0, 
1.4267,518.4,-270.3,-5.1,36.0,-9819.9,-330.3,666.9,-9830.1,-106704.0,500.1,-5649.3,-7890.3,-747.9,-9602.1,-9822.6,-9830.1,-6.9,-5.7,-9830.1,-9830.1,-0.6,572.4,-9830.1,802.2,0,2568,36218924482560,196,0, 
1.4300,462.3,-249.3,-36.3,-26.1,-4386.3,-147.6,600.6,-5081.1,-79731.6,375.0,-1998.6,-3322.2,-411.6,-9827.4,-9830.1,-5319.9,-6.9,-6.0,-3898.5,-6251.4,-0.6,445.2,-5740.8,850.8,0,2574,36218924482560,197,0, 
1.4333,439.2,-222.0,-44.4,-59.4,8755.2,49.8,557.4,9564.3,2889.9,293.7,5906.7,6855.6,47.4,3087.3,-9790.8,9395.7,-6.9,-6.0,8970.9,7886.4,-0.9,365.1,6365.7,893.4,0,2580,36218924482560,198,0, 
1.4367,490.2,-223.2,-17.4,-11.7,9471.0,-0.9,602.4,9830.1,28973.1,375.0,7309.2,9124.8,-6.6,9827.1,-9830.1,9830.1,-7.2,-5.4,9830.1,9830.1,-0.9,443.4,4510.5,878.1,0,2586,36218924482560,199,0, 
1.4400,538.5,-249.3,6.0,45.0,-3063.9,-235.8,667.2,3469.2,-35197.5,497.4,189.3,-73.8,-489.9,-6677.4,-9795.0,2982.6,-6.6,-6.0,2040.9,415.2,-0.6,568.8,-7241.1,818.4,0,2592,36218924482560,200,0, 
1.4433,518.4,-263.4,-6.3,36.3,-9819.9,-316.8,669.6,-9830.1,-98775.3,495.0,-5505.6,-7482.6,-728.1,-9820.5,-9830.1,-9830.1,-6.6,-5.7,-9830.1,-9830.1,-0.6,566.4,-9830.1,792.6,0,2598,36218924482560,201,0, 
1.4467,468.0,-238.5,-25.2,-27.6,-4025.4,-133.8,607.2,-4695.0,-71802.9,372.3,-1830.6,-2992.2,-378.6,-9827.4,-9830.1,-4924.5,-6.6,-5.7,-3369.3,-5772.3,-0.6,448.2,-5539.8,839.7,0,2604,36218924482560,202,0, 
1.4500,450.9,-213.3,-26.1,-55.5,8863.8,70.8,568.5,9759.9,11115.0,297.6,6011.7,7067.1,89.4,3810.9,-9355.5,9608.1,-6.9,-6.0,9117.9,8167.2,-0.9,365.7,6607.8,893.4,0,2610,36218924482560,203,0, 
1.4533,487.8,-234.9,-15.3,-18.3,9574.5,-8.4,595.5,9830.1,37198.2,360.3,7490.7,9114.3,17.4,9827.1,-8502.0,9830.1,-6.6,-6.0,9830.1,9830.1,-0.9,430.8,4691.4,876.6,0,2616,36218924482560,204,0, 
1.4567,533.7,-253.5,2.4,44.1,-2682.9,-237.0,667.5,4084.5,-26601.9,490.8,483.0,205.2,-470.7,-5823.6,-9830.1,3653.7,-6.9,-6.0,2549.4,965.1,-0.9,561.3,-7091.7,828.0,0,2622,36218924482560,205,0, 
1.4600,518.7,-261.3,-10.2,36.3,-9819.9,-327.6,669.9,-9830.1,-90476.1,494.1,-5232.6,-7374.9,-717.6,-9827.4,-9699.9,-9830.1,-6.6,-6.0,-9830.1,-9830.1,-0.6,565.2,-9830.1,804.3,0,2628,36218924482560,206,0, 
1.4633,463.5,-244.2,-37.2,-25.5,-3820.8,-150.9,604.2,-4525.8,-64096.5,381.3,-1506.0,-2820.6,-367.5,-9736.2,-9830.1,-4590.9,-6.6,-5.7,-3120.9,-5596.8,-0.6,448.8,-5458.5,850.8,0,2634,36218924482560,207,0, 
1.4667,438.6,-225.6,-56.7,-68.4,8909.7,37.5,554.1,9794.7,18450.9,291.9,6073.2,7044.3,68.1,4503.6,-7915.2,9704.4,-6.9,-6.0,9145.5,8247.6,-1.2,361.8,6635.7,889.8,0,2640,36218924482560,208,0, 
1.4700,478.5,-226.2,-42.9,-27.0,9603.6,-14.4,595.8,9830.1,44311.8,367.5,7531.5,9233.4,14.1,9827.1,-4222.8,9830.1,-6.9,-5.4,9830.1,9830.1,-0.9,435.3,4783.2,879.0,0,2646,36218924482560,209,0, 
1.4733,528.6,-257.1,-23.1,28.8,-2662.8,-254.7,661.5,4136.1,-19636.5,496.2,427.8,153.9,-481.5,-5079.0,-9830.1,3682.5,-7.2,-5.7,2552.7,996.6,-0.9,564.6,-7011.9,820.5,0,2652,36218924482560,210,0, 
1.4767,519.6,-257.7,-27.9,18.0,-9819.9,-335.7,661.2,-9830.1,-83658.9,492.3,-5226.9,-7339.8,-732.9,-9827.4,-9314.1,-9830.1,-6.6,-6.0,-9830.1,-9830.1,-0.6,568.2,-9830.1,793.8,0,2658,36218924482560,211,0, 
1.4800,459.3,-243.6,-58.2,-45.6,-3874.5,-171.6,593.1,-4530.9,-57723.9,372.6,-1644.0,-2949.6,-393.3,-9488.4,-9830.1,-4658.4,-6.6,-5.7,-3250.2,-5659.2,-0.3,441.3,-5382.0,835.5,0,2664,36218924482560,212,0, 
1.4833,438.0,-231.9,-62.7,-75.3,8888.7,18.0,552.3,9782.7,24527.1,300.6,5999.1,6875.7,75.0,4892.1,-6017.7,9693.9,-6.9,-6.0,9107.1,8197.8,-0.9,361.8,6670.5,884.1,0,2670,36218924482560,213,0, 
1.4867,485.1,-223.8,-36.0,-28.5,9603.3,-39.3,591.9,9830.1,50462.1,370.8,7443.3,9022.2,15.0,9827.1,445.5,9830.1,-6.9,-6.0,9830.1,9830.1,-0.6,439.2,4848.6,882.0,0,2676,36218924482560,214,0, 
1.4900,533.4,-256.5,-17.4,33.9,-2633.7,-261.6,660.3,4019.7,-13486.2,499.5,446.7,140.1,-474.6,-4500.9,-9830.1,3663.9,-6.9,-6.3,2472.0,785.7,-0.3,570.9,-6951.0,824.4,0,2682,36218924482560,215,0, 
1.4933,518.7,-268.8,-18.3,23.4,-9819.9,-353.7,660.9,-9830.1,-77953.2,506.1,-5180.4,-7408.5,-715.5,-9827.4,-9004.2,-9830.1,-6.9,-6.0,-9830.1,-9830.1,-0.9,573.0,-9830.1,801.3,0,2688,36218924482560,216,0, 
1.4967,459.6,-252.6,-46.8,-43.8,-3961.5,-171.6,594.6,-4685.4,-52462.8,379.5,-1693.8,-2982.9,-385.8,-9278.1,-9830.1,-4822.2,-6.6,-6.0,-3420.0,-5987.4,-0.3,448.5,-5406.6,840.9,0,2694,36218924482560,217,0, 
1.5000,437.7,-234.9,-56.7,-81.0,8808.9,23.4,550.2,9659.1,28973.1,296.7,5781.0,6675.6,69.0,5202.6,-3854.1,9557.7,-6.9,-5.7,8918.7,7904.7,-1.2,366.6,6574.5,887.4,0,2700,36218924482560,218,0, 
1.5033,484.8,-237.0,-28.8,-31.2,9551.7,-21.6,592.2,9830.1,54463.5,379.8,7125.0,8663.1,18.3,9827.1,4332.0,9830.1,-7.5,-6.0,9830.1,9830.1,-0.9,446.4,4787.4,882.0,0,2706,36218924482560,219,0, 
1.5067,528.9,-262.8,-9.9,21.0,-2887.2,-253.8,656.1,3489.9,-9781.2,504.0,171.3,-227.4,-478.5,-4307.4,-9830.1,3198.6,-6.6,-5.7,1837.5,192.6,-1.2,570.3,-7005.3,816.3,0,2712,36218924482560,220,0, 
1.5100,515.7,-275.1,-11.1,23.1,-9819.9,-342.3,663.6,-9830.1,-74989.2,511.8,-5448.3,-7697.1,-714.6,-9827.4,-8895.6,-9830.1,-6.6,-5.7,-9830.1,-9830.1,-0.3,579.6,-9830.1,799.5,0,2718,36218924482560,221,0, 
1.5133,455.4,-258.0,-45.0,-45.9,-4302.3,-172.2,593.1,-5190.6,-50165.7,378.6,-1984.8,-3350.1,-395.4,-9275.7,-9830.1,-5232.9,-6.9,-6.3,-4020.3,-6242.7,-0.6,448.8,-5534.1,834.9,0,2724,36218924482560,222,0, 
1.5167,430.2,-237.6,-58.5,-79.2,8682.6,19.5,547.8,9390.0,30973.8,294.3,5324.1,6273.6,50.7,5104.5,-2447.4,9306.0,-6.9,-5.7,8716.5,7751.1,-0.6,362.1,6416.1,881.4,0,2730,36218924482560,223,0, 
1.5200,478.8,-242.7,-35.7,-30.9,9402.6,-31.5,594.3,9830.1,56019.6,375.3,6594.9,8263.8,-11.1,9827.1,6649.2,9830.1,-6.9,-5.7,9830.1,9830.1,-0.9,435.6,4539.0,879.3,0,2736,36218924482560,224,0, 
1.5233,526.8,-264.6,-6.3,26.7,-3320.1,-269.1,660.0,2694.3,-8669.7,488.1,-291.6,-429.9,-495.6,-4526.4,-9830.1,2404.2,-7.2,-6.0,1061.4,-52.2,-0.3,560.4,-7198.8,820.8,0,2742,36218924482560,225,0, 
1.5267,516.3,-281.4,-19.5,17.1,-9819.9,-361.8,663.6,-9830.1,-74248.2,499.5,-6082.8,-8134.2,-740.7,-9827.4,-8882.7,-9830.1,-6.6,-6.0,-9830.1,-9830.1,-0.9,570.6,-9830.1,795.3,0,2748,36218924482560,226,0, 
1.5300,465.0,-254.4,-41.7,-46.8,-4764.0,-183.3,597.3,-5886.0,-50239.8,380.1,-2533.5,-3711.0,-396.9,-9450.9,-9830.1,-5918.7,-6.9,-6.0,-4916.4,-6467.7,-0.9,447.0,-5751.6,838.8,0,2754,36218924482560,227,0, 
1.5333,445.5,-231.6,-53.4,-79.8,8457.6,8.1,558.9,8968.2,30751.5,298.8,4702.5,5832.9,50.1,4709.1,-1918.2,8898.6,-7.2,-6.3,8209.8,7469.7,-0.9,365.1,6090.3,889.5,0,2760,36218924482560,228,0, 
1.5367,491.1,-234.9,-25.8,-32.1,9245.1,-50.1,600.6,9830.1,55649.1,372.6,5942.1,7882.8,-1.8,9827.1,7337.1,9830.1,-7.2,-6.0,9830.1,9830.1,-1.2,440.7,4312.2,880.8,0,2766,36218924482560,229,0, 
1.5400,533.4,-259.2,-9.9,25.5,-3744.9,-283.2,666.6,1734.9,-9336.6,492.6,-851.1,-735.6,-493.2,-4952.7,-9830.1,1445.4,-6.9,-6.0,-54.3,-703.2,-0.6,564.0,-7300.8,820.5,0,2772,36218924482560,230,0, 
1.5433,520.8,-262.2,-8.1,27.0,-9819.9,-367.8,672.3,-9830.1,-75507.9,507.6,-6564.0,-8462.1,-737.1,-9827.4,-8914.5,-9830.1,-6.9,-5.7,-9830.1,-9830.1,-0.6,573.9,-9830.1,801.3,0,2778,36218924482560,231,0, 
1.5467,464.4,-240.0,-29.1,-39.6,-5240.4,-195.9,606.0,-6501.0,-52018.2,378.9,-3027.0,-3947.4,-407.7,-9687.3,-9830.1,-6561.3,-6.6,-6.0,-5813.1,-6976.5,-0.6,448.8,-5985.6,839.7,0,2784,36218924482560,232,0, 
1.5500,443.7,-223.2,-38.4,-69.6,8223.9,4.2,559.8,8528.7,28528.5,302.7,4301.4,5405.7,37.8,4140.9,-2254.2,8447.7,-6.9,-6.0,7650.9,6980.7,-0.9,366.0,5808.9,890.4,0,2790,36218924482560,233,0, 
1.5533,495.0,-216.3,-7.2,-17.4,9088.8,-43.2,603.6,9830.1,53277.9,380.4,5556.9,7372.5,-9.9,9827.1,6632.1,9830.1,-6.9,-6.0,9830.1,9830.1,-0.3,447.9,4065.9,888.3,0,2796,36218924482560,234,0, 
1.5567,542.1,-247.8,13.2,44.1,-4129.8,-276.9,671.1,788.1,-11633.7,505.8,-1203.6,-1045.2,-487.5,-5493.3,-9830.1,687.9,-6.9,-5.7,-1077.6,-1283.1,-0.6,577.8,-7424.1,834.6,0,2802,36218924482560,235,0, 
1.5600,527.1,-258.9,5.7,43.2,-9819.9,-369.3,674.4,-9830.1,-77582.7,517.5,-6995.4,-8838.3,-739.2,-9827.4,-8937.6,-9830.1,-6.6,-5.7,-9830.1,-9830.1,-0.6,583.8,-9830.1,813.0,0,2808,36218924482560,236,0, 
1.5633,476.4,-233.4,-23.1,-15.6,-5535.3,-180.3,613.5,-6986.7,-54018.9,397.2,-3327.9,-4207.8,-394.5,-9799.8,-9830.1,-6977.4,-6.6,-5.7,-6454.2,-7206.0,-0.9,467.1,-6132.6,856.8,0,2814,36218924482560,237,0, 
1.5667,454.8,-214.5,-34.8,-56.1,8084.4,8.4,565.5,8171.1,26750.1,312.3,3886.5,5237.4,44.7,3976.5,-2744.4,8113.2,-6.9,-6.0,7228.2,6760.5,-0.9,378.6,5671.5,893.1,0,2820,36218924482560,238,0, 
1.5700,501.0,-212.7,-8.4,-13.8,8974.8,-43.5,603.6,9830.1,51870.0,384.0,5175.6,7305.3,-1.8,9827.1,5716.2,9830.1,-7.2,-6.0,9830.1,9830.1,-1.2,450.0,3985.2,888.6,0,2826,36218924482560,239,0, 
1.5733,547.5,-255.9,19.8,49.2,-4269.6,-272.1,670.8,401.7,-12745.2,512.7,-1534.5,-1198.2,-464.1,-5486.7,-9830.1,233.4,-7.2,-5.7,-1673.7,-1473.9,-0.9,578.4,-7459.2,836.1,0,2832,36218924482560,240,0, 
1.5767,531.0,-255.0,13.8,38.4,-9819.9,-357.6,673.5,-9830.1,-78620.1,518.7,-7310.4,-8804.4,-730.2,-9827.4,-8933.4,-9830.1,-6.9,-6.0,-9830.1,-9830.1,-0.9,588.0,-9830.1,811.2,0,2838,36218924482560,241,0, 
1.5800,477.0,-239.4,-21.3,-24.6,-5690.7,-179.7,610.2,-7200.6,-55056.3,390.6,-3761.4,-4347.0,-402.9,-9791.4,-9830.1,-7214.4,-7.2,-6.0,-6872.1,-7393.8,-0.3,454.2,-6215.1,843.3,0,2844,36218924482560,242,0, 
1.5833,448.5,-219.3,-24.6,-56.7,8003.7,15.6,559.5,7987.2,25935.0,308.4,3595.8,5281.5,57.3,4132.2,-3334.8,7925.1,-7.2,-6.3,6837.6,6588.6,-0.6,371.7,5640.0,883.5,0,2850,36218924482560,243,0, 
1.5867,490.2,-219.9,-6.0,-17.1,8968.8,-26.1,601.2,9830.1,51351.3,373.5,4952.4,7307.4,9.9,9827.1,4873.2,9830.1,-6.9,-6.0,9830.1,9830.1,-0.6,439.2,3929.7,887.4,0,2856,36218924482560,244,0, 
1.5900,534.9,-253.5,10.2,38.7,-4347.3,-269.7,666.3,243.6,-13041.6,498.3,-1728.0,-1203.3,-472.2,-5228.7,-9830.1,101.7,-6.9,-6.0,-2026.5,-1642.2,-0.9,565.2,-7464.0,828.9,0,2862,36218924482560,245,0, 
1.5933,519.6,-264.3,3.9,22.8,-9819.9,-354.6,669.3,-9830.1,-79064.7,497.4,-7500.6,-8994.3,-724.2,-9827.4,-8946.0,-9830.1,-7.2,-5.7,-9830.1,-9830.1,-0.3,567.0,-9830.1,806.1,0,2868,36218924482560,246,0, 
1.5967,461.7,-239.7,-27.9,-35.4,-5750.7,-185.4,606.3,-7265.1,-55426.8,376.8,-3818.1,-4390.8,-396.9,-9708.3,-9830.1,-7254.3,-7.5,-5.7,-7015.5,-7389.6,-0.9,442.2,-6227.7,843.6,0,2874,36218924482560,247,0, 
1.6000,442.2,-210.9,-32.1,-65.4,7940.1,6.0,559.5,7928.1,25416.3,293.7,3476.7,5117.4,51.6,4188.3,-3645.3,7892.4,-6.6,-5.7,6748.5,6671.4,-0.6,355.5,5568.9,886.2,0,2880,36218924482560,248,0, 
1.6033,479.1,-225.3,-16.8,-28.2,8974.2,-61.8,590.1,9830.1,51054.9,361.5,4929.3,7194.3,-6.9,9827.1,4390.5,9830.1,-6.9,-6.0,9830.1,9830.1,-0.9,420.3,3911.7,869.1,0,2886,36218924482560,249,0, 
1.6067,531.9,-252.9,12.0,29.1,-4351.5,-273.9,661.5,109.8,-13263.9,479.4,-1744.2,-1268.1,-490.5,-5140.2,-9830.1,11.1,-6.9,-6.3,-2177.7,-1554.6,-0.9,545.4,-7483.5,813.6,0,2892,36218924482560,250,0, 
1.6100,519.3,-261.6,0.0,22.8,-9819.9,-382.5,663.0,-9830.1,-79212.9,497.1,-7630.5,-8977.2,-732.6,-9827.4,-8959.2,-9830.1,-7.2,-6.3,-9830.1,-9830.1,-0.9,558.3,-9830.1,791.7,0,2898,36218924482560,251,0, 
1.6133,463.2,-237.9,-30.0,-35.1,-5788.8,-193.8,600.0,-7343.4,-55649.1,375.0,-4035.0,-4622.4,-408.9,-9632.1,-9830.1,-7342.2,-6.6,-5.7,-7122.6,-7449.3,-0.6,436.8,-6245.7,831.0,0,2904,36218924482560,252,0, 
1.6167,435.0,-222.6,-49.2,-72.6,7958.4,1.5,554.1,7893.0,25268.1,291.0,3303.0,5001.0,59.7,4459.5,-3924.3,7819.8,-7.2,-6.3,6675.9,6604.5,-1.2,354.6,5567.4,874.8,0,2910,36218924482560,253,0, 
1.6200,479.4,-227.7,-18.3,-20.4,8974.5,-43.8,594.0,9830.1,51054.9,367.2,4773.9,7119.0,10.5,9827.1,4041.0,9830.1,-7.2,-5.4,9830.1,9830.1,-0.9,429.9,3915.3,875.4,0,2916,36218924482560,254,0, 
1.6233,532.2,-255.0,-1.5,40.2,-4313.7,-275.7,659.4,275.4,-12745.2,490.2,-1805.1,-1275.0,-472.8,-4719.3,-9830.1,90.0,-6.9,-5.7,-2239.5,-1416.9,-0.6,557.4,-7467.6,819.0,0,2922,36218924482560,255,0, 
1.6267,518.1,-270.0,-8.4,30.3,-9819.9,-366.6,664.2,-9830.1,-78471.9,498.0,-7593.3,-8990.7,-725.4,-9827.4,-8955.3,-9830.1,-6.6,-6.3,-9830.1,-9830.1,-0.6,563.7,-9830.1,798.0,0,2928,36218924482560,0,0, 
1.6300,461.7,-248.4,-28.5,-35.7,-5717.1,-185.4,600.3,-7246.5,-54908.1,373.5,-4053.9,-4445.1,-395.7,-9478.2,-9830.1,-7265.4,-6.9,-5.7,-7076.7,-7229.4,-0.6,440.4,-6204.3,838.2,0,2934,36218924482560,1,0, 
1.6333,445.5,-225.3,-41.7,-66.6,8004.3,15.3,561.9,7989.0,26305.5,295.8,3413.4,5247.0,57.6,4701.3,-3548.4,7908.0,-6.9,-6.3,6726.6,6784.2,-0.9,357.0,5662.5,889.8,0,2940,36218924482560,2,0, 
1.6367,486.9,-225.9,-15.9,-17.7,9049.5,-33.6,597.9,9830.1,52685.1,367.5,4860.0,7325.4,6.3,9827.1,4988.4,9830.1,-7.2,-6.0,9830.1,9830.1,-0.6,435.9,4101.9,882.3,0,2946,36218924482560,3,0, 
1.6400,527.7,-258.6,9.3,36.0,-4129.2,-268.2,660.3,523.8,-10744.5,489.0,-1865.1,-1192.8,-480.3,-4328.1,-9830.1,294.3,-6.9,-6.0,-2084.4,-1104.3,-0.9,556.5,-7356.3,821.1,0,2952,36218924482560,4,0, 
1.6433,508.8,-279.0,0.6,28.2,-9819.9,-363.9,663.6,-9830.1,-76693.5,494.1,-7584.6,-8890.8,-738.0,-9827.4,-8948.7,-9830.1,-6.6,-6.0,-9830.1,-9830.1,-0.9,560.1,-9830.1,793.5,0,2958,36218924482560,5,0, 
1.6467,454.2,-257.1,-30.3,-34.5,-5568.6,-186.0,594.9,-7143.3,-53055.6,372.0,-4021.2,-4356.3,-405.9,-9306.6,-9830.1,-7177.2,-6.9,-6.0,-7075.8,-7133.4,0.0,440.7,-6181.5,834.9,0,2964,36218924482560,6,0, 
1.6500,438.3,-224.7,-42.9,-66.3,8076.6,22.5,552.0,8105.7,28083.9,293.4,3370.5,5302.8,48.9,5031.0,-3047.1,8041.5,-6.9,-6.3,6758.1,6956.7,-1.2,357.0,5686.2,886.8,0,2970,36218924482560,7,0, 
1.6533,480.6,-239.4,-26.4,-33.0,9130.5,-39.3,589.8,9830.1,54685.8,359.7,4839.3,7573.2,-6.3,9827.1,6282.9,9830.1,-7.5,-6.0,9830.1,9830.1,-0.6,423.9,4156.5,866.7,0,2976,36218924482560,8,0, 
1.6567,527.7,-260.7,-2.4,27.0,-3981.0,-280.5,653.7,865.2,-8299.2,484.5,-1707.6,-878.7,-496.8,-3813.0,-9830.1,741.6,-6.9,-5.7,-1840.2,-651.6,-0.6,549.0,-7290.0,809.4,0,2982,36218924482560,9,0, 
1.6600,513.9,-277.5,-9.9,19.2,-9819.9,-361.8,654.6,-9830.1,-73729.5,491.7,-7358.7,-8450.7,-731.1,-9827.4,-8932.5,-9830.1,-6.6,-5.7,-9830.1,-9830.1,-0.6,554.4,-9830.1,782.7,0,2988,36218924482560,10,0, 
1.6633,456.0,-267.6,-37.2,-42.6,-5409.9,-189.3,590.1,-6957.0,-50239.8,367.2,-3717.9,-4089.9,-405.0,-9060.9,-9830.1,-6921.3,-6.9,-6.0,-6891.3,-6829.2,-0.9,426.6,-6029.1,820.5,0,2994,36218924482560,11,0, 
1.6667,433.8,-239.1,-46.8,-72.3,8160.6,7.2,541.8,8286.0,31270.2,283.8,3631.2,5487.0,46.5,5457.6,-2006.7,8268.6,-6.6,-6.0,6926.4,7250.1,-1.2,346.8,5844.0,868.8,0,3000,36218924482560,12,0, 
1.6700,483.3,-237.9,-25.2,-26.1,9241.5,-32.1,581.4,9830.1,58094.4,354.9,5138.7,7653.3,4.8,9827.1,8146.8,9830.1,-6.9,-6.0,9830.1,9830.1,-0.6,418.5,4321.2,859.8,0,3006,36218924482560,13,0, 
1.6733,527.7,-270.6,-9.3,24.3,-3652.2,-268.8,647.1,1338.3,-4668.3,473.7,-1549.2,-886.2,-478.5,-3055.2,-9830.1,1232.7,-7.2,-5.7,-1425.6,-154.8,-0.6,540.6,-7214.7,810.6,0,3012,36218924482560,14,0, 
1.6767,519.9,-281.1,-14.4,23.1,-9819.9,-356.4,662.4,-9830.1,-70098.6,483.0,-7249.8,-8344.8,-731.7,-9827.4,-8935.5,-9830.1,-6.9,-6.3,-9830.1,-9830.1,-0.9,554.4,-9830.1,791.4,0,3018,36218924482560,15,0, 
1.6800,456.9,-262.5,-45.3,-42.9,-5177.4,-189.3,595.2,-6653.7,-46460.7,357.9,-3647.1,-3891.6,-410.1,-8736.6,-9830.1,-6613.8,-6.9,-6.0,-6539.4,-6616.5,-1.2,425.1,-5995.2,834.3,0,3024,36218924482560,16,0, 
1.6833,438.6,-237.9,-54.0,-72.9,8235.3,9.3,551.4,8526.9,34975.2,279.9,3651.9,5559.0,45.6,5924.4,-956.1,8504.1,-6.9,-6.6,7194.0,7416.0,-1.2,341.7,5863.8,879.3,0,3030,36218924482560,17,0, 
1.6867,480.0,-238.5,-27.6,-24.3,9302.1,-34.5,588.0,9830.1,61725.3,347.4,5246.4,7962.0,-0.3,9827.1,9478.8,9830.1,-7.2,-6.0,9830.1,9830.1,-0.9,411.6,4431.0,874.5,0,3036,36218924482560,18,0, 
1.6900,531.0,-268.8,-0.3,36.3,-3609.6,-262.2,659.7,1664.4,-1259.7,476.4,-1459.2,-582.9,-483.3,-2526.3,-9168.6,1602.3,-6.9,-5.7,-1078.8,177.9,-1.2,542.4,-7116.9,818.4,0,3042,36218924482560,19,0, 
1.6933,514.8,-281.1,-10.5,25.2,-9819.9,-358.2,669.3,-9830.1,-68468.4,480.3,-6591.9,-7434.3,-729.0,-9827.4,-9064.8,-9830.1,-6.9,-6.0,-9830.1,-9830.1,-0.6,549.0,-9830.1,794.7,0,3048,36218924482560,20,0, 
1.6967,458.1,-266.7,-37.8,-39.0,-5264.1,-179.7,600.6,-6634.5,-45201.0,364.2,-3142.2,-3087.6,-408.3,-8613.6,-9830.1,-6558.9,-6.6,-5.7,-6242.1,-6180.3,0.0,428.7,-5941.5,832.2,0,3054,36218924482560,21,0, 
1.7000,442.5,-238.5,-35.4,-63.9,8203.2,12.3,561.6,8499.3,35790.3,286.8,3939.0,6055.2,59.4,6071.1,-62.4,8486.4,-7.2,-6.3,7359.6,7671.3,-0.6,354.6,5903.1,890.4,0,3060,36218924482560,22,0, 
1.7033,485.1,-234.6,-15.0,-18.3,9263.1,-38.7,594.9,9830.1,62614.5,361.2,5423.1,8213.4,10.8,9827.1,9830.1,9830.1,-6.6,-6.3,9830.1,9830.1,-0.9,431.4,4435.8,887.7,0,3066,36218924482560,23,0, 
1.7067,529.5,-266.7,14.7,45.3,-3718.5,-273.6,659.7,1531.8,-592.8,487.2,-1182.0,-393.9,-476.1,-2432.4,-8523.9,1405.2,-7.2,-5.7,-961.8,225.3,-0.6,553.8,-7157.1,830.4,0,3072,36219192918016,24,0, 
1.7100,512.7,-281.1,-1.2,34.2,-9819.9,-372.3,663.6,-9830.1,-66764.1,494.1,-7065.0,-8002.2,-728.1,-9827.4,-9262.5,-9830.1,-6.9,-5.7,-9830.1,-9830.1,-0.6,563.7,-9830.1,802.2,0,3078,36219192918016,25,0, 
1.7133,458.1,-259.2,-27.0,-27.6,-5568.0,-194.1,601.5,-6921.3,-44756.4,370.2,-3576.6,-3776.4,-407.4,-8677.8,-9830.1,-6893.1,-6.9,-5.7,-6564.0,-6696.0,-0.6,440.1,-6110.1,843.6,0,3084,36219192918016,26,0, 
1.7167,433.8,-234.0,-37.5,-66.6,7955.7,-11.1,555.3,8234.4,35642.1,287.7,3623.1,5565.6,42.3,5865.3,-18.9,8199.3,-6.6,-6.3,7058.1,7236.3,-0.3,354.3,5697.6,890.4,0,3090,36219192918016,27,0, 
1.7200,478.2,-245.4,-9.3,-19.5,9139.5,-60.6,591.0,9830.1,62095.8,360.6,5170.2,7807.5,9.3,9827.1,9830.1,9830.1,-7.2,-6.0,9830.1,9830.1,-0.9,427.5,4230.0,882.3,0,3096,36219192918016,28,0, 
1.7233,521.4,-270.3,9.3,33.3,-4037.7,-294.3,656.1,992.7,-1259.7,483.0,-1426.2,-685.5,-482.1,-2783.4,-8504.4,808.8,-6.9,-5.7,-1402.2,-203.4,-0.6,548.1,-7312.5,820.2,0,3102,36219192918016,29,0, 
1.7267,509.7,-293.1,-3.9,19.5,-9819.9,-393.0,656.1,-9830.1,-68097.9,486.3,-7204.5,-8334.6,-741.9,-9827.4,-9282.0,-9830.1,-6.9,-6.0,-9830.1,-9830.1,-0.6,552.6,-9830.1,785.7,0,3108,36219192918016,30,0, 
1.7300,451.5,-274.2,-30.9,-45.3,-5874.9,-223.2,586.8,-7236.6,-46016.1,362.4,-3808.8,-4059.9,-426.0,-8869.2,-9830.1,-7254.6,-6.9,-6.0,-6920.4,-6939.6,-0.6,430.8,-6281.7,815.7,0,3114,36219192918016,31,0, 
1.7333,435.9,-249.3,-44.4,-76.2,7791.0,-22.5,547.5,7928.4,34160.1,278.4,3465.0,5218.5,35.1,5516.4,-90.0,7849.5,-6.9,-6.0,6733.5,6965.4,-0.9,342.9,5463.0,861.6,0,3120,36219192918016,32,0, 
1.7367,479.4,-256.8,-27.9,-40.2,8990.1,-66.3,585.0,9830.1,60317.4,350.4,4890.0,7445.4,-9.0,9827.1,9830.1,9830.1,-6.6,-5.7,9830.1,9830.1,-0.9,415.2,4002.3,852.9,0,3126,36219192918016,33,0, 
1.7400,526.2,-283.5,-1.2,18.9,-4335.0,-306.9,652.5,429.3,-3186.3,475.2,-1788.9,-1022.7,-490.8,-3169.8,-8604.3,206.7,-6.6,-6.0,-1950.6,-842.1,-0.3,542.1,-7395.0,802.5,0,3132,36219192918016,34,0, 
1.7433,518.4,-285.0,-7.8,15.6,-9819.9,-386.7,655.5,-9830.1,-70098.6,487.2,-7548.0,-8622.9,-754.2,-9827.4,-9292.2,-9830.1,-6.3,-5.7,-9830.1,-9830.1,-0.6,549.9,-9830.1,775.8,0,3138,36219192918016,35,0, 
1.7467,464.7,-263.7,-26.7,-40.8,-6096.0,-208.5,595.2,-7583.1,-48461.4,368.7,-4112.4,-4313.1,-410.7,-9087.6,-9830.1,-7601.1,-6.6,-5.7,-7250.1,-7287.6,-0.6,436.2,-6423.3,820.2,0,3144,36219192918016,36,0, 
1.7500,440.4,-248.7,-39.6,-70.5,7661.4,-16.5,548.1,7587.3,31344.3,287.1,3208.5,5168.7,42.0,5169.6,-787.2,7510.2,-6.6,-6.0,6373.5,6619.2,-0.6,351.0,5312.7,862.5,0,3150,36219192918016,37,0, 
1.7533,486.3,-244.8,-12.9,-25.8,8859.0,-67.2,585.9,9830.1,57723.9,360.6,4521.9,7408.8,-8.1,9827.1,9165.9,9830.1,-6.3,-5.7,9830.1,9830.1,-0.6,426.6,3891.9,861.6,0,3156,36219192918016,38,0, 
1.7567,533.7,-267.9,11.4,30.3,-4559.7,-300.0,649.2,-75.0,-5705.7,486.9,-1955.4,-861.9,-487.5,-3489.9,-9138.0,-272.4,-6.9,-5.4,-2368.8,-1188.6,-0.6,552.3,-7453.2,806.1,0,3162,36219192918016,39,0, 
1.7600,523.2,-273.0,10.2,31.2,-9819.9,-388.8,659.7,-9830.1,-72766.2,503.7,-7786.5,-8670.9,-733.8,-9827.4,-9203.7,-9830.1,-6.9,-5.4,-9830.1,-9830.1,-1.2,570.3,-9830.1,783.9,0,3168,36219192918016,40,0, 
1.7633,468.0,-254.7,-14.7,-35.7,-6370.5,-207.9,594.3,-7911.0,-51425.4,381.3,-4303.8,-4467.3,-420.6,-9251.1,-9830.1,-7896.9,-6.9,-5.7,-7509.6,-7514.4,-0.9,444.6,-6567.3,814.8,0,3174,36219192918016,41,0, 
1.7667,444.0,-230.1,-22.8,-63.6,7437.0,-13.2,551.7,7225.2,28380.3,299.7,2964.3,4903.5,29.4,4907.7,-1846.8,7188.3,-6.3,-5.7,6137.1,6357.0,-0.9,361.2,5124.9,866.7,0,3180,36219192918016,42,0, 
1.7700,485.4,-241.8,-5.7,-24.0,8769.9,-59.4,585.9,9830.1,54834.0,368.7,4491.6,7112.1,-17.1,9827.1,8023.2,9830.1,-6.9,-6.0,9830.1,9830.1,-0.6,432.9,3739.8,863.7,0,3186,36219192918016,43,0, 
1.7733,531.6,-262.2,21.3,37.5,-4753.2,-281.4,662.4,-580.2,-8817.9,499.2,-2009.7,-1097.1,-492.6,-3893.4,-9696.0,-711.3,-6.9,-6.0,-2676.9,-1416.0,-0.9,565.5,-7546.5,807.0,0,3192,36219192918016,44,0, 
1.7767,513.3,-288.9,0.3,21.3,-9819.9,-378.9,655.8,-9830.1,-76100.7,495.6,-7924.5,-9041.7,-772.8,-9827.4,-9086.7,-9830.1,-6.6,-6.0,-9830.1,-9830.1,-0.9,565.2,-9830.1,775.5,0,3198,36219192918016,45,0, 
1.7800,461.1,-261.9,-16.5,-34.8,-6621.0,-194.4,600.9,-8202.6,-55130.4,380.4,-4476.9,-4707.0,-438.0,-9452.1,-9830.1,-8207.7,-6.6,-6.0,-7774.2,-7725.9,-0.6,452.1,-6729.9,822.3,0,3204,36219192918016,46,0, 
1.7833,438.6,-241.2,-31.8,-72.0,7221.9,6.6,551.7,6877.5,24378.9,297.3,2796.3,4726.5,10.2,4494.9,-3244.2,6792.6,-6.6,-6.0,5708.7,6183.6,-1.2,363.9,4958.4,871.8,0,3210,36219192918016,47,0, 
1.7867,479.4,-247.8,-13.8,-36.9,8601.0,-48.0,583.5,9830.1,50906.7,359.1,4229.1,6970.8,-40.8,9827.1,5424.3,9830.1,-6.6,-6.0,9830.1,9830.1,-1.2,427.5,3584.1,861.0,0,3216,36219192918016,48,0, 
1.7900,532.5,-270.9,11.1,23.1,-5054.1,-279.0,651.3,-1059.3,-12671.1,486.6,-2257.8,-1295.1,-522.9,-4237.5,-9830.1,-1275.0,-6.9,-6.3,-3163.5,-1746.3,-0.6,559.2,-7643.1,805.2,0,3222,36219192918016,49,0, 
1.7933,513.6,-291.9,-8.1,11.1,-9819.9,-379.5,658.2,-9830.1,-80398.5,492.0,-8274.3,-9269.4,-783.9,-9827.4,-9070.2,-9830.1,-6.6,-5.7,-9830.1,-9830.1,-0.9,563.4,-9830.1,766.2,0,3228,36219192918016,50,0, 
1.7967,463.2,-267.9,-27.9,-46.2,-6822.0,-198.0,595.5,-8443.5,-59502.3,374.7,-4865.1,-5064.0,-459.9,-9656.4,-9830.1,-8470.8,-6.9,-6.0,-8107.5,-7926.9,-0.3,441.9,-6865.5,814.5,0,3234,36219192918016,51,0, 
1.8000,442.5,-243.6,-39.3,-80.4,7058.7,-10.2,544.5,6548.7,20007.0,287.4,2505.3,4596.9,-1.8,4011.6,-4782.0,6483.6,-6.6,-6.0,5417.7,5863.8,-1.2,354.0,4758.6,862.5,0,3240,36219192918016,52,0, 
1.8033,489.6,-240.3,-22.8,-35.4,8516.7,-52.2,589.2,9830.1,46386.6,366.9,4018.8,6774.9,-48.3,9827.1,2704.5,9830.1,-6.9,-6.0,9830.1,9830.1,-0.3,428.7,3403.8,859.5,0,3246,36219192918016,53,0, 
1.8067,535.8,-271.2,-2.7,18.0,-5230.8,-282.9,655.5,-1518.9,-16894.8,488.1,-2370.0,-1509.6,-516.9,-4790.1,-9830.1,-1663.2,-6.9,-5.7,-3520.5,-2124.3,-0.6,550.5,-7702.5,800.1,0,3252,36219192918016,54,0, 
1.8100,523.8,-284.1,-12.0,15.3,-9819.9,-385.5,655.8,-9830.1,-84325.8,495.3,-8459.7,-9567.6,-784.5,-9827.4,-9090.6,-9830.1,-6.9,-6.0,-9830.1,-9830.1,-0.6,561.3,-9830.1,769.5,0,3258,36219192918016,55,0, 
1.8133,466.2,-256.8,-33.3,-48.0,-7013.4,-215.1,594.9,-8669.4,-63874.2,371.4,-5028.9,-5216.7,-460.8,-9818.4,-9830.1,-8633.7,-6.6,-5.7,-8349.3,-8087.4,-0.3,437.1,-6958.8,807.3,0,3264,36219192918016,56,0, 
1.8167,443.7,-234.0,-47.4,-75.3,6873.9,-18.6,545.7,6274.2,15561.0,286.5,2433.3,4476.3,-15.9,3725.4,-6178.8,6265.8,-6.9,-6.0,5023.2,5796.9,-1.2,348.0,4637.7,859.5,0,3270,36219192918016,57,0, 
1.8200,481.8,-242.1,-28.8,-31.8,8370.0,-66.3,577.8,9830.1,42385.2,353.7,3930.0,6601.5,-50.7,9827.1,-304.8,9830.1,-6.9,-6.3,9830.1,9830.1,-0.9,417.6,3340.2,852.0,0,3276,36219192918016,58,0, 
1.8233,525.3,-274.5,-8.4,27.0,-5360.7,-298.2,641.7,-1806.6,-21044.4,478.8,-2572.8,-1652.1,-527.1,-5103.0,-9830.1,-1948.8,-6.6,-5.7,-3795.3,-2194.8,-0.3,544.2,-7747.5,794.7,0,3282,36219192918016,59,0, 
1.8267,518.7,-290.4,-24.9,21.0,-9819.9,-389.1,654.6,-9830.1,-88475.4,483.3,-8673.0,-9714.3,-791.7,-9827.4,-9176.4,-9830.1,-6.3,-6.0,-9830.1,-9830.1,-0.9,557.7,-9830.1,771.0,0,3288,36219192918016,60,0, 
1.8300,460.5,-264.3,-45.3,-39.0,-7086.9,-217.8,591.0,-8803.5,-67801.5,376.2,-5188.5,-5415.0,-461.7,-9827.4,-9830.1,-8790.9,-6.6,-5.7,-8390.4,-8070.0,-0.6,438.0,-7031.4,807.6,0,3294,36219192918016,61,0, 
1.8333,445.2,-228.9,-52.5,-68.7,6776.4,-11.1,550.2,6075.9,11633.7,295.5,2396.1,4413.9,-11.4,3474.3,-7461.0,6068.4,-6.6,-6.0,4953.3,5796.3,-0.6,360.9,4591.2,867.9,0,3300,0,62,0, 
1.8367,486.6,-225.3,-16.8,-24.0,8356.2,-59.7,591.6,9830.1,38532.0,370.8,3947.1,6666.9,-36.9,9827.1,-3270.0,9830.1,-6.9,-5.7,9830.1,9830.1,-0.6,431.4,3307.2,858.3,0,3306,0,63,0, 
1.8400,535.2,-261.6,19.5,44.7,-5430.9,-275.7,657.9,-2051.7,-24601.2,501.0,-2511.9,-1618.2,-491.7,-5257.8,-9830.1,-2067.6,-6.6,-6.3,-3904.8,-2166.6,-0.3,558.9,-7807.8,807.9,0,3312,344671141888,64,0, 
1.8433,526.2,-262.2,16.2,40.8,-9819.9,-372.6,662.4,-9830.1,-92180.4,511.5,-8603.7,-9664.5,-761.4,-9827.4,-9294.3,-9830.1,-7.2,-6.0,-9830.1,-9830.1,-0.6,574.5,-9830.1,782.7,0,3318,345208012800,65,0, 
1.8467,472.5,-253.8,-12.3,-24.3,-7196.1,-199.2,596.4,-8931.6,-71877.0,389.4,-5222.4,-5511.9,-442.2,-9827.4,-9830.1,-8871.0,-6.6,-6.0,-8508.0,-8168.7,-0.9,450.9,-7104.6,816.3,0,3324,36218922385408,66,0, 
1.8500,449.4,-230.1,-24.6,-60.6,6662.7,0.6,549.9,5894.1,7632.3,304.5,2351.1,4413.0,7.8,3171.0,-8584.2,5933.4,-6.9,-5.7,4919.4,5664.0,-1.2,365.4,4460.1,862.5,0,3330,36218922385408,67,0, 
1.8533,492.3,-235.2,3.6,-12.0,8257.5,-45.3,591.0,9830.1,34678.8,373.5,3869.7,6630.9,-17.7,9827.1,-6056.7,9830.1,-6.9,-6.3,9830.1,9830.1,-0.6,431.4,3199.8,858.9,0,3336,36218922385408,68,0, 
1.8567,538.8,-265.5,23.1,44.7,-5477.1,-277.5,656.4,-2133.9,-28083.9,498.0,-2550.0,-1665.3,-506.1,-5439.6,-9830.1,-2126.7,-7.2,-6.0,-3820.2,-2289.9,-0.9,559.2,-7813.2,801.0,0,3342,36218922385408,69,0, 
1.8600,525.9,-276.9,17.4,43.2,-9819.9,-372.6,660.9,-9830.1,-95663.1,506.7,-8742.9,-9766.2,-773.7,-9827.4,-9469.5,-9830.1,-7.2,-6.0,-9830.1,-9830.1,-0.3,570.6,-9830.1,775.2,0,3348,36218922385408,70,0, 
1.8633,471.3,-259.8,-8.7,-19.2,-7284.0,-196.2,597.3,-8974.5,-75285.6,388.5,-5255.7,-5416.8,-452.4,-9827.4,-9830.1,-8881.2,-6.9,-6.0,-8530.8,-8271.6,-0.6,449.1,-7188.6,814.2,0,3354,36218922385408,71,0, 
1.8667,447.0,-238.2,-22.8,-57.3,6617.4,0.6,555.0,5837.4,4297.8,305.4,2403.3,4544.1,1.5,2921.1,-9188.7,5917.2,-7.2,-6.0,4807.8,5641.5,-0.6,362.1,4389.9,865.8,0,3360,36218922385408,72,0, 
1.8700,486.9,-235.5,0.0,-16.8,8228.1,-47.4,588.3,9830.1,31714.8,366.9,3961.2,6679.8,-45.3,9827.1,-7716.3,9830.1,-6.9,-6.0,9830.1,9830.1,-0.9,433.8,3189.0,857.1,0,3366,36218922385408,73,0, 
1.8733,535.8,-265.5,20.4,49.5,-5497.2,-273.6,656.7,-2069.7,-30899.7,493.8,-2486.1,-1496.7,-524.1,-5679.9,-9830.1,-2076.6,-6.9,-5.7,-3851.1,-2066.4,-0.6,562.5,-7810.8,802.8,0,3372,36218922385408,74,0, 
1.8767,519.9,-281.4,6.9,42.9,-9819.9,-369.6,659.1,-9830.1,-98404.8,503.7,-8722.5,-9642.3,-783.6,-9827.4,-9610.8,-9830.1,-6.9,-6.3,-9830.1,-9830.1,-0.9,570.6,-9830.1,782.1,0,3378,36218922385408,75,0, 
1.8800,468.0,-261.9,-14.4,-18.6,-7257.9,-193.5,600.0,-8933.7,-77953.2,387.6,-5296.2,-5392.5,-459.9,-9827.4,-9830.1,-8872.5,-6.9,-6.3,-8510.1,-8161.8,-0.6,450.9,-7202.1,819.6,0,3384,36218922385408,76,0, 
1.8833,438.9,-247.8,-31.2,-59.4,6638.4,-9.3,546.3,5955.3,1926.6,299.4,2408.1,4722.3,-11.7,2861.4,-9564.0,5974.2,-6.6,-5.7,5042.7,5804.4,-0.6,360.0,4431.0,867.9,0,3390,36218922385408,77,0, 
1.8867,480.9,-240.6,-17.4,-15.0,8394.6,-55.8,583.2,9830.1,30084.6,358.8,3984.3,6917.7,-40.8,9827.1,-8849.7,9830.1,-7.2,-6.0,9830.1,9830.1,-0.9,422.4,3273.0,854.7,0,3396,36218922385408,78,0, 
1.8900,531.6,-267.0,5.4,46.5,-5334.3,-280.2,651.9,-1679.4,-32011.2,488.4,-2319.3,-1341.3,-517.5,-5525.7,-9830.1,-1736.1,-6.9,-6.0,-3459.6,-1749.9,-0.9,553.8,-7786.5,804.6,0,3402,36218922385408,79,0, 
1.8933,514.5,-280.5,-2.1,33.0,-9819.9,-381.6,653.1,-9830.1,-99294.0,492.3,-8427.0,-9381.6,-781.8,-9827.4,-9728.7,-9830.1,-6.9,-6.0,-9830.1,-9830.1,-0.6,559.8,-9830.1,773.4,0,3408,36218922385408,80,0, 
1.8967,458.7,-261.3,-26.1,-27.9,-7153.5,-205.5,593.7,-8782.8,-78842.4,376.5,-4990.2,-5214.0,-467.7,-9827.4,-9830.1,-8723.1,-6.9,-5.7,-8319.3,-8009.1,-0.6,442.5,-7185.0,816.6,0,3414,36218922385408,81,0, 
1.9000,437.1,-239.7,-35.4,-62.1,6729.6,-5.4,547.2,6161.1,1111.5,294.9,2704.2,4794.6,-9.3,3038.4,-9680.7,6201.6,-6.9,-6.0,5254.2,5925.3,-0.9,357.3,4446.0,867.0,0,3420,36218922385408,82,0, 
1.9033,472.8,-243.6,-23.7,-22.5,8538.6,-53.4,574.8,9830.1,29269.5,358.5,4352.7,7097.1,-49.5,9827.1,-9214.5,9830.1,-6.9,-6.0,9830.1,9830.1,-1.2,424.5,3326.1,858.9,0,3426,36218922385408,83,0, 
1.9067,525.6,-262.2,0.6,42.9,-5146.2,-278.7,649.2,-1301.4,-32529.9,489.6,-2079.9,-1046.7,-509.7,-5324.1,-9830.1,-1358.1,-6.9,-6.0,-3009.0,-1518.6,-0.6,555.3,-7703.7,811.8,0,3432,36218922385408,84,0, 
1.9100,512.7,-283.5,1.8,39.3,-9819.9,-373.2,656.4,-9830.1,-99516.3,502.5,-8389.8,-9222.3,-776.7,-9827.4,-9774.9,-9830.1,-6.9,-6.3,-9830.1,-9830.1,-0.9,567.9,-9830.1,782.7,0,3438,36218922385408,85,0, 
1.9133,455.4,-262.5,-26.1,-25.8,-7023.0,-200.7,591.0,-8581.2,-78990.6,382.2,-4894.5,-5058.9,-447.9,-9827.4,-9830.1,-8551.2,-6.9,-6.0,-8146.8,-7927.5,-0.9,454.8,-7113.0,815.4,0,3444,36218922385408,86,0, 
1.9167,441.9,-227.4,-34.2,-53.1,6895.2,4.2,549.6,6483.6,1037.4,306.3,2762.7,4851.0,20.4,3234.9,-9728.7,6456.9,-6.6,-5.7,5386.2,6051.3,-0.9,372.9,4552.8,876.3,0,3450,36218922385408,87,0, 
1.9200,481.2,-237.3,-19.8,-17.1,8683.5,-49.2,579.9,9830.1,29714.1,375.0,4446.6,7369.2,-21.0,9827.1,-9357.3,9830.1,-6.9,-6.0,9830.1,9830.1,-0.9,443.7,3533.4,858.3,0,3456,36218922385408,88,0, 
1.9233,527.4,-269.1,1.2,39.0,-4914.0,-268.2,651.9,-703.8,-31788.9,496.8,-2025.3,-865.8,-506.1,-4962.3,-9830.1,-855.6,-7.2,-6.0,-2872.2,-1191.9,-0.6,563.1,-7630.2,803.1,0,3462,36218922385408,89,0, 
1.9267,516.0,-274.8,-9.6,37.8,-9819.9,-369.9,656.1,-9830.1,-98849.4,506.7,-8165.1,-8911.5,-795.0,-9827.4,-9797.7,-9830.1,-6.9,-6.0,-9830.1,-9830.1,-0.6,574.5,-9830.1,780.0,0,3468,36218922385408,90,0, 
1.9300,468.0,-249.9,-28.8,-20.4,-6889.2,-192.0,597.3,-8368.8,-78397.8,391.8,-4968.6,-4777.2,-454.8,-9827.4,-9830.1,-8373.3,-6.6,-6.0,-8058.0,-7764.6,-0.6,455.4,-7025.7,824.4,0,3474,36218922385408,91,0, 
1.9333,442.8,-242.7,-48.0,-60.9,7001.7,8.4,549.3,6756.0,1778.4,304.2,2807.1,5151.6,9.9,3409.5,-9711.3,6690.0,-6.9,-6.3,5653.8,6290.4,-0.6,364.8,4644.6,868.2,0,3480,36218922385408,92,0, 
1.9367,481.5,-239.7,-31.8,-30.6,8832.9,-32.7,578.4,9830.1,30603.3,361.2,4554.0,7604.4,-34.5,9827.1,-9234.3,9830.1,-7.5,-6.0,9830.1,9830.1,-0.9,424.8,3620.1,859.2,0,3486,36218922385408,93,0, 
1.9400,525.9,-270.6,-12.6,23.7,-4728.3,-260.4,642.3,-232.8,-30381.0,482.7,-1903.8,-628.8,-505.5,-4757.1,-9830.1,-432.3,-7.2,-6.3,-2295.6,-774.3,-0.9,547.8,-7551.0,796.2,0,3492,36218922385408,94,0, 
1.9433,513.0,-284.4,-25.2,19.8,-9819.9,-355.5,648.0,-9830.1,-97515.6,495.3,-8014.5,-8741.1,-783.0,-9827.4,-9794.4,-9830.1,-6.9,-6.3,-9830.1,-9830.1,-0.9,561.9,-9830.1,762.0,0,3498,36218922385408,95,0, 
1.9467,461.7,-263.7,-46.8,-42.3,-6798.0,-195.0,585.3,-8161.5,-77212.2,372.9,-4671.0,-4642.8,-470.4,-9827.4,-9830.1,-8213.1,-6.9,-6.0,-7773.9,-7575.3,-0.9,435.3,-7006.8,804.6,0,3504,36218922385408,96,0, 
1.9500,433.5,-249.6,-58.8,-79.5,7096.5,5.1,539.4,7026.9,2815.8,285.0,2904.3,5243.7,-16.5,3617.7,-9606.0,6891.0,-6.6,-6.0,5970.3,6535.5,-0.6,345.9,4720.8,849.0,0,3510,36218922385408,97,0, 
1.9533,474.0,-256.5,-40.2,-38.1,8910.3,-42.0,574.2,9830.1,31863.0,353.1,4761.6,7722.0,-39.3,9827.1,-8833.2,9830.1,-7.5,-6.6,9830.1,9830.1,-0.9,411.0,3727.8,843.9,0,3516,36218922385408,98,0, 
1.9567,518.7,-285.9,-23.4,18.0,-4585.8,-271.5,636.3,155.4,-29121.3,469.8,-1717.5,-714.9,-520.2,-4425.0,-9830.1,-95.7,-7.2,-6.0,-1885.5,-425.7,-0.9,529.8,-7519.2,788.4,0,3522,36218922385408,99,0, 
1.9600,507.9,-303.0,-28.5,12.6,-9819.9,-366.6,646.8,-9830.1,-96255.9,485.4,-7747.2,-8791.2,-791.7,-9827.4,-9755.1,-9830.1,-6.9,-6.0,-9830.1,-9830.1,-0.9,540.6,-9830.1,755.7,0,3528,36218922385408,100,0, 
1.9633,455.4,-278.7,-54.0,-46.8,-6761.1,-200.4,586.5,-8027.7,-76323.0,372.9,-4456.5,-4679.4,-486.0,-9822.3,-9830.1,-8105.4,-6.9,-6.0,-7642.5,-7444.2,-0.3,420.9,-7009.5,793.8,0,3534,36218922385408,101,0, 
1.9667,434.7,-250.8,-61.8,-86.4,7105.8,0.6,543.0,7184.7,3853.2,293.4,3167.4,5239.2,-16.8,3637.5,-9527.4,7023.9,-6.9,-6.3,6106.2,6571.8,-0.6,332.1,4734.0,839.7,0,3540,36218922385408,102,0, 
1.9700,481.2,-248.4,-35.4,-41.1,8959.2,-34.8,577.8,9830.1,33048.6,359.4,5019.9,7842.0,-29.1,9827.1,-8542.5,9830.1,-6.9,-6.0,9830.1,9830.1,-0.9,396.6,3773.1,836.1,0,3546,36218922385408,103,0, 
1.9733,526.5,-282.9,-16.5,17.1,-4485.6,-277.2,641.4,409.2,-28009.8,481.2,-1414.5,-531.3,-512.4,-4320.3,-9830.1,96.6,-7.2,-5.4,-1861.8,-307.2,-0.9,519.6,-7425.6,780.3,0,3552,36218922385408,104,0, 
1.9767,508.8,-301.8,-30.0,9.0,-9819.9,-381.0,643.8,-9830.1,-95144.4,477.9,-7509.3,-8484.6,-794.7,-9827.4,-9736.2,-9830.1,-6.9,-5.7,-9830.1,-9830.1,-0.6,522.3,-9830.1,748.2,0,3558,36218922385408,105,0, 
1.9800,452.1,-288.0,-54.3,-53.4,-6676.8,-210.0,585.9,-7976.7,-75137.4,351.0,-4337.1,-4527.6,-487.8,-9803.4,-9830.1,-8055.6,-6.6,-6.0,-7668.9,-7371.6,-0.6,411.9,-6956.4,791.7,0,3564,36218922385408,106,0, 
1.9833,432.6,-254.7,-56.7,-78.3,7139.4,-3.3,540.6,7231.2,4520.1,260.7,3232.2,5203.5,-26.1,3662.7,-9447.3,7050.0,-7.2,-6.0,6019.8,6689.4,-1.2,336.6,4671.0,841.5,0,3570,36218922385408,107,0, 
1.9867,472.2,-254.7,-30.9,-37.2,9002.4,-46.8,578.1,9830.1,33493.2,333.6,5144.4,7818.9,-56.7,9827.1,-8119.5,9830.1,-7.2,-6.0,9830.1,9830.1,-0.6,417.9,3733.2,856.2,0,3576,36218922385408,108,0, 
1.9900,519.0,-278.4,-8.1,27.6,-4469.4,-272.7,649.5,446.1,-27713.4,456.0,-1365.6,-454.8,-529.5,-4365.3,-9830.1,168.9,-6.9,-6.3,-1876.5,-70.5,-0.6,558.0,-7494.6,810.9,0,3582,36218922385408,109,0, 
1.9933,507.0,-292.8,-18.0,20.4,-9819.9,-366.0,648.0,-9830.1,-95144.4,474.3,-7579.5,-8622.6,-801.9,-9827.4,-9685.8,-9830.1,-6.6,-6.0,-9830.1,-9830.1,-0.6,570.6,-9830.1,785.7,0,3588,36218922385408,110,0, 
1.9967,450.6,-272.7,-35.4,-41.4,-6824.4,-204.0,583.5,-8099.4,-76100.7,358.8,-4363.5,-4555.5,-486.6,-9827.4,-9830.1,-8170.5,-6.9,-6.3,-7835.7,-7455.3,-0.6,449.4,-7071.3,812.1,0,3594,36218922385408,111,0, 
2.0000,427.5,-251.1,-46.2,-75.3,7012.2,-7.2,538.5,7022.4,3260.4,283.2,3169.5,5162.1,-19.5,3342.0,-9529.2,6879.0,-6.9,-5.7,5773.8,6514.5,-0.6,363.3,4569.6,865.8,0,3600,36218922385408,112,0, 
2.0033,472.2,-236.1,-23.1,-25.2,8889.6,-52.2,577.2,9830.1,32085.3,361.5,4850.7,7718.4,-43.2,9827.1,-8457.9,9830.1,-7.2,-5.7,9830.1,9830.1,-0.9,439.5,3615.9,863.4,0,3606,36218922385408,113,0, 
2.0067,522.3,-270.3,-3.3,34.8,-4613.1,-279.6,641.1,73.5,-29417.7,492.0,-1575.0,-393.3,-513.9,-4806.9,-9830.1,-215.4,-6.9,-6.3,-2300.7,-388.5,-0.9,566.7,-7571.1,806.7,0,3612,36218922385408,114,0, 
2.0100,513.9,-279.9,-11.4,32.1,-9819.9,-388.8,645.9,-9830.1,-97145.1,506.7,-7869.6,-8631.6,-780.6,-9827.4,-9708.3,-9830.1,-6.9,-6.3,-9830.1,-9830.1,-0.3,580.8,-9830.1,777.0,0,3618,36218922385408,115,0, 
2.0133,455.7,-260.4,-46.2,-37.5,-7019.4,-222.0,572.4,-8307.6,-78397.8,381.0,-4612.5,-4775.7,-496.2,-9827.4,-9830.1,-8372.1,-6.9,-6.0,-8025.0,-7638.3,-0.6,447.6,-7198.8,799.8,0,3624,36218922385408,116,0, 
2.0167,436.8,-241.2,-45.6,-64.5,6815.1,-20.7,539.7,6732.0,815.1,305.1,3086.7,5107.8,-11.4,2683.2,-9644.4,6586.5,-6.6,-6.3,5550.0,6300.0,-1.2,363.9,4399.2,860.1,0,3630,36218922385408,117,0, 
2.0200,482.4,-240.6,-20.1,-18.6,8790.3,-62.4,570.9,9830.1,29788.2,371.1,4743.6,7527.0,-38.4,9827.1,-8900.1,9830.1,-6.9,-5.7,9830.1,9830.1,-1.2,428.7,3516.6,856.2,0,3636,36218922385408,118,0, 
2.0233,525.6,-271.5,-12.3,29.7,-4814.7,-297.6,633.9,-323.1,-31566.6,482.4,-1632.3,-546.0,-519.9,-5420.7,-9830.1,-547.2,-6.9,-6.0,-2558.1,-747.6,-0.3,546.0,-7594.2,801.6,0,3642,36218922385408,119,0, 
2.0267,513.0,-292.8,-25.2,21.3,-9819.9,-405.6,638.4,-9830.1,-99738.6,486.0,-7994.7,-8819.1,-801.6,-9827.4,-9731.1,-9830.1,-6.9,-5.7,-9830.1,-9830.1,-0.6,551.1,-9830.1,759.3,0,3648,36218922385408,120,0, 
2.0300,460.2,-266.4,-53.4,-42.6,-7151.7,-228.3,583.8,-8520.9,-81213.6,374.7,-4871.1,-4761.3,-487.5,-9827.4,-9830.1,-8568.3,-6.9,-6.6,-8175.0,-7801.5,-0.9,433.5,-7263.3,804.9,0,3654,36218922385408,121,0, 
2.0333,436.8,-247.2,-63.9,-78.6,6661.2,-31.2,536.1,6447.6,-2074.8,286.2,2763.9,5022.0,-36.0,2189.7,-9784.5,6308.7,-6.6,-6.0,5292.9,6133.8,-0.6,349.2,4319.7,853.2,0,3660,36218922385408,122,0, 
