Time,P3,C3,F3,Fz,F4,C4,P4,Cz,CM,A1,Fp1,Fp2,T3,T5,O1,O2,X3,X2,F7,F8,X1,A2,T6,T4,Trigger,Time_Offset,ADC_Status,ADC_Sequence,Event,Comments
0.0033,-103.2,-355.2,-31.2,229.8,42.6,-71.1,-400.2,150.6,-1185.6,-473.4,457.5,355.2,-1118.1,-1336.2,-627.6,23.4,-6.6,-6.0,18.6,-1471.8,-0.6,-183.9,-588.9,-59.4,0,6,0,169,0, 
0.0067,-101.4,-351.9,-21.6,234.9,55.2,-69.9,-397.8,153.3,-1111.5,-471.9,462.6,359.7,-1115.1,-1325.4,-624.0,27.0,-6.9,-5.7,18.0,-1468.2,-0.6,-186.3,-591.3,-66.6,0,12,0,170,0, 
0.0100,-98.7,-344.1,-12.0,243.3,63.6,-60.0,-390.0,165.0,-889.2,-465.6,464.4,363.0,-1112.4,-1338.9,-627.0,29.4,-7.2,-6.0,23.7,-1463.4,-0.6,-182.7,-581.1,-46.2,0,18,0,171,0, 
0.0133,-99.6,-345.6,-20.4,234.9,51.9,-77.4,-389.7,157.8,-1037.4,-467.4,460.2,351.0,-1111.2,-1338.9,-630.0,36.6,-6.9,-5.4,23.4,-1479.0,-0.6,-182.1,-580.5,-50.7,0,24,0,172,0, 
0.0167,-100.2,-343.2,-11.4,240.6,61.2,-63.3,-384.9,165.0,-1111.5,-462.9,468.3,366.0,-1110.0,-1343.4,-636.9,44.7,-7.2,-6.0,26.4,-1470.0,-0.3,-175.5,-572.4,-53.1,0,30,0,173,0, 
0.0200,-99.0,-343.2,-17.7,239.4,68.1,-60.9,-384.6,163.2,-1259.7,-465.6,460.5,362.1,-1109.7,-1330.5,-622.8,57.9,-6.9,-6.0,20.7,-1475.1,-0.9,-180.6,-572.7,-37.2,0,36,0,174,0, 
0.0233,-101.4,-340.2,-8.7,241.5,67.8,-61.8,-386.1,161.4,-1111.5,-466.2,466.8,372.0,-1112.4,-1340.7,-621.9,68.7,-6.3,-5.7,22.8,-1458.0,-0.9,-168.6,-564.9,-42.9,0,42,0,175,0, 
0.0267,-104.7,-342.0,-4.2,251.1,87.6,-41.1,-381.6,168.3,-963.3,-459.0,477.9,376.2,-1109.1,-1347.9,-632.4,66.0,-6.6,-5.7,29.4,-1464.3,-0.9,-173.4,-561.9,-34.8,0,48,0,176,0, 
0.0300,-106.2,-344.1,-9.6,234.9,51.6,-69.3,-387.0,160.5,-889.2,-455.7,476.1,373.8,-1108.8,-1338.0,-627.6,66.6,-7.2,-6.0,31.5,-1463.7,-0.6,-167.1,-564.3,-40.8,0,54,0,177,0, 
0.0333,-107.1,-351.6,-21.3,228.9,55.5,-65.7,-384.9,159.6,-1185.6,-461.4,468.0,362.7,-1112.7,-1347.6,-628.2,71.4,-6.9,-5.7,25.8,-1479.6,-0.3,-177.9,-564.9,-43.2,0,60,0,178,0, 
0.0367,-109.5,-358.5,-35.4,222.6,52.5,-68.1,-382.8,154.8,-1185.6,-460.8,459.6,359.1,-1118.4,-1347.0,-632.1,67.8,-6.9,-6.0,14.4,-1485.3,-0.3,-177.0,-570.6,-45.0,0,66,0,179,0, 
0.0400,-113.1,-363.3,-36.6,217.5,45.9,-69.9,-386.1,151.8,-1037.4,-477.3,451.2,349.8,-1127.1,-1347.3,-634.5,59.1,-6.6,-6.0,13.5,-1495.2,-0.9,-183.9,-580.8,-43.5,0,72,0,180,0, 
0.0433,-113.1,-364.8,-32.7,219.3,54.6,-61.2,-386.1,151.5,-889.2,-471.9,447.0,355.2,-1132.2,-1351.2,-636.0,54.6,-6.6,-6.3,9.6,-1486.2,-0.6,-183.3,-581.4,-46.2,0,78,0,181,0, 
0.0467,-117.3,-371.7,-36.9,213.0,48.6,-64.8,-388.8,149.1,-963.3,-486.6,446.1,349.5,-1136.1,-1346.7,-621.0,49.5,-6.6,-6.3,4.8,-1493.7,-1.2,-192.0,-585.9,-50.1,0,84,0,182,0, 
0.0500,-128.1,-379.5,-47.7,202.8,33.6,-87.6,-395.7,139.2,-1185.6,-476.7,442.2,345.6,-1142.7,-1359.3,-640.8,45.0,-6.9,-6.3,-6.3,-1493.7,-0.6,-187.5,-588.0,-56.7,0,90,0,183,0, 
0.0533,-123.0,-366.9,-27.6,226.5,70.8,-49.5,-384.3,154.2,-1259.7,-456.9,467.1,369.9,-1131.0,-1384.8,-671.1,49.5,-6.9,-6.3,19.5,-1471.5,-0.9,-170.7,-574.2,-21.0,0,96,0,184,0, 
0.0567,-121.8,-370.2,-29.1,217.5,53.1,-69.0,-386.7,146.4,-1037.4,-468.0,460.8,363.9,-1137.3,-1375.8,-651.0,63.6,-7.2,-6.3,8.7,-1478.7,-0.9,-177.6,-575.4,-43.2,0,102,0,185,0, 
0.0600,-118.2,-366.0,-30.6,223.8,60.3,-73.5,-391.5,144.9,-1037.4,-467.4,459.3,353.7,-1131.0,-1361.7,-645.9,41.1,-7.2,-6.3,12.3,-1488.3,-0.9,-179.1,-586.2,-45.6,0,108,0,186,0, 
0.0633,-110.7,-363.0,-29.7,219.9,65.7,-69.9,-392.1,146.1,-1037.4,-474.0,450.6,354.9,-1127.7,-1350.6,-637.8,40.2,-6.9,-6.0,6.9,-1488.3,-0.9,-185.4,-585.3,-43.2,0,114,0,187,0, 
0.0667,-107.7,-355.5,-33.3,219.9,58.8,-72.6,-395.1,151.2,-1185.6,-465.6,457.8,360.3,-1123.8,-1355.4,-639.3,33.9,-7.2,-6.3,12.9,-1478.7,-0.6,-175.8,-583.2,-38.1,0,120,0,188,0, 
0.0700,-104.4,-352.8,-27.6,213.9,47.7,-72.6,-393.9,149.4,-1185.6,-470.4,455.4,363.6,-1122.0,-1352.7,-633.0,38.7,-6.9,-6.0,9.0,-1473.0,-0.6,-177.9,-590.4,-38.1,0,126,0,189,0, 
0.0733,-101.7,-351.3,-32.7,219.9,55.5,-68.7,-396.9,149.1,-1037.4,-466.2,463.8,365.7,-1121.4,-1350.0,-633.9,34.2,-6.9,-5.7,22.2,-1472.4,-0.3,-180.0,-592.5,-39.9,0,132,0,190,0, 
0.0767,-95.1,-350.4,-27.6,218.1,51.9,-73.5,-399.0,149.1,-889.2,-471.9,455.7,357.6,-1118.4,-1342.8,-622.8,29.4,-7.2,-6.0,10.5,-1476.9,-0.3,-182.1,-588.9,-44.7,0,138,0,191,0, 
0.0800,-96.6,-350.4,-32.4,215.1,47.4,-67.8,-397.5,143.1,-963.3,-470.1,451.2,351.9,-1121.7,-1342.8,-628.8,24.6,-6.6,-6.0,6.3,-1484.1,-0.3,-183.9,-587.1,-49.2,0,144,0,192,0, 
0.0833,-89.4,-349.2,-30.3,215.1,47.1,-71.4,-399.3,152.1,-1259.7,-469.2,458.7,362.7,-1119.3,-1334.7,-618.6,34.5,-6.9,-6.3,9.9,-1474.2,-0.9,-181.2,-583.8,-37.5,0,150,0,193,0, 
0.0867,-86.7,-338.7,-22.8,224.4,53.4,-64.5,-393.9,156.9,-1111.5,-467.4,459.6,365.4,-1111.5,-1334.1,-618.0,28.2,-6.6,-5.7,16.2,-1470.6,-0.9,-175.8,-582.6,-32.7,0,156,0,194,0, 
0.0900,-84.6,-345.3,-27.9,222.3,51.0,-63.6,-396.3,156.0,-963.3,-471.3,452.1,359.1,-1114.8,-1333.8,-612.3,27.0,-6.9,-6.0,6.6,-1473.9,-0.9,-183.9,-581.7,-36.6,0,162,0,195,0, 
0.0933,-87.6,-342.6,-18.3,228.9,59.4,-56.7,-392.7,158.1,-963.3,-468.9,456.9,369.6,-1113.9,-1337.7,-618.9,27.9,-6.9,-6.0,15.0,-1463.7,-0.6,-172.5,-581.1,-28.2,0,168,0,196,0, 
0.0967,-89.7,-346.2,-20.4,227.4,63.0,-52.5,-390.0,155.4,-889.2,-462.9,458.1,366.6,-1118.7,-1338.0,-619.2,39.6,-6.9,-5.4,17.7,-1467.3,-0.3,-170.4,-573.3,-26.4,0,174,0,197,0, 
0.1000,-90.6,-343.2,-14.1,230.7,67.8,-50.1,-381.0,161.7,-1185.6,-455.4,465.9,368.1,-1111.5,-1336.8,-618.9,47.7,-6.6,-6.3,28.5,-1467.9,-0.9,-168.9,-561.9,-22.5,0,180,0,198,0, 
0.1033,-95.4,-354.9,-25.5,217.2,56.7,-59.7,-387.9,152.1,-1259.7,-466.2,458.7,355.2,-1117.8,-1345.8,-621.9,58.5,-7.2,-6.0,14.4,-1487.1,-0.6,-176.4,-569.7,-32.4,0,186,0,199,0, 
0.1067,-98.7,-355.2,-28.5,219.9,56.4,-63.9,-383.4,147.9,-1111.5,-466.5,462.6,362.4,-1118.1,-1329.3,-613.8,63.6,-6.9,-6.0,16.5,-1469.4,-0.6,-176.1,-563.7,-26.1,0,192,0,200,0, 
0.1100,-99.9,-350.4,-22.2,223.2,61.2,-57.6,-382.2,152.1,-889.2,-457.8,471.0,374.7,-1116.3,-1343.1,-616.8,73.2,-7.2,-6.0,27.3,-1457.7,-0.3,-162.0,-555.9,-24.3,0,198,0,201,0, 
0.1133,-99.3,-349.2,-19.2,229.2,69.6,-53.4,-377.7,155.4,-963.3,-453.0,477.3,382.8,-1112.1,-1338.6,-614.7,77.7,-6.6,-5.7,27.0,-1453.5,-0.9,-164.1,-551.7,-18.0,0,204,0,202,0, 
0.1167,-105.0,-352.2,-20.7,219.6,57.3,-63.9,-390.0,148.2,-1037.4,-465.3,460.2,363.6,-1116.6,-1348.2,-618.0,73.2,-7.2,-5.4,7.8,-1471.2,-0.9,-174.0,-559.2,-32.4,0,210,0,203,0, 
0.1200,-101.7,-352.8,-16.2,222.0,59.7,-59.1,-381.6,155.4,-1259.7,-460.2,460.8,367.8,-1112.4,-1349.4,-617.4,81.0,-6.9,-6.0,21.9,-1471.2,-0.6,-174.6,-560.4,-29.4,0,216,0,204,0, 
0.1233,-107.4,-358.8,-34.2,220.8,56.7,-63.0,-384.0,150.6,-1111.5,-465.9,458.7,373.2,-1121.4,-1368.9,-627.6,75.0,-7.2,-6.0,13.5,-1464.9,-0.9,-168.0,-565.2,-32.1,0,222,0,205,0, 
0.1267,-101.1,-351.9,-21.3,225.0,60.6,-62.1,-376.8,154.2,-889.2,-465.3,462.6,370.2,-1118.7,-1372.5,-634.8,83.4,-6.6,-5.7,14.7,-1464.6,-0.9,-169.5,-563.7,-31.5,0,228,0,206,0, 
0.1300,-112.8,-357.0,-31.5,217.2,51.0,-69.3,-381.9,145.8,-1037.4,-476.7,448.5,356.4,-1125.9,-1377.9,-640.2,67.5,-7.2,-6.0,4.8,-1476.6,-0.9,-186.0,-574.8,-41.1,0,234,0,207,0, 
0.1333,-112.8,-352.5,-27.3,220.5,54.3,-65.1,-379.8,155.7,-1259.7,-469.8,456.0,361.2,-1119.0,-1373.1,-633.6,74.7,-6.9,-5.7,9.0,-1471.2,-0.9,-180.0,-575.1,-37.5,0,240,0,208,0, 
0.1367,-110.1,-352.8,-29.7,220.8,53.4,-62.4,-385.8,154.5,-1259.7,-475.2,456.6,366.0,-1121.7,-1378.5,-633.9,68.4,-6.6,-5.7,6.9,-1467.0,-1.2,-182.7,-581.4,-38.1,0,246,0,209,0, 
0.1400,-104.4,-352.5,-31.5,219.9,50.7,-64.2,-382.2,150.9,-1037.4,-471.6,453.6,363.6,-1120.8,-1360.8,-630.0,69.9,-6.9,-6.0,6.6,-1470.9,-0.9,-183.9,-577.2,-37.2,0,252,0,210,0, 
0.1433,-113.1,-353.7,-32.1,214.2,52.8,-65.4,-385.8,147.3,-1037.4,-471.9,450.0,365.4,-1126.5,-1383.0,-642.9,59.7,-6.6,-5.7,10.5,-1463.4,-0.9,-183.9,-577.8,-39.9,0,258,0,211,0, 
0.1467,-114.6,-356.7,-27.9,219.0,51.9,-58.5,-382.2,151.5,-1111.5,-468.0,455.4,366.0,-1128.0,-1381.8,-640.8,65.7,-6.9,-6.0,7.2,-1463.7,-0.6,-174.3,-573.0,-30.3,0,264,0,212,0, 
0.1500,-114.0,-358.5,-35.4,214.2,48.3,-63.6,-384.3,143.4,-1185.6,-478.5,450.3,361.2,-1127.1,-1373.4,-637.2,64.5,-6.9,-6.0,3.0,-1467.3,-0.9,-183.6,-573.0,-35.1,0,270,0,213,0, 
0.1533,-109.2,-347.1,-29.1,221.4,50.4,-62.4,-384.0,147.9,-1185.6,-476.1,453.9,365.7,-1122.0,-1365.3,-637.5,57.9,-6.9,-6.3,5.4,-1465.2,-0.6,-182.1,-576.0,-38.4,0,276,0,214,0, 
0.1567,-99.0,-339.0,-24.9,227.7,58.8,-57.6,-381.3,155.7,-1111.5,-472.5,455.4,369.9,-1109.7,-1347.6,-627.0,69.3,-6.9,-5.7,6.0,-1461.3,-0.9,-178.5,-567.0,-34.2,0,282,0,215,0, 
0.1600,-106.2,-344.4,-31.2,223.2,51.6,-61.5,-382.8,152.4,-889.2,-480.3,436.2,355.2,-1117.5,-1344.9,-628.5,57.9,-6.6,-6.0,-7.8,-1478.7,-0.9,-187.2,-573.9,-42.0,0,288,0,216,0, 
0.1633,-100.2,-335.7,-21.6,230.1,60.9,-51.0,-379.5,158.7,-741.0,-468.3,449.1,365.4,-1110.6,-1351.2,-630.6,74.1,-6.9,-6.3,4.5,-1468.5,-0.6,-178.2,-567.3,-31.2,0,294,0,217,0, 
0.1667,-102.6,-343.2,-27.3,225.0,58.5,-56.1,-382.5,152.7,-1185.6,-467.4,457.8,369.3,-1111.8,-1348.5,-627.9,63.6,-6.6,-6.0,7.2,-1466.4,-0.6,-180.9,-578.1,-33.6,0,300,0,218,0, 
0.1700,-99.9,-342.3,-27.3,225.6,57.9,-56.4,-384.6,155.1,-1259.7,-473.7,459.0,369.6,-1113.6,-1350.6,-621.0,56.4,-7.2,-6.0,3.9,-1464.3,-0.9,-176.4,-578.1,-31.5,0,306,0,219,0, 
0.1733,-101.4,-350.4,-36.6,222.3,56.1,-58.5,-388.5,153.9,-1037.4,-478.5,444.0,360.3,-1119.0,-1339.5,-616.5,54.6,-6.6,-5.7,-8.4,-1476.3,-0.6,-182.4,-578.7,-37.2,0,312,0,220,0, 
0.1767,-96.9,-345.9,-29.7,231.3,66.9,-51.6,-377.4,160.8,-815.1,-468.6,456.3,365.7,-1113.0,-1345.2,-618.9,60.9,-6.3,-5.7,7.5,-1469.1,-0.6,-173.4,-567.3,-27.3,0,318,0,221,0, 
0.1800,-97.5,-340.2,-28.8,234.0,66.3,-47.7,-374.1,163.8,-963.3,-469.8,454.2,366.0,-1109.7,-1346.1,-623.7,57.6,-6.6,-6.0,6.9,-1472.7,-0.6,-172.5,-570.9,-29.1,0,324,0,222,0, 
0.1833,-101.1,-347.7,-28.2,226.8,55.5,-56.1,-386.1,157.5,-1111.5,-478.8,449.4,360.9,-1116.9,-1348.8,-623.4,51.9,-7.2,-6.0,0.6,-1477.5,-1.2,-180.0,-572.7,-30.9,0,330,0,223,0, 
0.1867,-96.0,-342.3,-21.0,232.8,60.9,-54.3,-381.3,162.9,-1333.8,-469.2,450.0,364.5,-1111.8,-1345.2,-624.9,54.6,-6.9,-6.0,4.5,-1473.0,-0.9,-178.2,-574.2,-31.2,0,336,0,224,0, 
0.1900,-96.6,-344.1,-23.4,235.8,63.0,-53.7,-384.0,160.8,-1037.4,-474.0,448.2,367.5,-1113.6,-1347.3,-616.8,54.9,-6.6,-5.7,0.9,-1467.9,-0.6,-171.9,-574.8,-30.0,0,342,0,225,0, 
0.1933,-94.2,-339.9,-18.6,242.7,68.7,-50.1,-378.6,168.0,-815.1,-464.7,454.8,374.7,-1106.7,-1348.2,-622.2,70.5,-6.6,-6.3,9.0,-1456.5,-0.9,-169.2,-565.8,-24.9,0,348,0,226,0, 
0.1967,-96.0,-339.3,-18.0,241.8,66.9,-51.9,-380.7,166.5,-963.3,-467.1,456.0,375.9,-1105.8,-1350.6,-621.6,60.9,-6.9,-6.0,5.7,-1457.1,-0.6,-167.4,-562.8,-27.3,0,354,0,227,0, 
0.2000,-92.4,-331.8,-15.6,247.2,72.9,-46.2,-372.6,174.0,-1259.7,-460.2,464.1,380.1,-1098.3,-1345.8,-625.2,64.8,-6.9,-6.0,14.1,-1453.5,-0.6,-163.8,-558.9,-21.0,0,360,0,228,0, 
0.2033,-89.7,-330.0,-13.2,245.1,70.5,-49.8,-374.7,175.2,-1259.7,-463.5,467.7,379.5,-1104.0,-1333.2,-615.3,69.6,-6.3,-5.4,18.9,-1457.7,-0.9,-164.1,-553.8,-26.1,0,366,0,229,0, 
0.2067,-90.9,-330.9,-10.8,242.1,67.5,-51.9,-378.6,170.7,-963.3,-459.9,465.0,370.8,-1100.7,-1326.3,-615.0,75.6,-7.2,-6.0,21.0,-1467.6,-0.3,-171.9,-554.7,-29.1,0,372,0,230,0, 
0.2100,-95.1,-337.8,-17.1,243.6,69.6,-49.5,-374.7,169.2,-889.2,-461.1,465.6,376.8,-1105.2,-1345.5,-620.4,76.8,-6.6,-5.4,17.1,-1458.3,-0.9,-161.1,-554.7,-28.8,0,378,0,231,0, 
0.2133,-96.3,-336.9,-15.3,244.2,71.4,-49.5,-375.0,172.5,-1037.4,-461.1,468.9,381.3,-1105.5,-1341.3,-613.5,83.1,-6.9,-6.0,19.5,-1449.0,-0.9,-167.1,-550.8,-26.1,0,384,0,232,0, 
0.2167,-101.1,-338.7,-18.6,241.8,73.8,-48.3,-372.0,170.4,-1111.5,-463.2,465.3,387.3,-1106.1,-1348.2,-623.1,80.4,-6.9,-6.0,23.7,-1445.7,-0.9,-161.7,-555.0,-23.7,0,390,0,233,0, 
0.2200,-109.2,-344.7,-23.7,238.5,67.2,-48.6,-372.9,164.7,-1185.6,-468.0,461.1,382.5,-1108.2,-1357.5,-631.8,80.4,-6.9,-5.4,15.6,-1454.4,-0.6,-166.5,-558.3,-24.9,0,396,0,234,0, 
0.2233,-113.1,-350.7,-37.5,227.4,57.9,-56.1,-372.0,159.9,-1037.4,-472.5,442.2,362.7,-1120.2,-1360.8,-635.4,74.4,-6.6,-5.7,-1.2,-1469.4,-0.6,-175.8,-562.8,-33.6,0,402,0,235,0, 
0.2267,-112.5,-357.3,-34.5,223.5,52.2,-59.7,-371.1,152.4,-815.1,-473.7,443.1,360.9,-1117.8,-1362.3,-626.4,85.2,-6.9,-6.0,0.0,-1472.4,-0.3,-180.3,-564.9,-34.5,0,408,0,236,0, 
0.2300,-112.8,-354.3,-24.0,226.8,57.3,-53.7,-375.6,156.3,-963.3,-461.4,456.0,369.0,-1116.3,-1377.6,-637.5,84.6,-6.9,-5.7,11.1,-1468.8,-0.6,-173.4,-562.8,-33.0,0,414,0,237,0, 
0.2333,-120.3,-361.2,-33.3,219.0,51.6,-62.7,-383.1,147.6,-1259.7,-468.6,449.7,360.3,-1118.1,-1382.4,-636.9,78.0,-6.9,-5.4,9.0,-1473.6,-0.9,-177.9,-570.0,-39.0,0,420,0,238,0, 
0.2367,-112.2,-357.9,-33.3,219.9,56.1,-60.3,-375.6,148.8,-1259.7,-471.6,449.4,367.2,-1114.2,-1367.1,-621.0,78.9,-6.9,-5.7,10.8,-1463.7,-0.9,-172.8,-572.1,-35.7,0,426,0,239,0, 
0.2400,-112.8,-355.8,-33.0,218.7,57.3,-63.6,-378.9,149.1,-1037.4,-478.5,455.4,374.4,-1115.1,-1348.5,-609.9,75.6,-6.9,-6.0,9.0,-1454.7,-0.6,-177.3,-576.3,-36.0,0,432,0,240,0, 
0.2433,-113.7,-355.5,-28.8,229.2,66.0,-54.9,-380.4,153.6,-963.3,-466.5,460.8,383.4,-1113.3,-1368.3,-633.0,75.3,-6.3,-6.0,14.7,-1445.1,-0.3,-169.8,-562.2,-30.0,0,438,0,241,0, 
0.2467,-110.1,-350.1,-24.3,229.8,66.3,-55.2,-378.3,153.9,-1037.4,-464.1,457.8,378.3,-1107.9,-1362.0,-639.9,76.2,-6.6,-6.0,15.6,-1450.5,-0.6,-165.0,-563.4,-30.9,0,444,0,242,0, 
0.2500,-108.9,-345.3,-20.7,234.6,67.8,-52.2,-376.8,152.7,-1259.7,-467.4,460.8,381.6,-1106.1,-1358.1,-639.6,71.7,-6.3,-6.0,19.8,-1450.8,-1.2,-169.2,-562.8,-31.5,0,450,0,243,0, 
0.2533,-104.7,-342.0,-17.7,235.5,68.4,-54.6,-380.4,157.5,-1259.7,-469.8,452.7,377.7,-1102.5,-1355.1,-645.0,63.9,-6.6,-6.0,14.4,-1448.7,-0.6,-169.8,-569.1,-32.4,0,456,0,244,0, 
0.2567,-102.3,-343.8,-21.0,233.4,62.1,-57.9,-386.7,153.3,-1111.5,-477.0,447.3,373.5,-1103.4,-1349.1,-631.5,60.3,-6.3,-5.7,5.1,-1457.4,-0.9,-180.0,-576.6,-36.6,0,462,0,245,0, 
0.2600,-97.2,-347.4,-21.9,230.7,61.2,-58.8,-389.4,154.2,-963.3,-474.6,437.7,367.8,-1107.3,-1337.7,-620.1,57.9,-6.6,-6.3,-0.3,-1461.0,-0.6,-174.9,-568.8,-39.3,0,468,0,246,0, 
0.2633,-87.6,-334.2,-7.5,243.6,72.6,-49.5,-383.1,159.9,-1037.4,-458.7,463.5,388.5,-1092.0,-1336.2,-609.9,66.0,-6.9,-5.7,36.9,-1445.1,-0.6,-160.2,-566.4,-28.2,0,474,0,247,0, 
0.2667,-85.5,-332.1,-2.4,249.0,79.8,-49.8,-387.9,165.9,-1259.7,-453.3,476.7,396.0,-1089.6,-1331.4,-607.8,61.8,-6.3,-6.0,43.2,-1434.6,-0.6,-158.4,-565.5,-25.2,0,480,0,248,0, 
0.2700,-87.6,-331.5,-6.3,245.7,72.3,-51.9,-390.0,166.2,-1185.6,-455.4,481.5,395.1,-1090.5,-1325.7,-603.6,59.7,-6.9,-6.0,38.7,-1437.9,-0.6,-161.7,-573.3,-27.6,0,486,0,249,0, 
0.2733,-90.0,-330.3,-7.8,246.6,74.7,-49.8,-383.7,166.2,-1037.4,-452.1,478.8,398.7,-1093.8,-1328.1,-606.9,54.0,-7.2,-6.0,30.3,-1431.3,-0.6,-152.4,-570.6,-22.8,0,492,0,250,0, 
0.2767,-84.9,-320.7,6.9,260.7,84.9,-34.2,-371.1,176.1,-1037.4,-437.4,485.4,411.6,-1085.1,-1324.5,-620.7,66.9,-6.9,-5.7,39.9,-1417.5,-0.9,-140.1,-552.3,-9.3,0,498,0,251,0, 
0.2800,-95.7,-332.1,-0.6,253.8,78.3,-40.2,-376.2,168.3,-963.3,-439.8,482.4,401.7,-1093.5,-1341.9,-623.4,60.9,-7.2,-5.7,35.4,-1425.6,-0.9,-142.8,-553.5,-10.8,0,504,0,252,0, 
0.2833,-91.8,-333.9,-2.4,249.0,74.1,-41.1,-374.4,167.1,-1259.7,-445.2,477.6,396.3,-1091.7,-1342.8,-615.0,78.6,-6.9,-6.0,38.7,-1431.6,-0.9,-144.9,-553.5,-13.5,0,510,0,253,0, 
0.2867,-94.8,-338.1,-9.9,239.1,64.5,-45.9,-381.0,162.3,-1185.6,-445.5,473.4,388.8,-1095.9,-1331.7,-612.9,76.5,-7.2,-5.7,38.4,-1441.2,-0.9,-151.2,-561.0,-20.4,0,516,0,254,0, 
0.2900,-92.4,-337.5,-8.4,240.6,67.8,-44.4,-379.2,159.3,-1111.5,-446.1,475.8,394.8,-1090.8,-1324.2,-606.6,88.5,-6.6,-6.0,42.6,-1434.0,-0.6,-145.8,-546.9,-14.4,0,522,0,255,0, 
0.2933,-98.4,-342.3,-14.7,238.2,64.5,-46.8,-378.9,156.9,-889.2,-449.1,470.1,395.4,-1097.1,-1332.0,-606.0,95.4,-6.6,-5.7,36.0,-1429.8,-0.9,-147.6,-545.4,-17.4,0,528,0,0,0, 
0.2967,-94.5,-339.6,-23.1,240.0,71.4,-45.3,-377.4,155.4,-963.3,-451.2,469.8,402.6,-1095.0,-1331.1,-605.7,89.7,-6.9,-6.0,36.0,-1423.2,-0.9,-141.9,-549.6,-15.0,0,534,0,1,0, 
0.3000,-94.8,-339.3,-8.1,236.7,63.9,-51.9,-381.3,152.4,-1111.5,-452.1,461.4,389.1,-1090.2,-1326.3,-601.2,88.8,-7.2,-6.0,25.2,-1434.9,-0.9,-154.2,-549.9,-20.1,0,540,0,2,0, 
0.3033,-99.0,-346.2,-21.3,227.1,53.4,-56.7,-387.0,141.6,-1333.8,-458.1,455.7,377.4,-1097.1,-1334.7,-605.7,83.7,-6.9,-6.0,26.1,-1446.3,-0.6,-159.9,-559.8,-29.1,0,546,0,3,0, 
0.3067,-107.1,-348.6,-21.3,224.1,52.5,-59.7,-387.9,143.1,-889.2,-458.1,466.5,386.4,-1105.2,-1359.0,-625.2,86.7,-6.9,-6.0,31.2,-1441.2,-0.3,-157.8,-549.9,-27.9,0,552,0,4,0, 
0.3100,-108.0,-349.5,-21.9,222.0,48.6,-59.7,-386.1,141.0,-815.1,-463.8,459.9,381.0,-1104.3,-1356.3,-623.7,89.1,-6.9,-5.7,30.3,-1449.6,-0.3,-165.9,-560.1,-32.7,0,558,0,5,0, 
0.3133,-111.3,-350.4,-21.3,221.7,51.0,-60.0,-383.1,145.2,-889.2,-462.3,448.5,376.5,-1111.5,-1368.6,-629.4,84.9,-6.6,-5.7,27.0,-1449.0,-1.2,-164.1,-561.3,-29.7,0,564,0,6,0, 
0.3167,-122.4,-354.0,-30.9,216.9,49.8,-59.4,-386.4,145.5,-1185.6,-468.3,449.4,375.3,-1118.4,-1370.7,-630.6,81.9,-6.9,-6.3,22.8,-1446.6,-0.6,-167.7,-561.9,-31.8,0,570,0,7,0, 
0.3200,-126.3,-355.5,-25.8,219.9,52.2,-60.0,-387.6,144.6,-1185.6,-477.9,449.4,375.0,-1125.3,-1377.9,-644.4,72.6,-6.6,-5.7,18.9,-1450.8,-0.9,-172.5,-570.0,-33.6,0,576,0,8,0, 
0.3233,-131.4,-360.3,-31.5,210.3,45.3,-65.1,-390.6,143.1,-1037.4,-486.3,441.9,364.8,-1130.1,-1379.7,-647.4,66.0,-6.9,-6.0,5.7,-1459.5,-0.6,-180.6,-581.4,-46.2,0,582,0,9,0, 
0.3267,-122.4,-358.5,-29.4,216.0,48.6,-57.9,-382.5,148.5,-963.3,-477.9,446.4,366.0,-1127.1,-1375.8,-640.8,68.4,-6.9,-6.0,14.4,-1452.3,-0.6,-174.3,-581.1,-38.4,0,588,0,10,0, 
0.3300,-128.4,-363.3,-33.0,209.1,46.2,-65.4,-391.2,141.3,-889.2,-483.6,449.7,369.9,-1134.9,-1374.3,-633.0,66.6,-6.9,-6.3,19.2,-1453.5,-0.6,-183.0,-582.3,-44.1,0,594,0,11,0, 
0.3333,-126.6,-359.7,-30.3,212.1,45.6,-64.8,-394.8,140.4,-1185.6,-485.7,454.2,375.0,-1132.8,-1374.6,-631.2,62.4,-7.2,-6.0,26.4,-1449.6,-0.3,-183.6,-584.1,-45.3,0,600,0,12,0, 
0.3367,-117.0,-347.1,-16.8,226.8,58.5,-51.0,-387.3,158.1,-1037.4,-471.9,460.2,381.9,-1118.4,-1370.4,-642.6,58.5,-6.6,-6.0,33.3,-1442.4,-0.6,-171.0,-577.5,-31.5,0,606,0,13,0, 
0.3400,-119.1,-348.3,-20.1,229.5,61.2,-53.4,-384.3,160.8,-1111.5,-471.3,455.7,380.1,-1119.3,-1384.8,-653.7,56.7,-6.9,-5.7,27.3,-1441.5,-0.6,-168.6,-576.0,-32.4,0,612,0,14,0, 
0.3433,-114.0,-345.3,-17.4,232.8,62.4,-47.7,-381.9,165.9,-889.2,-467.4,455.4,381.3,-1116.0,-1370.7,-652.8,59.7,-6.6,-5.7,26.1,-1442.7,-0.6,-165.6,-577.5,-28.5,0,618,0,15,0, 
0.3467,-111.3,-345.3,-18.0,228.6,57.9,-54.0,-388.2,158.4,-1037.4,-470.1,450.0,372.9,-1116.0,-1369.2,-648.9,52.5,-6.9,-6.0,22.2,-1445.1,-0.6,-168.9,-588.3,-32.1,0,624,0,16,0, 
0.3500,-110.7,-343.5,-14.7,233.4,58.8,-53.7,-383.1,159.3,-1259.7,-465.0,458.1,382.2,-1110.0,-1364.4,-640.2,52.8,-6.9,-5.7,30.6,-1443.0,-0.9,-165.3,-585.0,-31.8,0,630,0,17,0, 
0.3533,-105.9,-341.7,-14.7,232.2,60.9,-55.5,-393.0,157.5,-1259.7,-460.5,472.5,390.3,-1102.8,-1351.5,-633.0,48.0,-6.9,-6.0,47.7,-1431.3,-1.2,-161.4,-585.9,-31.5,0,636,0,18,0, 
0.3567,-111.6,-345.9,-23.7,230.1,57.6,-57.0,-393.9,155.4,-1037.4,-457.5,463.5,386.4,-1106.4,-1359.3,-640.5,48.6,-7.5,-6.3,44.4,-1436.7,-0.3,-163.5,-586.8,-33.0,0,642,0,19,0, 
0.3600,-111.0,-348.3,-18.6,228.9,58.8,-59.7,-396.0,151.8,-963.3,-460.8,465.9,383.7,-1113.6,-1365.6,-635.4,50.1,-6.9,-6.0,38.7,-1437.9,-0.6,-159.3,-587.1,-33.9,0,648,0,20,0, 
0.3633,-104.7,-347.7,-19.8,231.6,59.7,-57.3,-393.6,156.6,-963.3,-462.3,471.3,389.7,-1110.0,-1356.0,-624.6,55.2,-7.2,-5.7,40.8,-1435.5,-0.3,-158.4,-579.3,-32.1,0,654,0,21,0, 
0.3667,-104.4,-342.0,-15.9,231.3,60.3,-53.4,-396.0,158.1,-1185.6,-465.6,470.1,388.5,-1111.2,-1348.5,-614.4,60.3,-7.2,-6.3,38.7,-1433.7,-0.9,-157.8,-572.4,-27.0,0,660,0,22,0, 
0.3700,-107.7,-345.0,-19.5,227.4,52.2,-60.9,-400.2,149.7,-1333.8,-465.9,447.0,373.8,-1111.8,-1350.9,-615.3,57.3,-6.6,-5.7,23.1,-1445.4,-0.9,-161.7,-579.6,-29.1,0,666,0,23,0, 
0.3733,-99.3,-339.9,-16.2,231.9,60.0,-50.7,-395.1,156.0,-963.3,-459.9,457.2,383.1,-1104.3,-1350.3,-618.3,64.5,-6.6,-6.0,35.1,-1435.2,-1.2,-153.3,-568.2,-21.0,0,672,0,24,0, 
0.3767,-108.6,-340.2,-16.8,234.6,61.8,-48.0,-390.3,152.4,-889.2,-453.3,472.2,396.3,-1103.1,-1361.4,-631.5,70.2,-6.9,-5.7,46.2,-1425.3,-0.9,-151.5,-570.6,-18.9,0,678,0,25,0, 
0.3800,-106.2,-336.0,-10.5,240.3,70.5,-42.9,-389.7,156.9,-889.2,-450.9,481.2,402.9,-1097.7,-1359.3,-621.6,78.6,-6.9,-6.6,54.6,-1418.7,-0.9,-149.4,-566.7,-13.5,0,684,0,26,0, 
0.3833,-101.4,-333.9,-8.4,242.7,72.3,-43.2,-388.2,157.8,-1185.6,-454.5,478.2,401.4,-1100.7,-1359.9,-615.6,84.9,-7.2,-6.0,50.4,-1420.2,-0.9,-148.5,-564.3,-17.1,0,690,0,27,0, 
0.3867,-96.6,-329.4,-5.1,246.3,77.4,-35.4,-378.6,163.8,-1037.4,-447.3,477.9,398.1,-1092.6,-1356.0,-619.8,88.8,-6.9,-6.3,50.1,-1424.7,-0.6,-143.1,-556.5,-13.8,0,696,0,28,0, 
0.3900,-97.2,-330.3,-5.4,243.9,75.3,-35.4,-378.3,164.4,-1111.5,-453.6,473.7,399.9,-1096.5,-1358.1,-612.9,89.4,-6.9,-6.3,44.7,-1422.9,-0.6,-145.2,-556.5,-11.7,0,702,0,29,0, 
0.3933,-98.4,-329.4,-3.9,243.3,73.8,-39.3,-379.2,163.2,-889.2,-457.8,471.9,397.5,-1095.3,-1352.4,-613.2,85.8,-7.2,-6.0,42.3,-1423.5,-0.6,-153.6,-561.9,-16.5,0,708,0,30,0, 
0.3967,-102.9,-331.8,0.6,249.9,73.5,-42.9,-381.3,164.4,-963.3,-457.8,470.7,402.3,-1101.0,-1364.4,-619.2,84.6,-6.6,-6.3,49.8,-1417.5,-0.3,-150.6,-558.6,-15.3,0,714,0,31,0, 
0.4000,-103.8,-323.1,6.6,255.0,78.6,-35.7,-377.7,168.3,-1037.4,-448.8,486.3,414.3,-1089.6,-1369.2,-625.5,88.8,-6.9,-6.0,58.8,-1411.2,-0.6,-145.5,-551.7,-9.9,0,720,0,32,0, 
0.4033,-108.9,-327.3,6.3,253.5,77.4,-37.2,-381.3,167.1,-963.3,-442.8,485.4,404.1,-1089.3,-1368.6,-632.7,84.9,-7.2,-6.3,55.5,-1424.7,-0.9,-149.1,-552.3,-12.6,0,726,0,33,0, 
0.4067,-114.3,-331.5,2.4,251.7,76.8,-37.8,-380.7,167.7,-1037.4,-448.2,490.5,408.3,-1095.6,-1365.6,-627.0,87.0,-6.6,-6.0,55.5,-1417.2,-0.9,-147.9,-556.8,-12.3,0,732,0,34,0, 
0.4100,-122.7,-339.0,-6.3,244.5,69.3,-43.2,-385.2,158.4,-963.3,-455.7,482.4,399.3,-1108.5,-1369.2,-631.5,89.1,-6.3,-5.7,48.3,-1423.8,-0.3,-156.6,-565.2,-20.4,0,738,0,35,0, 
0.4133,-123.6,-338.7,-6.3,247.5,74.7,-42.0,-383.1,163.2,-889.2,-454.5,476.1,403.8,-1108.5,-1372.5,-631.2,87.9,-6.9,-5.7,46.8,-1419.0,-0.3,-152.1,-562.5,-15.9,0,744,0,36,0, 
0.4167,-121.2,-340.5,-7.8,242.7,69.3,-47.7,-386.4,154.5,-1185.6,-458.1,467.1,397.8,-1111.2,-1370.1,-629.1,89.1,-6.9,-5.7,40.8,-1426.8,-0.3,-159.0,-575.1,-23.1,0,750,0,37,0, 
0.4200,-121.5,-339.3,-0.3,249.0,75.3,-42.3,-381.9,159.6,-1185.6,-449.4,484.2,408.0,-1107.3,-1389.0,-636.9,86.1,-6.6,-5.7,50.7,-1413.3,-0.9,-148.5,-573.9,-16.5,0,756,0,38,0, 
0.4233,-127.5,-343.8,-5.1,239.1,70.5,-49.2,-388.5,154.8,-1111.5,-459.3,479.7,399.6,-1113.9,-1389.9,-643.8,86.7,-6.9,-6.3,47.7,-1421.4,-1.5,-155.7,-577.8,-25.2,0,762,0,39,0, 
0.4267,-127.2,-343.5,-13.8,237.9,67.8,-47.4,-389.4,154.2,-815.1,-455.4,485.7,401.1,-1107.6,-1383.6,-639.6,80.1,-7.5,-5.7,54.6,-1418.1,-0.9,-161.4,-576.6,-26.7,0,768,0,40,0, 
0.4300,-124.5,-342.9,-3.9,234.6,66.3,-47.4,-391.5,154.5,-963.3,-457.5,472.8,391.2,-1107.3,-1382.4,-640.2,84.0,-6.9,-5.7,42.9,-1425.0,-1.2,-162.3,-575.1,-27.9,0,774,0,41,0, 
0.4333,-118.8,-337.8,-6.6,242.7,70.2,-47.1,-393.9,160.2,-1111.5,-453.0,475.2,402.3,-1101.3,-1372.5,-639.6,72.3,-6.9,-6.3,47.1,-1415.1,-0.6,-156.3,-584.4,-20.7,0,780,0,42,0, 
0.4367,-114.0,-334.5,0.0,251.1,72.6,-42.9,-392.1,167.7,-1111.5,-449.4,476.4,404.1,-1102.2,-1366.5,-644.1,78.0,-6.9,-5.7,51.0,-1416.6,-0.9,-154.2,-585.6,-19.8,0,786,0,43,0, 
0.4400,-109.8,-333.3,1.8,253.2,78.0,-40.5,-391.2,172.5,-1111.5,-449.1,491.1,413.7,-1105.5,-1371.6,-638.1,70.2,-6.9,-6.0,58.8,-1410.6,-0.6,-151.2,-580.5,-21.0,0,792,0,44,0, 
0.4433,-108.3,-334.2,-1.2,248.1,74.1,-44.1,-385.8,168.9,-741.0,-455.7,490.5,410.1,-1108.2,-1360.8,-631.5,68.1,-7.2,-5.4,51.3,-1418.1,-0.9,-159.6,-590.1,-23.4,0,798,0,45,0, 
0.4467,-105.0,-338.7,-2.1,243.9,72.9,-43.8,-393.9,165.3,-889.2,-459.3,487.5,408.9,-1109.1,-1363.5,-629.1,63.3,-6.9,-5.7,53.1,-1416.9,-0.6,-158.4,-579.3,-24.0,0,804,0,46,0, 
0.4500,-105.3,-332.4,2.1,251.1,81.0,-34.8,-387.3,175.2,-1037.4,-453.6,490.2,409.5,-1104.6,-1352.1,-627.3,67.5,-7.2,-5.7,60.6,-1414.5,-0.6,-150.9,-576.0,-15.0,0,810,0,47,0, 
0.4533,-103.5,-334.5,-5.1,246.6,72.6,-41.1,-397.8,165.9,-1185.6,-461.4,474.9,403.2,-1109.4,-1354.5,-623.4,58.5,-6.9,-6.0,51.0,-1421.1,-0.6,-160.5,-583.8,-24.3,0,816,0,48,0, 
0.4567,-100.8,-329.4,0.9,253.2,85.2,-30.3,-391.8,174.6,-1111.5,-454.5,482.7,408.6,-1102.2,-1353.9,-627.6,60.6,-6.9,-5.7,50.1,-1414.5,-0.6,-150.3,-570.0,-12.3,0,822,0,49,0, 
0.4600,-104.7,-330.0,0.9,255.0,86.1,-32.4,-392.7,172.2,-666.9,-450.3,489.0,408.9,-1104.6,-1361.7,-632.1,62.7,-6.9,-6.0,52.8,-1409.4,-0.9,-149.4,-572.1,-11.7,0,828,0,50,0, 
0.4633,-101.7,-321.9,10.8,258.6,94.5,-25.2,-387.6,179.1,-963.3,-436.2,502.8,423.3,-1094.1,-1351.2,-622.5,69.6,-6.6,-5.7,68.4,-1398.0,-0.6,-138.0,-564.6,-5.7,0,834,0,51,0, 
0.4667,-97.8,-314.7,17.1,265.2,99.3,-20.4,-383.7,184.5,-1111.5,-426.0,516.9,432.9,-1086.9,-1352.1,-621.3,73.8,-6.3,-6.0,83.7,-1390.5,-0.9,-131.1,-561.0,-2.1,0,840,0,52,0, 
0.4700,-92.4,-312.6,18.9,267.6,96.6,-18.3,-389.1,185.4,-1037.4,-425.7,510.6,432.6,-1080.9,-1343.1,-612.0,79.2,-6.6,-5.4,80.7,-1389.9,-0.6,-130.5,-555.9,-2.1,0,846,0,53,0, 
0.4733,-97.8,-321.9,6.3,254.7,84.6,-30.3,-397.8,174.0,-1037.4,-439.8,495.0,417.3,-1090.2,-1345.2,-614.4,78.3,-6.6,-6.0,65.4,-1405.5,-0.9,-141.9,-563.1,-12.9,0,852,0,54,0, 
0.4767,-100.5,-328.2,3.0,252.9,80.1,-34.5,-394.2,174.0,-889.2,-447.9,481.2,407.4,-1095.0,-1337.4,-609.0,77.1,-7.2,-5.4,56.7,-1415.1,-0.6,-147.3,-563.7,-14.4,0,858,0,55,0, 
0.4800,-93.9,-321.9,9.0,261.0,87.6,-28.5,-384.9,181.5,-963.3,-435.9,492.9,411.9,-1089.3,-1344.6,-609.6,80.1,-6.6,-6.0,60.0,-1406.7,-0.9,-136.5,-547.2,-5.4,0,864,0,56,0, 
0.4833,-99.3,-323.1,-3.3,252.6,82.2,-33.3,-388.5,177.6,-1185.6,-439.8,492.3,409.2,-1093.2,-1344.3,-606.9,88.5,-6.9,-6.0,63.6,-1411.5,-0.9,-141.0,-550.8,-6.0,0,870,0,57,0, 
0.4867,-102.3,-325.5,-0.3,247.8,75.6,-37.2,-392.1,172.2,-1037.4,-441.9,483.0,402.6,-1096.2,-1344.6,-618.3,82.2,-6.9,-6.0,60.6,-1419.3,-0.6,-145.8,-556.5,-15.9,0,876,0,58,0, 
0.4900,-102.9,-326.1,1.2,246.3,75.6,-39.9,-390.3,168.0,-963.3,-446.7,485.4,406.8,-1099.8,-1342.2,-613.5,86.7,-6.9,-5.4,60.6,-1417.5,-0.6,-150.3,-555.0,-19.2,0,882,0,59,0, 
0.4933,-102.3,-328.2,-5.4,240.9,69.9,-41.1,-386.1,164.4,-963.3,-451.2,483.0,401.7,-1102.2,-1344.3,-613.2,87.6,-6.6,-5.7,54.0,-1430.4,-0.6,-156.6,-557.7,-20.7,0,888,0,60,0, 
0.4967,-105.0,-330.9,-1.2,241.5,72.0,-39.6,-380.4,166.8,-963.3,-453.0,481.8,399.6,-1101.3,-1356.0,-616.5,90.6,-6.9,-6.0,50.7,-1427.4,-0.6,-155.7,-557.7,-21.3,0,894,0,61,0, 
0.5000,-109.2,-328.5,-5.1,243.3,75.3,-36.6,-378.9,165.3,-1111.5,-451.5,484.5,399.9,-1103.4,-1366.5,-619.8,98.7,-6.9,-6.0,53.7,-1431.9,-0.9,-154.2,-557.4,-18.9,0,900,0,62,0, 
0.5033,-111.3,-329.1,2.1,246.3,76.5,-35.4,-379.5,166.2,-1185.6,-449.7,485.1,408.3,-1107.0,-1369.8,-631.5,95.4,-7.2,-5.7,53.4,-1422.9,-0.3,-149.1,-555.3,-16.5,0,906,0,63,0, 
0.5067,-110.4,-330.3,1.2,248.4,80.7,-31.5,-376.8,171.3,-1037.4,-449.7,484.2,408.9,-1110.0,-1369.8,-631.8,103.2,-6.9,-6.0,52.2,-1418.4,-0.3,-147.9,-553.2,-10.8,0,912,0,64,0, 
0.5100,-117.3,-333.0,-0.9,248.4,77.7,-30.9,-373.8,169.5,-889.2,-451.2,483.0,406.5,-1113.6,-1365.6,-629.4,95.7,-6.9,-6.3,47.1,-1419.9,-0.9,-150.6,-557.4,-12.6,0,918,0,65,0, 
0.5133,-123.9,-340.2,-10.5,240.0,71.7,-36.3,-381.0,164.4,-1037.4,-457.5,478.5,401.4,-1121.4,-1369.2,-632.7,92.4,-6.9,-6.0,44.4,-1423.5,-0.6,-156.0,-559.2,-18.0,0,924,0,66,0, 
0.5167,-115.5,-331.2,-2.1,250.8,80.1,-29.4,-370.2,169.8,-1111.5,-450.0,488.7,412.8,-1110.9,-1365.6,-623.7,99.3,-7.2,-6.0,58.8,-1414.8,-0.6,-150.0,-554.1,-13.2,0,930,0,67,0, 
0.5200,-114.6,-334.5,0.0,250.2,82.8,-31.5,-373.2,171.6,-1037.4,-447.9,492.6,414.0,-1112.1,-1376.4,-628.8,100.5,-6.9,-6.0,63.6,-1413.9,-0.6,-152.1,-558.0,-12.6,0,936,0,68,0, 
0.5233,-119.7,-333.0,-2.1,250.5,81.3,-32.4,-378.3,171.0,-889.2,-450.3,493.5,412.2,-1113.0,-1380.3,-628.2,90.6,-6.9,-6.3,57.9,-1415.7,-0.9,-146.1,-561.9,-17.4,0,942,0,69,0, 
0.5267,-113.7,-330.0,3.3,252.0,85.2,-30.3,-372.3,179.1,-963.3,-453.0,489.3,412.8,-1112.7,-1374.3,-639.3,90.3,-6.9,-5.1,55.2,-1417.8,-1.2,-146.7,-553.2,-9.0,0,948,0,70,0, 
0.5300,-115.8,-328.2,4.2,252.6,84.9,-32.1,-379.5,179.1,-889.2,-454.2,478.8,403.8,-1111.5,-1375.5,-645.9,83.4,-6.9,-5.7,46.5,-1424.1,-0.9,-148.2,-557.4,-8.7,0,954,0,71,0, 
0.5333,-108.9,-322.8,7.5,255.0,85.5,-30.3,-385.5,180.3,-1037.4,-449.7,478.2,408.3,-1103.4,-1377.0,-642.3,72.9,-7.2,-6.0,46.8,-1419.0,-0.6,-141.9,-561.6,-7.2,0,960,0,72,0, 
0.5367,-103.8,-320.7,11.1,257.4,85.2,-28.8,-379.2,178.2,-1185.6,-445.5,491.7,415.5,-1096.8,-1362.6,-629.1,80.7,-6.9,-6.3,57.3,-1410.0,-0.9,-141.0,-553.2,-6.0,0,966,0,73,0, 
0.5400,-100.5,-319.2,8.1,255.6,87.9,-25.8,-381.9,178.8,-963.3,-442.2,509.4,429.3,-1098.6,-1353.6,-628.2,72.0,-7.5,-5.7,74.1,-1397.7,-0.9,-137.7,-556.8,-4.8,0,972,0,74,0, 
0.5433,-98.4,-322.2,0.3,248.7,85.2,-33.6,-387.9,174.0,-815.1,-449.1,500.1,420.6,-1094.4,-1340.1,-613.5,72.0,-6.9,-6.0,62.4,-1412.7,-0.6,-145.5,-563.1,-11.7,0,978,0,75,0, 
0.5467,-98.1,-323.4,12.0,250.5,84.9,-30.9,-382.2,174.3,-1037.4,-447.0,479.7,411.0,-1092.9,-1345.8,-618.0,69.6,-6.6,-5.7,54.9,-1418.1,-1.2,-145.2,-558.3,-10.2,0,984,0,76,0, 
0.5500,-96.9,-321.3,4.2,247.2,84.9,-30.6,-383.1,173.4,-1111.5,-441.9,483.6,412.5,-1093.2,-1351.2,-620.7,72.6,-7.2,-6.0,55.8,-1417.2,-0.3,-139.8,-554.4,-6.6,0,990,0,77,0, 
0.5533,-96.6,-319.5,9.9,251.7,82.5,-30.0,-379.2,174.9,-1037.4,-441.0,497.1,418.2,-1093.2,-1344.0,-618.3,72.3,-6.9,-6.0,65.1,-1414.2,-0.6,-142.8,-556.8,-6.6,0,996,0,78,0, 
0.5567,-98.4,-321.3,6.6,250.8,85.2,-35.4,-387.0,171.3,-963.3,-439.2,494.1,414.3,-1091.4,-1345.5,-615.0,79.2,-6.9,-6.0,61.8,-1416.6,-0.9,-143.7,-557.7,-9.0,0,1002,0,79,0, 
0.5600,-102.0,-322.5,8.1,249.6,81.6,-39.3,-384.0,166.8,-963.3,-440.7,498.9,417.0,-1094.4,-1340.4,-612.6,78.9,-6.9,-6.3,65.7,-1417.2,-0.6,-148.5,-552.3,-12.9,0,1008,0,80,0, 
0.5633,-95.1,-318.6,6.6,248.4,82.8,-33.9,-377.7,173.1,-963.3,-443.7,497.4,414.0,-1088.1,-1327.5,-607.2,94.2,-7.2,-5.7,63.9,-1420.5,-0.9,-144.9,-543.9,-7.5,0,1014,0,81,0, 
0.5667,-96.0,-318.9,7.8,251.7,82.5,-30.3,-378.0,174.6,-1111.5,-438.3,495.6,412.5,-1086.9,-1340.4,-604.8,104.4,-6.9,-6.0,61.8,-1424.4,-1.2,-146.1,-535.2,-6.9,0,1020,0,82,0, 
0.5700,-104.4,-320.4,5.1,248.4,82.2,-30.0,-371.4,172.5,-1037.4,-445.8,482.1,402.6,-1092.9,-1354.8,-618.0,106.2,-6.6,-6.3,47.7,-1431.6,-0.6,-145.8,-534.3,-8.7,0,1026,0,83,0, 
0.5733,-106.2,-325.8,2.1,243.9,81.3,-33.0,-375.0,169.8,-963.3,-449.7,473.7,398.4,-1099.2,-1356.6,-621.0,101.7,-6.6,-6.0,37.5,-1436.1,-0.6,-154.5,-541.5,-11.7,0,1032,0,84,0, 
0.5767,-108.6,-326.7,-0.9,242.4,79.8,-32.7,-373.5,170.4,-889.2,-452.4,473.1,397.5,-1098.6,-1356.6,-619.2,102.3,-6.6,-6.0,38.1,-1435.5,-0.9,-153.3,-545.7,-12.9,0,1038,0,85,0, 
0.5800,-107.7,-324.6,5.1,244.2,82.8,-36.0,-378.6,171.9,-1037.4,-444.6,488.4,406.2,-1091.4,-1350.9,-616.2,104.4,-6.6,-6.0,55.5,-1427.4,-0.3,-156.3,-550.2,-12.3,0,1044,0,86,0, 
0.5833,-109.2,-329.1,-3.6,237.0,74.4,-39.6,-386.4,169.5,-1185.6,-451.2,482.7,401.1,-1096.2,-1360.8,-613.8,110.4,-6.6,-5.7,51.6,-1432.8,-0.3,-159.0,-561.9,-20.4,0,1050,0,87,0, 
0.5867,-114.0,-330.6,-3.9,242.4,77.4,-39.0,-384.0,171.0,-1111.5,-454.2,482.1,404.4,-1105.8,-1365.3,-616.8,105.3,-6.6,-5.7,50.1,-1432.5,-0.9,-165.3,-562.2,-23.4,0,1056,0,88,0, 
0.5900,-118.2,-340.2,-18.0,231.0,62.7,-48.6,-387.9,162.9,-1259.7,-473.1,467.1,389.4,-1116.3,-1375.5,-617.1,100.5,-6.6,-5.4,32.4,-1447.2,-1.2,-176.1,-571.2,-32.4,0,1062,0,89,0, 
0.5933,-121.5,-348.0,-27.3,223.8,59.1,-56.4,-396.9,159.3,-889.2,-487.2,447.6,373.2,-1124.4,-1374.3,-621.0,89.7,-6.9,-6.0,11.1,-1461.6,-0.9,-190.2,-573.3,-40.8,0,1068,0,90,0, 
0.5967,-122.7,-349.2,-27.9,224.4,58.5,-56.1,-399.3,154.2,-1037.4,-489.9,449.7,372.9,-1125.0,-1362.3,-617.4,82.2,-6.6,-5.4,18.9,-1462.5,-0.3,-186.3,-579.0,-43.5,0,1074,0,91,0, 
0.6000,-125.4,-341.7,-15.6,236.1,73.2,-46.2,-392.4,160.8,-1259.7,-475.8,466.2,390.9,-1124.4,-1385.7,-626.4,86.1,-7.2,-5.7,38.1,-1448.1,-0.6,-172.2,-573.0,-30.6,0,1080,0,92,0, 
0.6033,-130.8,-337.5,-6.9,249.6,82.8,-38.1,-385.2,167.7,-1037.4,-468.0,478.8,403.8,-1120.2,-1404.3,-646.8,89.7,-6.9,-6.0,51.0,-1439.4,-0.9,-160.8,-565.8,-20.1,0,1086,0,93,0, 
0.6067,-125.4,-333.3,1.8,250.5,84.9,-36.0,-384.9,170.7,-889.2,-469.2,480.3,407.4,-1120.8,-1399.8,-638.4,93.9,-6.9,-6.0,49.2,-1433.1,-0.9,-160.8,-561.6,-18.0,0,1092,0,94,0, 
0.6100,-124.8,-330.9,5.1,250.8,85.8,-34.2,-379.8,172.5,-741.0,-463.2,482.1,403.5,-1113.6,-1389.9,-640.5,90.0,-6.9,-6.3,48.6,-1435.8,-0.9,-158.7,-560.4,-14.1,0,1098,0,95,0, 
0.6133,-129.3,-332.1,0.9,248.1,81.0,-35.1,-385.2,169.8,-963.3,-466.5,477.3,399.6,-1117.8,-1389.3,-639.0,89.4,-6.9,-6.0,38.1,-1441.2,-0.9,-168.0,-557.7,-17.1,0,1104,0,96,0, 
0.6167,-125.7,-331.8,3.9,245.7,76.5,-39.9,-391.8,168.9,-1185.6,-465.0,476.1,396.0,-1114.5,-1388.1,-632.4,84.3,-7.2,-6.0,40.5,-1446.3,-0.6,-167.1,-559.8,-18.9,0,1110,0,97,0, 
0.6200,-121.5,-324.9,11.7,251.1,81.0,-37.8,-389.7,172.5,-1111.5,-453.9,492.9,406.8,-1101.3,-1382.1,-631.5,84.9,-6.3,-5.7,57.9,-1435.8,-0.6,-161.1,-561.3,-19.2,0,1116,0,98,0, 
0.6233,-114.0,-312.6,25.5,259.8,92.7,-27.6,-378.6,176.1,-1037.4,-437.1,508.2,420.0,-1089.6,-1366.2,-634.5,80.4,-6.9,-6.0,74.4,-1424.7,-0.6,-149.7,-559.8,-8.4,0,1122,0,99,0, 
0.6267,-109.8,-309.3,25.2,262.5,96.3,-23.4,-374.7,177.6,-815.1,-440.4,509.1,420.6,-1083.6,-1354.8,-633.6,90.9,-6.3,-6.0,75.3,-1424.1,-0.6,-148.8,-555.0,-6.6,0,1128,0,100,0, 
0.6300,-114.3,-320.7,7.5,252.0,84.9,-33.0,-383.1,171.6,-963.3,-450.9,489.6,409.2,-1096.8,-1367.4,-623.7,82.5,-7.2,-5.7,59.4,-1433.4,-0.3,-159.0,-561.6,-17.4,0,1134,0,101,0, 
0.6333,-105.3,-309.3,18.3,264.0,94.2,-21.6,-376.8,180.6,-1111.5,-435.6,500.7,420.0,-1082.7,-1368.3,-633.9,84.9,-6.6,-6.0,68.7,-1423.8,-0.6,-151.2,-556.5,-7.2,0,1140,0,102,0, 
0.6367,-104.7,-316.5,12.9,255.9,89.7,-27.0,-383.4,181.2,-1185.6,-441.0,487.2,403.8,-1085.4,-1356.9,-625.5,80.4,-6.9,-5.7,56.7,-1437.0,-1.2,-156.0,-561.6,-12.9,0,1146,0,103,0, 
0.6400,-105.3,-319.8,6.0,254.4,89.4,-32.1,-386.7,174.6,-889.2,-447.3,489.3,406.2,-1085.4,-1354.2,-616.8,82.2,-6.9,-5.7,57.9,-1434.3,-0.6,-158.7,-564.9,-16.5,0,1152,0,104,0, 
0.6433,-101.4,-318.0,13.5,256.5,94.2,-28.8,-385.2,177.0,-815.1,-435.0,500.7,415.8,-1087.2,-1364.7,-621.6,85.2,-7.2,-6.0,71.1,-1422.9,-0.9,-141.9,-554.4,-8.7,0,1158,0,105,0, 
0.6467,-101.1,-320.7,4.5,249.6,83.7,-35.7,-386.4,171.0,-963.3,-446.1,491.4,409.8,-1094.1,-1356.6,-611.4,87.3,-6.6,-6.3,61.8,-1430.7,-0.9,-150.9,-562.8,-16.5,0,1164,0,106,0, 
0.6500,-102.0,-323.1,2.4,248.7,82.2,-32.7,-383.7,174.3,-1111.5,-448.5,481.8,400.8,-1097.7,-1360.8,-614.7,87.9,-6.9,-5.4,52.8,-1437.3,-0.9,-152.7,-555.0,-19.2,0,1170,0,107,0, 
0.6533,-104.4,-322.8,4.8,250.8,86.1,-33.3,-381.3,174.9,-1185.6,-447.0,495.6,410.4,-1098.6,-1365.3,-623.7,88.8,-6.6,-6.0,61.2,-1430.4,-0.9,-150.3,-551.1,-17.4,0,1176,0,108,0, 
0.6567,-105.3,-327.9,4.8,244.8,78.9,-39.0,-383.4,170.1,-815.1,-448.5,486.3,404.4,-1103.4,-1361.1,-614.4,86.4,-7.2,-6.0,54.6,-1439.4,-0.9,-158.4,-555.0,-24.6,0,1182,0,109,0, 
0.6600,-112.2,-332.1,-10.2,234.0,62.4,-47.4,-384.6,161.7,-963.3,-465.3,460.5,380.1,-1108.2,-1363.2,-617.4,84.0,-6.9,-6.0,39.3,-1464.6,-0.6,-175.5,-561.0,-33.0,0,1188,0,110,0, 
0.6633,-111.6,-335.7,-18.6,228.0,58.5,-48.0,-383.1,161.7,-889.2,-466.8,454.5,369.0,-1113.9,-1365.3,-628.2,90.6,-6.6,-5.4,28.5,-1474.2,-0.9,-171.3,-554.7,-31.5,0,1194,0,111,0, 
0.6667,-107.4,-334.8,-13.8,230.1,64.5,-43.5,-377.7,162.9,-1185.6,-465.3,457.5,383.7,-1111.8,-1358.7,-621.3,96.3,-6.6,-5.7,33.6,-1457.7,-0.3,-165.3,-552.3,-26.7,0,1200,0,112,0, 
0.6700,-108.9,-334.2,-13.5,233.4,64.2,-43.5,-373.8,159.0,-1259.7,-460.8,471.6,391.2,-1111.5,-1363.2,-621.6,98.1,-7.2,-6.0,42.9,-1451.4,-0.9,-165.0,-552.6,-25.2,0,1206,0,113,0, 
0.6733,-121.5,-346.2,-24.6,220.2,57.3,-48.6,-375.3,154.2,-963.3,-474.0,461.4,380.7,-1124.1,-1370.4,-631.8,96.0,-6.6,-6.0,27.6,-1460.7,-0.6,-171.3,-555.9,-31.5,0,1212,0,114,0, 
0.6767,-118.2,-336.0,-15.3,227.4,63.3,-43.5,-372.3,155.7,-815.1,-459.3,465.6,384.0,-1113.0,-1368.9,-629.7,93.9,-6.6,-6.3,36.3,-1455.3,-0.6,-166.2,-557.7,-24.9,0,1218,0,115,0, 
0.6800,-117.3,-334.8,-18.0,230.1,71.7,-42.3,-373.8,156.9,-963.3,-461.4,474.3,389.7,-1112.7,-1369.2,-622.8,99.3,-6.6,-5.4,42.9,-1451.4,-0.9,-165.0,-552.9,-22.2,0,1224,0,116,0, 
0.6833,-114.0,-332.4,-13.8,233.4,71.4,-36.9,-370.5,159.6,-1259.7,-459.3,477.6,392.7,-1105.5,-1358.4,-615.9,105.6,-6.9,-5.7,44.4,-1449.6,-0.6,-170.7,-555.3,-21.6,0,1230,0,117,0, 
0.6867,-125.4,-336.3,-16.2,233.7,76.2,-39.0,-377.1,160.2,-1037.4,-455.7,480.0,399.3,-1114.2,-1382.7,-639.0,96.0,-6.9,-5.4,47.4,-1440.6,-0.9,-161.7,-558.6,-20.7,0,1236,0,118,0, 
0.6900,-126.6,-343.8,-27.3,227.7,69.9,-45.6,-380.1,154.8,-1111.5,-471.9,469.2,387.6,-1124.4,-1379.7,-632.1,92.1,-6.9,-6.3,30.6,-1452.9,-0.3,-173.4,-563.4,-32.7,0,1242,0,119,0, 
0.6933,-127.2,-344.1,-32.4,221.7,62.1,-51.9,-386.4,158.7,-889.2,-481.8,454.8,377.1,-1127.7,-1374.9,-626.7,90.0,-6.9,-5.4,18.6,-1460.4,-0.6,-178.2,-570.6,-37.5,0,1248,0,120,0, 
0.6967,-128.1,-342.9,-26.1,223.2,69.0,-49.2,-379.5,161.4,-1037.4,-468.0,464.1,383.1,-1121.7,-1380.3,-635.4,82.2,-7.2,-6.0,27.3,-1456.8,-0.6,-175.8,-564.0,-31.8,0,1254,0,121,0, 
0.7000,-124.8,-337.2,-17.4,230.1,69.3,-45.6,-381.9,162.0,-1111.5,-462.6,477.9,390.0,-1117.8,-1377.0,-630.9,87.6,-7.2,-5.7,44.7,-1452.9,-0.9,-174.3,-565.5,-28.8,0,1260,0,122,0, 
0.7033,-119.7,-329.1,-4.5,243.6,82.5,-32.4,-377.7,175.5,-1259.7,-446.7,495.6,411.3,-1108.2,-1379.1,-645.0,92.7,-6.6,-6.0,64.2,-1430.4,-0.3,-156.3,-560.4,-17.7,0,1266,0,123,0, 
0.7067,-117.6,-326.4,-6.6,247.2,83.1,-35.1,-372.0,180.3,-963.3,-444.9,489.6,406.5,-1108.5,-1379.7,-641.1,94.8,-6.6,-5.7,52.8,-1434.3,-0.6,-154.8,-556.8,-18.0,0,1272,0,124,0, 
0.7100,-119.7,-334.5,-13.5,240.3,76.8,-39.0,-378.0,174.3,-815.1,-456.6,472.8,396.6,-1107.9,-1374.6,-642.3,80.1,-6.6,-5.7,35.4,-1443.9,-0.9,-159.0,-557.1,-22.8,0,1278,0,125,0, 
0.7133,-115.2,-335.1,-18.3,233.7,70.2,-42.0,-383.4,171.3,-889.2,-459.3,467.7,391.8,-1111.5,-1369.8,-623.4,82.5,-6.9,-6.0,31.8,-1447.5,-0.6,-166.5,-564.9,-26.4,0,1284,0,126,0, 
0.7167,-116.7,-332.4,-12.0,240.6,74.1,-36.6,-386.1,173.1,-1111.5,-448.2,476.4,400.5,-1107.6,-1380.3,-641.1,86.1,-7.2,-6.0,37.8,-1439.1,-0.6,-156.3,-561.9,-21.3,0,1290,0,127,0, 
0.7200,-121.2,-339.6,-19.8,235.2,65.4,-45.0,-396.9,161.1,-1037.4,-458.7,474.0,395.1,-1113.9,-1373.4,-636.9,71.7,-6.3,-6.0,38.4,-1444.5,-0.6,-165.6,-576.9,-31.8,0,1296,0,128,0, 
0.7233,-111.6,-336.0,-15.9,239.7,75.6,-45.3,-395.7,164.1,-889.2,-459.6,481.8,399.9,-1107.0,-1359.3,-624.0,67.8,-6.6,-5.4,43.8,-1440.9,-0.6,-162.6,-575.4,-26.7,0,1302,0,129,0, 
0.7267,-113.1,-333.6,-17.7,237.3,72.9,-44.7,-395.1,164.1,-889.2,-457.2,480.6,401.7,-1108.2,-1355.4,-628.5,65.1,-6.6,-6.0,44.4,-1440.3,-1.2,-160.8,-576.6,-28.5,0,1308,0,130,0, 
0.7300,-109.5,-332.1,-13.8,240.0,75.3,-43.8,-394.8,164.7,-963.3,-452.4,485.1,404.4,-1102.8,-1355.7,-626.4,67.5,-7.2,-6.3,49.8,-1440.0,-0.9,-162.6,-570.0,-27.3,0,1314,0,131,0, 
0.7333,-106.5,-332.1,-11.7,239.1,76.8,-43.8,-394.5,162.6,-1333.8,-450.6,474.6,402.3,-1102.5,-1354.2,-621.3,72.6,-6.9,-5.7,43.5,-1442.1,-0.6,-162.0,-568.8,-29.1,0,1320,0,132,0, 
0.7367,-102.3,-331.2,-12.6,235.5,75.3,-46.5,-394.5,161.4,-1185.6,-461.7,472.5,393.6,-1097.7,-1335.3,-602.7,76.8,-6.9,-6.0,36.3,-1450.5,-0.9,-173.1,-570.9,-35.1,0,1326,0,133,0, 
0.7400,-109.5,-332.7,-6.3,240.3,79.2,-39.9,-390.6,164.7,-1111.5,-447.6,487.8,406.2,-1100.1,-1357.5,-630.9,83.7,-6.9,-5.7,46.5,-1441.2,-1.2,-151.2,-560.7,-26.7,0,1332,0,134,0, 
0.7433,-113.4,-337.2,-6.9,241.2,81.9,-42.6,-398.4,157.5,-963.3,-450.3,487.2,408.9,-1104.3,-1361.1,-626.7,93.3,-6.9,-6.0,45.6,-1436.1,-0.6,-157.5,-558.6,-28.8,0,1338,0,135,0, 
0.7467,-109.8,-340.2,-11.7,237.0,73.2,-45.3,-389.4,155.1,-815.1,-454.2,486.0,404.4,-1109.1,-1352.4,-612.9,95.7,-6.9,-5.7,42.0,-1445.4,-0.9,-162.6,-557.1,-34.8,0,1344,0,136,0, 
0.7500,-109.5,-339.3,-12.0,239.1,73.2,-44.4,-390.3,160.2,-1111.5,-461.4,473.1,393.3,-1104.9,-1346.7,-611.1,98.1,-7.5,-5.7,30.0,-1453.8,-0.9,-161.7,-552.3,-31.2,0,1350,0,137,0, 
0.7533,-116.1,-341.4,-13.8,234.6,69.9,-48.0,-392.7,156.6,-1259.7,-454.5,469.2,391.8,-1104.6,-1356.0,-619.8,94.8,-6.9,-6.0,29.4,-1452.3,-0.9,-163.2,-550.2,-35.1,0,1356,0,138,0, 
0.7567,-117.0,-347.1,-19.8,223.5,63.6,-51.6,-399.6,148.5,-1037.4,-462.6,468.9,389.7,-1113.3,-1357.8,-612.0,101.1,-6.9,-6.3,31.2,-1454.7,-0.6,-166.2,-553.2,-38.1,0,1362,0,139,0, 
0.7600,-106.5,-339.3,-12.9,226.5,67.5,-49.5,-388.8,153.9,-963.3,-456.6,480.9,396.9,-1102.2,-1341.6,-603.3,93.6,-6.9,-5.7,39.9,-1449.9,-0.9,-178.5,-546.6,-37.2,0,1368,0,140,0, 
0.7633,-113.4,-339.3,-10.5,233.7,73.8,-45.3,-393.0,150.3,-963.3,-447.0,488.1,405.9,-1098.6,-1358.4,-625.5,89.1,-6.9,-6.3,50.4,-1443.0,-0.6,-150.9,-546.0,-32.1,0,1374,0,141,0, 
0.7667,-109.2,-336.0,-7.2,239.7,78.6,-41.7,-385.8,156.3,-1185.6,-445.8,490.2,410.1,-1097.7,-1369.2,-626.4,93.3,-6.9,-5.7,52.5,-1439.4,-0.3,-156.3,-540.6,-23.4,0,1380,0,142,0, 
0.7700,-116.1,-343.2,-12.0,233.4,75.0,-48.9,-395.7,152.1,-1185.6,-456.0,478.8,397.2,-1105.2,-1372.2,-624.0,88.8,-6.9,-6.0,40.5,-1454.4,-0.6,-167.4,-549.6,-35.4,0,1386,0,143,0, 
0.7733,-113.4,-339.9,-9.0,237.3,74.1,-47.1,-393.6,156.3,-889.2,-459.3,479.4,397.5,-1105.8,-1376.1,-625.2,86.1,-6.9,-6.0,44.1,-1460.4,-0.9,-167.1,-552.0,-36.6,0,1392,0,144,0, 
0.7767,-115.5,-341.4,-6.0,238.5,79.2,-44.4,-388.2,159.3,-889.2,-463.8,480.3,396.6,-1106.1,-1379.1,-631.2,84.3,-6.6,-6.0,49.5,-1458.6,-0.6,-174.6,-554.1,-37.5,0,1398,0,145,0, 
0.7800,-120.9,-347.7,-8.4,236.7,79.5,-48.9,-394.2,154.5,-963.3,-465.9,482.1,398.4,-1112.1,-1379.7,-630.9,80.7,-6.9,-5.4,49.2,-1459.8,-0.6,-178.5,-562.5,-40.5,0,1404,0,146,0, 
0.7833,-116.4,-344.1,-1.8,240.6,82.5,-43.8,-388.5,155.4,-1111.5,-465.6,493.2,405.6,-1106.1,-1370.4,-632.4,70.5,-6.9,-6.0,57.6,-1452.6,-0.6,-178.8,-570.3,-39.9,0,1410,0,147,0, 
0.7867,-114.6,-339.6,6.6,250.8,90.3,-41.1,-387.0,156.9,-1111.5,-448.8,496.2,411.9,-1102.2,-1388.4,-648.0,57.9,-7.2,-5.7,68.7,-1446.0,-0.6,-168.0,-569.7,-33.0,0,1416,0,148,0, 
0.7900,-117.9,-344.1,5.7,249.3,88.5,-41.7,-390.9,158.4,-963.3,-456.3,495.6,410.4,-1100.4,-1388.1,-651.3,49.5,-6.6,-6.0,63.6,-1452.3,-0.6,-176.1,-575.7,-33.0,0,1422,0,149,0, 
0.7933,-117.9,-346.2,1.8,246.0,84.6,-44.1,-394.8,159.0,-815.1,-461.4,491.1,402.3,-1102.5,-1391.7,-653.4,36.9,-6.9,-5.7,55.8,-1464.0,-0.6,-177.0,-574.8,-35.7,0,1428,0,150,0, 
0.7967,-117.6,-346.5,0.0,245.1,84.0,-43.5,-392.1,157.5,-1111.5,-468.0,486.0,399.6,-1103.7,-1383.3,-650.7,38.7,-7.2,-5.7,51.3,-1471.5,-0.6,-189.0,-576.6,-37.5,0,1434,0,151,0, 
0.8000,-111.9,-346.5,-1.2,245.4,85.2,-39.9,-388.5,164.7,-1259.7,-465.9,477.9,397.8,-1099.2,-1385.4,-656.4,34.2,-6.6,-6.3,44.7,-1466.4,-0.3,-174.9,-576.6,-30.6,0,1440,0,152,0, 
0.8033,-110.4,-346.5,-7.5,243.0,82.2,-42.9,-387.9,165.3,-1185.6,-466.2,470.4,396.0,-1101.9,-1381.5,-650.1,36.6,-7.2,-5.4,37.5,-1469.4,-0.3,-178.8,-576.6,-28.8,0,1446,0,153,0, 
0.8067,-109.5,-351.0,-13.8,237.0,79.8,-44.4,-391.2,164.1,-963.3,-468.0,465.6,394.8,-1102.2,-1374.0,-642.9,31.5,-7.2,-6.0,35.7,-1474.2,-0.6,-177.9,-577.8,-29.7,0,1452,0,154,0, 
0.8100,-105.0,-341.7,-2.4,247.5,93.0,-36.9,-384.3,165.0,-815.1,-450.9,494.7,413.4,-1091.7,-1360.8,-645.6,18.9,-7.5,-6.0,63.3,-1456.2,-0.6,-163.5,-578.7,-21.6,0,1458,0,155,0, 
0.8133,-103.8,-342.6,1.8,246.9,93.9,-35.7,-382.2,162.6,-963.3,-450.9,503.1,416.4,-1091.1,-1364.1,-639.0,30.3,-7.2,-6.3,67.5,-1454.1,-0.6,-162.6,-578.1,-21.9,0,1464,0,156,0, 
0.8167,-102.9,-350.7,-6.3,235.2,84.9,-43.5,-392.7,158.1,-1259.7,-464.4,477.6,398.7,-1097.7,-1359.6,-619.2,33.3,-6.6,-6.0,43.8,-1470.9,-0.3,-174.9,-586.2,-33.0,0,1470,0,157,0, 
0.8200,-101.4,-345.9,-6.9,245.4,92.7,-36.0,-389.1,163.5,-1111.5,-461.4,481.5,402.6,-1092.0,-1361.1,-627.9,29.4,-7.2,-6.0,49.5,-1468.8,-0.6,-164.4,-579.3,-24.0,0,1476,0,158,0, 
0.8233,-103.2,-345.6,3.6,248.1,94.8,-32.7,-393.9,163.2,-1111.5,-456.6,483.6,404.1,-1094.1,-1368.0,-644.1,23.1,-6.6,-5.4,47.4,-1468.5,-0.6,-160.8,-575.1,-24.3,0,1482,0,159,0, 
0.8267,-100.2,-345.6,-3.3,242.7,93.9,-37.2,-399.3,161.7,-741.0,-461.7,477.3,401.4,-1091.1,-1358.4,-630.3,33.0,-6.9,-6.0,44.4,-1469.7,-0.3,-162.0,-577.8,-26.4,0,1488,0,160,0, 
0.8300,-93.9,-335.1,12.9,250.8,99.6,-36.3,-391.8,168.6,-889.2,-444.3,493.5,417.9,-1081.5,-1362.3,-627.6,33.0,-6.9,-6.0,62.1,-1456.2,-0.9,-151.5,-572.4,-19.8,0,1494,0,161,0, 
0.8333,-92.4,-331.5,19.5,255.6,105.6,-31.8,-391.8,164.1,-1185.6,-436.8,504.6,421.8,-1076.1,-1352.7,-617.7,41.7,-6.9,-6.0,76.8,-1449.9,-1.2,-151.8,-570.3,-20.4,0,1500,0,162,0, 
0.8367,-88.5,-325.8,26.1,259.2,106.5,-30.6,-383.7,170.1,-1111.5,-428.4,519.0,432.9,-1070.1,-1351.2,-620.7,49.8,-6.9,-6.0,90.3,-1438.8,-0.9,-144.9,-561.6,-13.5,0,1506,0,163,0, 
0.8400,-87.3,-328.8,16.8,252.3,101.1,-33.3,-388.5,170.7,-1037.4,-433.5,505.8,420.3,-1069.8,-1345.2,-621.3,56.1,-6.6,-6.0,73.2,-1450.5,-0.3,-144.6,-552.6,-14.4,0,1512,0,164,0, 
0.8433,-91.8,-336.9,6.3,242.1,87.6,-47.4,-393.6,162.9,-741.0,-446.7,485.1,402.3,-1074.3,-1358.7,-625.8,57.9,-7.2,-6.3,56.4,-1467.6,-0.9,-162.9,-559.2,-29.1,0,1518,0,165,0, 
0.8467,-90.3,-339.3,3.9,242.4,92.1,-42.9,-391.8,160.2,-1037.4,-445.2,482.4,401.7,-1074.3,-1362.6,-622.8,59.1,-7.2,-6.0,50.7,-1469.1,-0.6,-154.8,-561.9,-28.2,0,1524,0,166,0, 
0.8500,-93.6,-343.2,1.8,237.6,85.2,-53.4,-392.7,158.4,-1185.6,-452.4,481.5,399.6,-1081.5,-1359.0,-620.4,51.6,-6.6,-6.0,56.7,-1470.6,-0.6,-161.1,-566.1,-33.9,0,1530,0,167,0, 
0.8533,-96.0,-350.7,-1.8,226.5,76.5,-56.1,-401.1,154.2,-1111.5,-454.5,480.9,398.7,-1087.5,-1365.9,-618.6,58.8,-6.9,-5.7,57.0,-1472.1,-0.6,-162.3,-572.7,-39.0,0,1536,0,168,0, 
0.8567,-96.3,-351.3,1.2,231.6,81.9,-48.9,-399.0,157.2,-963.3,-447.3,490.2,408.3,-1086.0,-1360.2,-619.8,64.2,-6.6,-5.4,61.2,-1461.0,-0.3,-158.4,-562.2,-32.4,0,1542,0,169,0, 
0.8600,-101.4,-357.0,-9.0,225.9,73.2,-55.8,-399.9,152.7,-815.1,-460.2,475.2,393.3,-1086.0,-1371.3,-632.4,58.5,-6.6,-5.4,50.7,-1477.2,-0.9,-167.4,-566.4,-38.4,0,1548,0,170,0, 
0.8633,-111.3,-360.6,-8.7,222.6,70.5,-57.3,-408.9,147.3,-1037.4,-470.4,473.7,388.2,-1096.8,-1381.8,-633.9,54.0,-6.6,-5.7,49.5,-1484.1,-0.6,-174.6,-570.6,-41.7,0,1554,0,171,0, 
0.8667,-105.0,-357.0,-7.8,232.2,81.6,-45.3,-397.2,150.6,-1111.5,-465.9,482.1,399.6,-1094.7,-1370.7,-628.5,63.0,-7.2,-6.0,49.8,-1470.6,-0.9,-166.5,-567.6,-30.3,0,1560,0,172,0, 
0.8700,-110.7,-362.1,-8.7,229.2,78.3,-49.5,-400.2,148.5,-1111.5,-465.6,476.7,397.5,-1099.8,-1378.2,-635.4,54.6,-6.6,-6.0,43.5,-1471.8,-0.9,-171.3,-576.0,-36.0,0,1566,0,173,0, 
0.8733,-109.5,-359.7,-6.0,234.9,83.4,-47.1,-396.6,150.6,-1037.4,-462.6,480.6,397.2,-1101.3,-1376.1,-638.7,48.3,-6.9,-5.7,46.5,-1474.2,0.0,-171.0,-577.8,-32.7,0,1572,0,174,0, 
0.8767,-110.7,-357.3,-0.6,241.5,93.9,-42.9,-399.0,152.7,-741.0,-461.4,486.3,402.0,-1103.4,-1381.2,-640.2,48.6,-6.9,-5.4,54.0,-1470.3,-0.6,-172.8,-569.1,-26.4,0,1578,0,175,0, 
0.8800,-108.6,-352.8,3.3,245.7,99.6,-39.6,-396.6,162.9,-889.2,-467.1,489.0,406.8,-1106.4,-1385.4,-646.8,37.8,-6.3,-6.0,55.5,-1466.7,-0.9,-168.6,-573.9,-23.1,0,1584,0,176,0, 
0.8833,-98.1,-345.3,10.2,255.3,108.0,-31.5,-389.1,170.1,-1111.5,-460.5,491.4,411.0,-1096.2,-1380.9,-645.6,43.5,-6.9,-6.0,56.7,-1459.8,-0.6,-164.7,-573.6,-21.6,0,1590,0,177,0, 
0.8867,-103.5,-345.0,5.4,255.0,105.0,-32.7,-390.3,167.4,-1111.5,-466.5,488.1,408.3,-1097.7,-1375.8,-644.1,29.7,-7.2,-5.7,55.8,-1462.8,-0.6,-168.3,-580.2,-23.1,0,1596,0,178,0, 
0.8900,-100.5,-342.6,22.8,263.4,117.3,-23.7,-381.9,177.6,-1037.4,-452.1,503.4,420.6,-1093.2,-1385.7,-644.7,36.3,-6.9,-5.7,67.8,-1449.0,-0.6,-155.7,-569.1,-10.5,0,1602,0,179,0, 
0.8933,-105.3,-349.5,17.7,256.2,110.4,-31.5,-387.6,175.2,-963.3,-462.9,500.1,416.4,-1098.3,-1386.3,-641.1,36.3,-6.9,-6.0,64.2,-1457.1,-0.6,-163.5,-578.1,-18.0,0,1608,0,180,0, 
0.8967,-101.1,-340.2,22.2,266.7,120.0,-23.4,-385.2,184.8,-815.1,-450.9,512.1,427.2,-1088.4,-1365.0,-638.1,33.6,-6.9,-5.7,80.7,-1446.6,-0.6,-161.7,-574.2,-12.6,0,1614,0,181,0, 
0.9000,-100.8,-334.2,32.4,274.8,125.7,-13.8,-378.9,189.3,-1037.4,-435.6,516.0,431.7,-1083.9,-1369.2,-646.2,36.3,-7.2,-6.3,86.7,-1440.6,-1.2,-147.6,-565.8,-5.4,0,1620,0,182,0, 
0.9033,-107.7,-344.4,23.7,265.8,120.9,-22.2,-383.4,185.4,-1037.4,-446.4,506.4,423.6,-1093.2,-1377.0,-644.4,40.5,-6.9,-6.0,75.3,-1447.5,-0.6,-153.9,-564.9,-6.0,0,1626,0,183,0, 
0.9067,-105.0,-339.3,27.3,267.0,116.7,-18.6,-390.0,183.6,-1037.4,-443.1,503.4,420.6,-1087.2,-1373.4,-648.0,27.3,-6.9,-5.4,75.6,-1449.0,-0.9,-152.1,-565.8,-2.1,0,1632,0,184,0, 
0.9100,-98.7,-335.4,28.8,271.2,122.4,-15.6,-385.8,186.9,-963.3,-440.1,509.7,431.1,-1084.8,-1361.4,-634.5,33.0,-6.9,-6.0,73.8,-1436.4,-0.6,-142.2,-563.4,0.6,0,1638,0,185,0, 
0.9133,-95.4,-335.1,24.0,264.6,118.5,-19.5,-390.0,178.5,-963.3,-441.6,504.3,423.6,-1083.9,-1353.9,-624.9,31.8,-6.9,-5.7,66.3,-1441.5,-0.9,-149.7,-567.3,-5.1,0,1644,0,186,0, 
0.9167,-94.5,-338.4,19.2,266.1,116.7,-19.8,-392.7,181.8,-1185.6,-439.2,498.6,425.1,-1082.4,-1351.8,-627.0,38.1,-6.6,-6.0,65.4,-1441.2,-0.9,-143.1,-566.4,-3.6,0,1650,0,187,0, 
0.9200,-94.8,-337.5,23.1,264.0,117.9,-21.0,-393.6,179.4,-1111.5,-431.7,508.5,432.6,-1079.7,-1348.8,-627.3,45.0,-6.6,-5.7,80.7,-1434.0,-0.9,-140.4,-558.6,-1.8,0,1656,0,188,0, 
0.9233,-93.0,-336.6,32.1,258.9,113.7,-24.6,-391.8,177.0,-889.2,-447.6,506.1,429.6,-1079.7,-1335.0,-615.0,50.7,-7.2,-6.0,73.5,-1440.0,-0.9,-147.3,-562.2,-6.9,0,1662,0,189,0, 
0.9267,-91.8,-342.0,13.5,252.6,108.6,-29.7,-388.2,168.3,-815.1,-439.5,513.3,429.6,-1080.3,-1338.9,-614.7,59.7,-6.6,-5.7,72.0,-1441.8,-0.9,-149.1,-556.5,-12.0,0,1668,0,190,0, 
0.9300,-98.1,-343.8,10.2,246.3,103.2,-27.6,-390.0,163.5,-1037.4,-439.2,500.4,421.2,-1091.4,-1359.9,-624.0,60.0,-7.2,-5.7,66.3,-1448.4,-0.9,-150.6,-558.0,-11.7,0,1674,0,191,0, 
0.9333,-90.3,-336.3,16.5,250.2,104.1,-24.0,-380.7,172.8,-1111.5,-439.2,497.7,417.6,-1083.3,-1344.9,-617.4,59.7,-7.2,-5.7,66.6,-1445.4,-0.9,-147.0,-552.3,-11.4,0,1680,0,192,0, 
0.9367,-93.0,-342.0,8.7,243.6,97.5,-31.2,-389.7,167.7,-1037.4,-448.2,494.7,409.5,-1087.5,-1353.9,-619.8,63.3,-6.6,-5.7,59.4,-1458.0,-0.6,-155.4,-558.3,-13.2,0,1686,0,193,0, 
0.9400,-97.8,-346.2,4.2,238.2,92.1,-40.2,-390.9,162.0,-1037.4,-452.4,489.3,402.9,-1093.8,-1357.8,-615.3,65.4,-7.2,-5.7,54.6,-1462.5,-0.3,-163.2,-558.9,-19.5,0,1692,0,194,0, 
0.9433,-100.8,-354.3,-1.2,228.9,86.1,-45.0,-391.2,159.6,-815.1,-462.6,478.5,397.2,-1101.0,-1357.5,-605.4,69.3,-6.9,-5.7,41.7,-1469.4,-0.6,-172.5,-562.2,-21.0,0,1698,0,195,0, 
0.9467,-104.7,-352.2,-2.1,228.3,85.2,-41.7,-387.3,155.4,-963.3,-456.9,479.4,397.2,-1102.2,-1375.5,-622.2,72.3,-7.2,-6.0,43.8,-1467.0,-0.6,-165.0,-558.9,-19.5,0,1704,0,196,0, 
0.9500,-113.1,-359.1,-4.8,228.6,80.4,-43.5,-393.9,153.6,-1259.7,-463.5,477.9,395.1,-1108.5,-1387.8,-640.8,61.8,-7.5,-5.7,42.6,-1470.6,-0.6,-173.1,-565.8,-20.4,0,1710,0,197,0, 
0.9533,-109.8,-363.0,-16.5,221.1,69.6,-55.2,-402.0,155.4,-1185.6,-477.3,465.3,385.2,-1111.2,-1384.8,-622.5,63.9,-6.9,-6.0,34.2,-1479.6,-1.2,-191.7,-574.8,-34.8,0,1716,0,198,0, 
0.9567,-113.4,-366.9,-21.0,214.2,62.7,-60.6,-407.7,147.3,-963.3,-478.8,459.6,375.9,-1113.3,-1384.5,-629.7,52.2,-6.9,-5.7,27.3,-1490.4,-0.9,-202.5,-583.8,-42.0,0,1722,0,199,0, 
0.9600,-115.5,-366.0,-14.7,214.2,64.2,-57.6,-405.0,149.7,-815.1,-487.8,456.3,371.7,-1117.5,-1388.1,-628.2,52.8,-6.9,-6.0,25.8,-1493.7,-0.6,-193.8,-583.5,-35.7,0,1728,0,200,0, 
0.9633,-114.6,-362.1,-11.7,218.4,74.4,-51.6,-402.3,161.1,-963.3,-477.0,468.9,381.6,-1116.0,-1400.4,-647.4,49.2,-7.2,-6.0,33.6,-1482.9,-0.6,-186.6,-572.7,-29.4,0,1734,0,201,0, 
0.9667,-122.1,-367.8,-15.0,216.9,71.4,-55.8,-406.8,157.8,-1259.7,-481.8,465.0,381.6,-1124.1,-1411.5,-653.4,41.7,-7.2,-6.0,32.4,-1488.6,-0.9,-191.7,-582.9,-36.9,0,1740,0,202,0, 
0.9700,-114.6,-354.3,0.6,228.6,81.0,-45.0,-393.9,168.3,-1185.6,-472.2,475.5,388.8,-1108.5,-1396.2,-646.5,47.1,-6.9,-5.7,41.4,-1484.1,-0.9,-186.0,-583.2,-28.2,0,1746,0,203,0, 
0.9733,-119.1,-358.2,-5.7,228.6,78.3,-50.4,-402.6,161.7,-963.3,-478.8,466.8,381.6,-1113.3,-1387.8,-642.0,43.5,-6.6,-5.7,36.6,-1488.0,-0.9,-190.2,-587.4,-36.9,0,1752,0,204,0, 
0.9767,-118.8,-350.7,3.3,235.8,88.5,-43.5,-395.1,171.3,-889.2,-468.6,469.8,388.5,-1106.4,-1396.8,-647.4,45.0,-6.9,-6.3,41.1,-1479.6,-0.6,-184.2,-580.2,-23.4,0,1758,0,205,0, 
0.9800,-118.8,-348.0,9.9,243.3,98.1,-34.2,-393.6,174.9,-889.2,-459.3,484.5,401.4,-1104.9,-1392.9,-649.5,45.9,-6.6,-5.7,48.0,-1465.8,-0.6,-168.3,-567.3,-12.0,0,1764,0,206,0, 
0.9833,-113.7,-342.6,19.8,250.2,102.0,-31.5,-396.0,180.3,-1259.7,-451.5,493.8,408.3,-1091.7,-1385.7,-652.2,47.1,-6.6,-6.0,63.3,-1462.2,-1.2,-169.5,-566.1,-10.2,0,1770,0,207,0, 
0.9867,-112.2,-340.5,17.4,250.2,104.7,-28.2,-393.6,182.1,-1037.4,-444.3,496.2,406.8,-1090.2,-1381.8,-644.4,45.0,-6.6,-5.7,63.9,-1467.0,-0.6,-166.5,-567.0,-12.0,0,1776,0,208,0, 
0.9900,-113.1,-344.4,10.8,244.8,97.2,-35.4,-403.5,177.0,-889.2,-452.4,486.0,400.5,-1093.5,-1387.2,-651.3,40.5,-6.6,-6.0,57.0,-1475.1,-0.6,-161.4,-572.1,-17.1,0,1782,0,209,0, 
0.9933,-116.4,-348.0,9.0,245.7,99.3,-34.5,-399.6,176.7,-889.2,-457.2,476.4,391.5,-1095.9,-1385.7,-649.5,39.6,-6.9,-5.4,46.2,-1479.6,-0.3,-173.1,-572.1,-13.5,0,1788,0,210,0, 
0.9967,-112.8,-345.9,17.1,244.2,101.7,-33.0,-401.7,174.6,-1037.4,-455.7,479.7,396.9,-1097.4,-1384.5,-647.7,34.8,-6.9,-5.7,53.7,-1473.0,-0.6,-172.8,-577.8,-16.5,0,1794,0,211,0, 
1.0000,-102.9,-333.6,25.2,256.5,107.1,-30.6,-395.1,181.2,-1037.4,-438.3,501.6,415.2,-1084.2,-1371.9,-635.7,34.5,-6.6,-6.0,77.1,-1458.9,-0.9,-161.1,-571.2,-9.0,0,1800,0,212,0, 
1.0033,-99.0,-335.4,28.2,255.6,108.0,-30.9,-393.0,177.9,-1185.6,-434.1,499.5,415.5,-1083.6,-1382.4,-641.1,39.0,-6.9,-6.3,76.2,-1459.5,-0.9,-158.4,-568.8,-8.4,0,1806,0,213,0, 
1.0067,-99.0,-335.4,26.1,256.8,108.3,-25.5,-389.1,180.9,-815.1,-439.2,496.2,406.8,-1086.9,-1379.1,-637.5,39.0,-6.9,-5.7,67.2,-1467.6,-0.6,-157.2,-558.3,-3.0,0,1812,0,214,0, 
1.0100,-102.0,-339.0,17.1,253.5,105.0,-28.5,-392.4,178.8,-963.3,-442.8,494.7,410.4,-1089.3,-1381.2,-643.8,40.2,-6.9,-6.3,67.2,-1462.5,-0.6,-159.6,-560.7,-13.5,0,1818,0,215,0, 
1.0133,-96.3,-336.3,24.6,255.9,104.4,-27.3,-387.0,182.4,-963.3,-450.0,494.1,405.6,-1090.2,-1376.4,-637.2,39.6,-6.9,-6.3,62.7,-1468.5,-0.3,-159.3,-561.9,-7.8,0,1824,0,216,0, 
1.0167,-90.3,-331.5,29.1,261.0,110.7,-26.7,-386.1,181.5,-1259.7,-443.1,504.6,414.0,-1086.3,-1369.5,-627.9,54.6,-7.2,-6.0,70.2,-1467.3,-0.6,-164.7,-560.1,-9.0,0,1830,0,217,0, 
1.0200,-91.5,-334.8,16.2,259.5,110.1,-27.0,-383.1,178.5,-1185.6,-440.4,504.0,411.6,-1084.2,-1363.2,-629.4,41.7,-6.6,-5.7,68.1,-1468.2,-0.6,-153.9,-569.1,-7.2,0,1836,0,218,0, 
1.0233,-94.2,-335.7,14.4,253.2,107.4,-34.8,-388.8,175.5,-1037.4,-445.2,499.8,406.5,-1084.8,-1362.0,-624.9,51.0,-6.9,-6.0,65.1,-1470.0,-0.9,-158.7,-566.4,-14.1,0,1842,0,219,0, 
1.0267,-96.0,-337.2,21.3,255.0,101.1,-36.6,-386.1,175.5,-741.0,-442.8,495.9,403.2,-1086.0,-1353.6,-612.6,61.5,-7.2,-5.7,65.1,-1472.4,-0.6,-159.3,-565.2,-14.4,0,1848,0,220,0, 
1.0300,-102.0,-342.6,17.7,249.0,98.1,-41.4,-390.9,169.2,-889.2,-443.7,489.9,399.6,-1087.8,-1358.1,-612.0,72.3,-6.6,-5.7,59.4,-1478.4,-0.3,-161.7,-561.3,-15.0,0,1854,0,221,0, 
1.0333,-101.7,-341.4,12.3,249.3,100.8,-34.8,-385.8,175.5,-1185.6,-440.1,492.3,399.6,-1086.0,-1362.9,-608.7,74.4,-7.2,-6.0,58.2,-1477.8,-0.6,-153.6,-556.5,-9.6,0,1860,0,222,0, 
1.0367,-102.6,-341.1,11.7,249.6,98.1,-38.4,-386.4,176.4,-1259.7,-443.4,484.5,390.9,-1085.1,-1371.3,-615.0,82.5,-6.6,-5.4,51.0,-1484.7,-0.6,-154.5,-550.5,-10.8,0,1866,0,223,0, 
1.0400,-106.8,-348.0,3.3,239.1,90.6,-42.0,-391.5,170.4,-889.2,-449.4,476.4,387.3,-1089.9,-1364.4,-615.9,80.1,-6.9,-5.7,43.2,-1490.1,-1.2,-159.0,-550.8,-20.1,0,1872,0,224,0, 
1.0433,-108.6,-350.1,4.8,236.1,90.0,-45.3,-387.3,167.7,-741.0,-451.2,479.4,390.6,-1088.1,-1369.2,-615.0,87.0,-6.6,-6.3,49.8,-1484.1,-0.9,-162.9,-549.0,-17.7,0,1878,0,225,0, 
1.0467,-106.2,-351.3,-1.8,232.2,86.7,-46.2,-391.2,164.4,-963.3,-453.0,471.9,384.6,-1090.5,-1373.4,-615.9,74.7,-7.2,-5.7,37.8,-1483.8,-0.6,-165.3,-559.5,-20.7,0,1884,0,226,0, 
1.0500,-110.4,-353.1,-3.0,233.1,87.0,-45.3,-387.6,164.1,-1259.7,-456.9,463.5,383.4,-1095.6,-1380.3,-625.5,68.7,-6.9,-6.0,34.5,-1487.4,-0.9,-167.4,-565.2,-25.2,0,1890,0,227,0, 
1.0533,-112.2,-360.9,-9.6,222.6,82.2,-51.3,-393.0,155.1,-1259.7,-468.3,467.1,378.0,-1107.3,-1379.1,-627.9,66.6,-6.6,-5.4,26.7,-1488.0,-0.9,-173.7,-574.5,-26.1,0,1896,0,228,0, 
1.0567,-114.6,-366.0,-13.5,221.4,78.3,-54.9,-395.1,154.5,-1111.5,-475.2,463.5,373.2,-1108.5,-1388.1,-625.2,61.8,-6.9,-6.0,27.3,-1495.2,-0.6,-181.5,-582.3,-30.0,0,1902,0,229,0, 
1.0600,-117.0,-361.8,-12.9,223.5,81.0,-56.4,-392.7,154.8,-815.1,-468.3,465.6,383.7,-1106.7,-1389.0,-629.4,57.0,-6.6,-6.0,32.1,-1488.6,-0.9,-177.9,-579.3,-31.8,0,1908,0,230,0, 
1.0633,-119.1,-362.4,-17.1,227.1,81.9,-49.8,-391.2,160.2,-963.3,-464.4,465.6,384.0,-1104.9,-1392.6,-641.4,51.3,-6.6,-6.0,35.1,-1488.9,-0.9,-177.6,-578.4,-29.7,0,1914,0,231,0, 
1.0667,-121.5,-356.7,-7.2,226.8,83.7,-51.0,-395.4,159.3,-1111.5,-468.3,462.3,380.7,-1100.7,-1385.7,-634.2,50.1,-6.6,-6.0,34.8,-1491.3,-0.3,-189.0,-580.5,-33.9,0,1920,0,232,0, 
1.0700,-117.0,-357.9,-3.0,233.1,90.3,-45.6,-388.8,165.6,-1259.7,-457.2,480.9,393.0,-1098.0,-1386.3,-636.3,51.3,-7.2,-5.7,43.8,-1482.0,-0.9,-180.6,-576.3,-27.0,0,1926,0,233,0, 
1.0733,-123.0,-361.2,-5.1,232.8,89.1,-45.9,-392.1,163.5,-963.3,-469.2,478.2,388.8,-1103.1,-1395.6,-643.2,42.3,-6.6,-6.0,38.4,-1491.3,-0.6,-179.4,-583.2,-27.9,0,1932,0,234,0, 
1.0767,-117.0,-355.2,3.0,241.2,96.3,-40.5,-391.8,169.5,-1037.4,-461.7,469.5,388.5,-1099.2,-1401.9,-638.1,44.1,-6.9,-5.7,34.2,-1486.8,-1.2,-174.9,-572.4,-21.6,0,1938,0,235,0, 
1.0800,-120.3,-354.9,6.3,242.7,97.8,-37.5,-395.4,171.0,-889.2,-460.5,476.1,389.1,-1099.5,-1401.6,-645.6,41.7,-6.6,-6.0,39.3,-1487.4,-0.6,-168.6,-570.6,-19.5,0,1944,0,236,0, 
1.0833,-115.2,-346.8,22.2,252.0,107.1,-32.1,-389.7,180.6,-1111.5,-449.7,486.9,400.8,-1092.3,-1404.9,-643.2,45.9,-6.9,-6.0,46.8,-1472.4,-0.9,-164.1,-559.5,-10.8,0,1950,0,237,0, 
1.0867,-113.4,-351.9,4.2,247.2,104.4,-27.6,-389.7,179.1,-1111.5,-449.4,489.6,401.1,-1094.7,-1392.0,-643.2,49.2,-7.2,-6.0,52.2,-1472.1,-0.6,-160.8,-558.3,-6.0,0,1956,0,238,0, 
1.0900,-113.7,-348.6,16.2,254.1,108.9,-28.5,-387.9,183.6,-963.3,-447.0,502.2,411.6,-1091.7,-1394.4,-646.5,40.2,-7.2,-5.7,57.9,-1461.0,-0.9,-154.5,-554.7,-1.5,0,1962,0,239,0, 
1.0933,-109.2,-348.9,7.5,251.4,110.7,-24.3,-390.3,181.8,-889.2,-449.1,499.8,407.7,-1091.1,-1372.2,-631.5,48.0,-6.9,-5.7,50.7,-1468.5,-0.6,-159.6,-559.5,-4.2,0,1968,0,240,0, 
1.0967,-105.0,-340.8,18.6,262.2,118.8,-18.9,-381.0,191.4,-1037.4,-431.7,510.3,420.3,-1082.7,-1381.2,-639.6,48.0,-6.9,-6.3,69.0,-1457.1,-0.9,-142.2,-554.4,4.2,0,1974,0,241,0, 
1.1000,-109.2,-344.4,15.6,255.3,109.8,-24.9,-389.1,186.9,-1111.5,-440.4,503.7,411.0,-1090.5,-1377.6,-634.8,46.2,-6.9,-6.0,61.8,-1464.3,-0.9,-150.9,-560.1,-4.5,0,1980,0,242,0, 
1.1033,-109.2,-350.7,6.9,249.0,107.7,-29.1,-394.8,184.5,-1333.8,-448.8,489.3,402.3,-1091.4,-1383.0,-630.0,44.4,-6.9,-6.0,49.8,-1469.1,-0.9,-156.0,-561.3,-7.8,0,1986,0,243,0, 
1.1067,-108.6,-352.5,1.5,237.9,102.0,-36.9,-396.6,174.9,-963.3,-458.7,480.9,392.1,-1092.3,-1375.5,-614.4,52.2,-6.9,-5.4,39.6,-1482.9,-0.6,-163.2,-569.1,-12.0,0,1992,0,244,0, 
1.1100,-105.9,-345.3,15.6,252.9,117.9,-26.4,-387.0,180.0,-889.2,-436.8,497.4,412.2,-1085.4,-1376.4,-631.5,60.9,-6.6,-5.7,58.8,-1462.8,-0.6,-151.8,-556.2,0.6,0,1998,0,245,0, 
1.1133,-111.3,-349.2,11.4,245.7,110.4,-30.0,-387.3,176.4,-889.2,-439.8,499.5,413.7,-1091.1,-1377.6,-622.2,67.8,-6.6,-6.0,57.0,-1463.4,-0.9,-146.7,-549.6,-1.8,0,2004,0,246,0, 
1.1167,-102.9,-349.5,13.5,245.1,107.1,-31.5,-385.2,176.7,-1259.7,-438.3,500.7,411.0,-1085.1,-1367.1,-611.7,78.6,-6.9,-5.4,55.2,-1464.9,-0.6,-147.0,-549.3,-1.5,0,2010,0,247,0, 
1.1200,-103.8,-352.5,1.5,237.9,99.3,-30.9,-382.2,173.1,-1111.5,-439.2,484.5,400.5,-1089.9,-1378.2,-620.7,74.4,-6.3,-6.0,44.7,-1477.5,-0.6,-152.4,-545.1,-7.2,0,2016,0,248,0, 
1.1233,-103.2,-352.8,2.1,234.0,94.8,-39.0,-384.9,168.3,-1111.5,-445.2,483.6,394.2,-1095.6,-1363.5,-607.8,70.5,-7.2,-5.4,43.8,-1478.7,-0.6,-156.6,-545.7,-12.9,0,2022,0,249,0, 
1.1267,-104.7,-350.7,4.2,233.1,98.1,-33.9,-378.3,170.7,-889.2,-446.1,489.6,399.3,-1089.6,-1368.6,-618.3,80.7,-7.2,-6.3,51.9,-1477.8,-0.6,-153.6,-543.9,-6.3,0,2028,0,250,0, 
1.1300,-105.0,-352.8,-3.3,228.6,91.5,-41.1,-383.7,165.0,-963.3,-451.2,477.3,390.9,-1093.5,-1366.8,-615.3,82.2,-6.9,-6.3,42.6,-1483.5,-0.6,-164.1,-539.4,-9.0,0,2034,0,251,0, 
1.1333,-103.2,-349.8,1.2,232.5,95.7,-33.9,-378.3,169.2,-1111.5,-439.8,483.3,394.8,-1089.0,-1374.3,-622.5,83.4,-6.9,-6.3,45.9,-1482.6,-0.6,-159.9,-541.8,-8.4,0,2040,0,252,0, 
1.1367,-102.0,-352.5,-9.3,219.3,83.4,-47.4,-383.1,162.0,-1185.6,-454.2,482.1,388.5,-1093.5,-1356.6,-615.0,75.3,-6.6,-5.7,43.2,-1492.5,-0.3,-174.9,-555.6,-21.0,0,2046,0,253,0, 
1.1400,-104.1,-355.5,-8.4,219.3,80.7,-43.8,-385.5,163.8,-963.3,-452.1,480.9,383.1,-1095.6,-1369.5,-619.2,81.9,-6.6,-5.7,41.4,-1494.3,-0.3,-173.1,-557.4,-17.4,0,2052,0,254,0, 
1.1433,-109.5,-359.1,-7.8,222.3,78.0,-47.4,-384.0,162.6,-889.2,-456.9,477.9,378.9,-1100.4,-1377.6,-624.0,78.6,-7.2,-6.0,39.3,-1500.3,-0.6,-173.1,-552.6,-19.8,0,2058,0,255,0, 
1.1467,-107.1,-359.1,-10.5,219.0,77.7,-49.2,-384.9,164.1,-889.2,-464.7,469.2,374.7,-1102.2,-1371.0,-611.4,79.2,-7.2,-6.0,31.8,-1506.3,-0.6,-176.4,-563.4,-24.0,0,2064,0,0,0, 
1.1500,-106.2,-356.4,-5.4,219.0,78.6,-48.9,-385.2,167.4,-1185.6,-467.4,471.9,372.6,-1102.2,-1373.1,-611.4,73.2,-6.9,-6.0,29.7,-1508.4,-0.6,-177.9,-566.1,-18.3,0,2070,0,1,0, 
1.1533,-110.7,-357.0,-1.2,227.4,87.0,-45.0,-387.3,169.8,-1185.6,-461.1,477.3,383.4,-1103.4,-1383.0,-633.9,66.3,-6.9,-6.0,38.1,-1503.0,-0.6,-171.6,-567.6,-15.9,0,2076,0,2,0, 
1.1567,-108.6,-349.8,3.0,235.8,96.3,-42.9,-382.2,178.5,-1037.4,-454.5,488.7,388.8,-1098.6,-1368.9,-630.6,67.5,-7.2,-6.0,51.6,-1493.1,-0.6,-173.7,-562.2,-10.5,0,2082,0,3,0, 
1.1600,-111.6,-349.5,0.6,234.9,92.1,-41.4,-381.3,176.4,-815.1,-450.3,483.9,388.2,-1096.2,-1364.7,-625.5,69.0,-6.6,-6.0,48.6,-1492.8,-0.9,-170.7,-561.0,-12.3,0,2088,0,4,0, 
1.1633,-121.5,-352.8,5.1,238.5,95.1,-37.2,-389.1,173.4,-1037.4,-457.5,483.6,388.8,-1108.8,-1393.8,-639.3,68.4,-7.2,-5.7,42.9,-1490.7,-0.9,-174.3,-555.3,-6.6,0,2094,0,5,0, 
1.1667,-121.8,-356.4,-3.3,235.8,87.0,-40.2,-393.6,177.9,-1185.6,-466.2,475.2,386.1,-1112.7,-1396.2,-639.9,67.5,-6.9,-6.0,33.9,-1494.3,-0.6,-174.0,-564.3,-9.3,0,2100,0,6,0, 
1.1700,-112.8,-347.1,1.5,242.1,94.2,-31.5,-390.6,182.4,-1185.6,-458.4,479.4,388.2,-1103.7,-1383.6,-633.9,60.3,-6.9,-6.0,37.8,-1492.8,-0.6,-164.7,-560.7,-3.3,0,2106,0,7,0, 
1.1733,-110.7,-346.8,12.6,247.2,97.2,-29.4,-393.6,183.0,-1037.4,-458.7,490.2,397.5,-1098.0,-1382.1,-633.0,62.7,-7.2,-5.4,49.2,-1484.1,-0.9,-165.3,-568.8,-2.4,0,2112,0,8,0, 
1.1767,-112.5,-349.2,6.3,242.4,93.6,-34.5,-395.4,172.2,-815.1,-456.3,487.8,397.5,-1096.5,-1373.1,-630.9,58.8,-6.9,-5.7,51.0,-1484.7,-0.9,-168.9,-568.8,-9.6,0,2118,0,9,0, 
1.1800,-110.1,-349.2,-5.7,237.0,90.6,-36.0,-394.5,168.9,-1037.4,-459.0,485.7,392.7,-1101.3,-1365.0,-627.3,61.8,-6.9,-5.4,48.9,-1490.1,-0.6,-169.8,-566.7,-8.4,0,2124,0,10,0, 
1.1833,-107.7,-347.1,3.0,238.8,93.0,-33.9,-393.3,178.5,-1185.6,-459.6,489.0,392.1,-1103.1,-1380.0,-633.0,62.1,-6.9,-6.0,44.1,-1490.7,-0.3,-168.0,-561.9,-6.0,0,2130,0,11,0, 
1.1867,-102.9,-341.1,10.8,244.8,99.9,-26.7,-386.4,182.1,-1111.5,-447.6,488.4,396.0,-1100.4,-1368.9,-629.1,64.2,-6.9,-6.0,45.9,-1484.1,-0.9,-162.9,-557.1,0.0,0,2136,0,12,0, 
1.1900,-97.5,-335.7,15.6,251.1,108.9,-20.4,-381.3,185.1,-1111.5,-447.3,483.6,402.9,-1090.8,-1356.3,-617.1,65.1,-6.6,-6.0,47.4,-1476.6,-1.2,-152.4,-547.5,10.5,0,2142,0,13,0, 
1.1933,-98.4,-336.3,15.0,250.5,110.1,-21.6,-387.9,181.2,-815.1,-437.1,500.4,409.5,-1089.0,-1355.4,-623.7,57.3,-7.2,-5.7,60.6,-1471.5,-0.3,-153.9,-547.5,9.0,0,2148,0,14,0, 
1.1967,-99.0,-338.7,18.6,251.4,110.4,-24.6,-387.6,179.1,-963.3,-435.6,513.3,420.3,-1086.6,-1358.1,-619.8,55.5,-6.6,-5.4,69.9,-1460.7,-0.9,-147.9,-550.5,3.9,0,2154,0,15,0, 
1.2000,-100.2,-338.1,13.2,248.1,105.0,-27.6,-396.3,173.4,-963.3,-439.8,501.3,409.8,-1088.4,-1359.9,-618.0,60.0,-6.9,-6.0,63.6,-1471.2,-0.9,-156.6,-551.4,4.2,0,2160,0,16,0, 
1.2033,-96.9,-337.2,13.8,248.4,102.9,-30.6,-393.9,178.2,-1111.5,-435.6,498.6,397.5,-1088.7,-1356.9,-617.1,56.1,-6.6,-6.0,59.4,-1478.4,-1.2,-157.8,-556.5,-2.4,0,2166,0,17,0, 
1.2067,-97.8,-345.9,3.0,237.9,94.2,-39.3,-395.4,168.3,-1111.5,-453.0,479.1,386.1,-1092.9,-1351.5,-612.9,66.0,-6.6,-6.0,36.0,-1492.5,-1.2,-162.6,-553.5,-0.9,0,2172,0,18,0, 
1.2100,-103.8,-350.1,-0.6,232.2,88.5,-49.2,-395.7,165.0,-741.0,-452.7,475.2,383.1,-1096.2,-1350.6,-611.1,64.8,-6.9,-6.3,33.9,-1487.7,-1.2,-162.0,-558.6,-9.0,0,2178,0,19,0, 
1.2133,-99.0,-345.6,8.1,234.0,92.4,-39.0,-393.3,165.9,-1037.4,-447.6,481.5,389.7,-1093.2,-1353.9,-606.3,67.2,-7.2,-6.3,43.5,-1479.0,-0.3,-159.6,-549.6,0.3,0,2184,0,20,0, 
1.2167,-103.5,-345.6,2.4,236.4,92.1,-36.0,-387.6,171.9,-1111.5,-436.2,484.8,395.4,-1092.6,-1362.6,-606.9,81.0,-6.9,-6.3,45.3,-1478.1,-0.9,-150.0,-548.1,1.2,0,2190,0,21,0, 
1.2200,-104.4,-340.2,4.8,238.5,94.2,-33.0,-382.5,172.8,-963.3,-427.5,499.8,403.2,-1083.9,-1368.3,-624.0,81.3,-6.9,-6.3,65.7,-1471.2,-0.9,-141.3,-540.9,6.6,0,2196,0,22,0, 
1.2233,-111.0,-346.8,-2.1,233.4,87.0,-38.4,-386.4,168.0,-963.3,-429.9,485.1,399.0,-1093.5,-1359.0,-621.6,86.1,-7.2,-6.0,54.9,-1475.7,-0.9,-150.6,-541.8,0.9,0,2202,0,23,0, 
1.2267,-112.5,-347.4,-0.9,228.6,84.0,-39.6,-389.4,164.7,-889.2,-438.9,486.0,395.1,-1093.2,-1356.9,-614.1,91.2,-6.9,-6.3,52.5,-1477.5,-0.9,-153.0,-542.4,0.6,0,2208,0,24,0, 
1.2300,-113.4,-351.6,-10.8,217.2,73.5,-48.0,-389.7,164.4,-889.2,-451.2,475.8,381.9,-1098.9,-1355.1,-615.0,87.0,-7.2,-5.4,36.0,-1496.7,-0.6,-172.8,-542.1,-6.9,0,2214,0,25,0, 
1.2333,-108.9,-350.7,-12.3,217.8,73.8,-45.6,-392.4,161.4,-1185.6,-457.8,467.7,376.2,-1100.4,-1359.6,-614.4,92.4,-6.6,-5.7,27.9,-1498.2,-0.6,-168.0,-548.4,-8.4,0,2220,0,26,0, 
1.2367,-114.9,-354.9,-17.1,209.1,63.9,-53.7,-396.9,159.3,-1037.4,-462.6,458.1,367.8,-1106.1,-1365.6,-622.8,86.1,-7.2,-5.7,17.1,-1506.6,-0.9,-180.0,-550.2,-18.9,0,2226,0,27,0, 
1.2400,-109.2,-349.2,-7.8,216.9,74.1,-50.1,-387.3,162.6,-889.2,-452.1,475.5,380.7,-1102.2,-1364.7,-622.5,90.6,-6.9,-5.4,36.6,-1496.1,-0.9,-163.8,-549.6,-10.2,0,2232,0,28,0, 
1.2433,-120.9,-355.8,-11.7,213.0,70.8,-56.7,-398.7,154.2,-815.1,-459.0,473.7,382.2,-1109.7,-1373.1,-625.5,79.8,-6.9,-5.7,37.8,-1495.8,-0.6,-179.1,-557.4,-20.1,0,2238,0,29,0, 
1.2467,-122.4,-355.5,-12.9,217.5,71.7,-52.8,-400.8,153.3,-963.3,-463.5,477.6,381.6,-1115.1,-1375.5,-628.2,76.8,-6.3,-5.7,35.4,-1493.4,-0.9,-176.7,-556.8,-25.5,0,2244,0,30,0, 
1.2500,-119.1,-354.0,-12.3,218.1,74.1,-53.7,-399.0,158.4,-1111.5,-468.9,472.8,375.6,-1113.9,-1382.1,-626.1,82.5,-6.9,-5.4,31.5,-1501.8,-0.6,-186.6,-561.0,-24.9,0,2250,0,31,0, 
1.2533,-117.9,-345.0,-0.3,229.5,84.0,-42.6,-393.3,167.7,-1111.5,-461.4,476.7,381.0,-1115.4,-1394.1,-637.8,74.1,-7.2,-6.0,41.1,-1497.6,-0.3,-175.8,-563.7,-17.7,0,2256,0,32,0, 
1.2567,-119.4,-347.4,1.8,228.6,82.5,-47.4,-398.7,162.9,-963.3,-472.5,465.9,372.9,-1117.2,-1386.9,-641.1,66.6,-6.9,-5.7,35.1,-1505.4,-0.6,-185.1,-571.5,-24.6,0,2262,0,33,0, 
1.2600,-126.0,-351.9,-6.3,234.9,90.6,-36.3,-390.3,171.6,-815.1,-458.4,476.4,384.0,-1119.3,-1407.6,-659.1,71.1,-6.9,-5.7,41.7,-1488.0,-0.6,-175.5,-561.6,-14.7,0,2268,0,34,0, 
1.2633,-128.4,-349.8,-0.3,239.7,94.2,-33.9,-393.6,173.7,-889.2,-458.7,482.4,386.4,-1120.5,-1419.9,-652.5,68.4,-6.9,-6.3,46.2,-1486.8,-0.9,-176.7,-558.3,-13.8,0,2274,0,35,0, 
1.2667,-127.2,-349.8,-1.5,237.0,91.5,-32.1,-396.9,171.9,-1185.6,-462.0,483.0,386.4,-1119.3,-1414.8,-655.8,61.5,-6.6,-6.0,40.2,-1487.4,-0.3,-183.0,-566.4,-14.1,0,2280,0,36,0, 
1.2700,-123.0,-342.3,6.0,242.1,97.2,-28.5,-390.0,178.8,-1111.5,-455.1,482.4,387.9,-1112.1,-1405.5,-650.1,62.4,-6.9,-6.0,41.4,-1483.8,-0.9,-174.9,-562.8,-9.0,0,2286,0,37,0, 
1.2733,-120.0,-344.4,7.5,241.2,96.3,-31.2,-394.8,176.4,-1111.5,-457.8,493.5,396.9,-1114.2,-1395.0,-640.5,57.3,-6.6,-6.0,51.6,-1477.2,-0.3,-168.9,-564.0,-11.1,0,2292,0,38,0, 
1.2767,-119.7,-343.5,4.8,241.2,98.7,-29.7,-394.2,176.1,-815.1,-452.7,493.5,397.8,-1107.6,-1389.0,-639.0,56.1,-6.6,-6.0,48.9,-1477.5,-0.6,-173.1,-568.2,-9.0,0,2298,0,39,0, 
1.2800,-116.4,-339.6,12.0,243.3,104.1,-26.7,-390.0,178.5,-963.3,-444.3,500.7,406.2,-1098.6,-1378.2,-639.6,54.3,-6.9,-6.0,61.8,-1464.6,0.0,-166.2,-565.8,-3.3,0,2304,0,40,0, 
1.2833,-107.1,-333.6,11.1,249.3,110.1,-21.9,-388.8,179.7,-1111.5,-441.3,503.7,410.4,-1091.7,-1376.7,-631.5,56.1,-6.9,-6.0,60.6,-1464.6,-0.3,-157.2,-560.1,3.0,0,2310,0,41,0, 
1.2867,-110.1,-337.2,11.7,241.8,103.5,-28.2,-395.7,176.7,-1111.5,-445.5,493.8,401.1,-1097.1,-1384.2,-640.8,55.2,-6.9,-5.4,54.6,-1469.4,0.0,-158.1,-560.7,-2.1,0,2316,0,42,0, 
1.2900,-106.5,-336.6,6.3,246.0,105.9,-23.7,-391.2,176.7,-1037.4,-437.4,492.0,400.8,-1096.2,-1370.4,-636.0,65.1,-6.6,-5.7,51.9,-1467.3,-0.6,-151.2,-552.3,0.9,0,2322,0,43,0, 
1.2933,-107.7,-344.1,2.1,235.2,95.7,-36.6,-396.3,166.5,-815.1,-451.5,487.2,396.0,-1101.0,-1372.2,-624.3,71.4,-7.2,-5.7,40.8,-1476.3,-0.6,-166.2,-553.2,-5.4,0,2328,0,44,0, 
1.2967,-108.6,-345.3,-1.8,230.1,90.9,-38.7,-398.7,158.1,-889.2,-452.7,474.0,392.7,-1108.5,-1370.1,-618.3,74.7,-6.6,-6.0,33.3,-1475.4,-0.6,-160.5,-560.1,-8.1,0,2334,0,45,0, 
1.3000,-111.3,-353.1,-13.8,221.7,84.0,-41.1,-393.9,154.8,-1185.6,-456.9,473.7,386.1,-1112.7,-1364.7,-608.7,79.2,-6.9,-5.4,27.0,-1475.7,-0.9,-164.7,-556.5,-6.3,0,2340,0,46,0, 
1.3033,-114.3,-350.7,-9.6,229.2,84.9,-36.9,-390.0,158.7,-1037.4,-442.2,487.5,398.1,-1107.6,-1387.5,-622.8,78.9,-6.9,-6.3,41.7,-1468.5,-0.6,-155.1,-547.5,-4.2,0,2346,0,47,0, 
1.3067,-105.6,-343.2,-1.5,232.5,92.1,-30.6,-384.3,163.2,-963.3,-446.4,493.2,399.9,-1105.8,-1379.1,-616.2,90.3,-7.2,-5.4,42.0,-1465.5,-0.6,-159.6,-544.8,1.2,0,2352,0,48,0, 
1.3100,-114.3,-352.5,-10.5,219.9,84.0,-38.4,-390.6,155.7,-889.2,-456.3,470.7,381.9,-1115.4,-1388.7,-618.3,94.2,-6.6,-5.7,25.8,-1481.4,-0.6,-166.8,-550.8,-9.3,0,2358,0,49,0, 
1.3133,-115.8,-353.7,-14.1,221.1,80.1,-40.2,-384.3,151.8,-963.3,-459.3,466.8,378.0,-1114.8,-1389.0,-614.4,93.3,-6.9,-6.0,20.4,-1483.2,-0.3,-170.7,-555.3,-13.5,0,2364,0,50,0, 
1.3167,-117.9,-358.5,-21.6,214.5,74.4,-44.4,-388.2,143.7,-1111.5,-467.1,461.7,376.2,-1118.1,-1391.4,-612.9,89.4,-6.3,-5.7,20.4,-1487.4,-0.6,-180.6,-561.6,-16.2,0,2370,0,51,0, 
1.3200,-115.5,-356.7,-22.5,212.4,73.8,-46.8,-390.0,148.8,-1185.6,-468.9,456.6,374.1,-1116.9,-1379.1,-619.8,86.4,-6.6,-5.7,17.7,-1487.7,-0.6,-182.1,-562.8,-20.7,0,2376,0,52,0, 
1.3233,-113.4,-355.8,-22.5,211.2,72.0,-45.0,-383.7,153.6,-815.1,-471.0,458.7,369.6,-1118.7,-1387.2,-624.9,94.8,-6.9,-5.7,18.6,-1494.3,-0.6,-182.4,-563.4,-19.8,0,2382,0,53,0, 
1.3267,-117.6,-357.3,-19.2,209.7,72.6,-46.8,-385.5,153.0,-963.3,-463.5,465.9,369.9,-1117.2,-1398.3,-632.7,85.8,-6.9,-5.4,24.9,-1493.1,-0.9,-178.2,-559.5,-21.6,0,2388,0,54,0, 
1.3300,-115.2,-354.3,-18.9,213.9,75.0,-42.6,-385.8,159.3,-889.2,-471.3,465.3,375.3,-1118.4,-1392.3,-628.8,90.0,-7.2,-6.0,23.1,-1491.3,-0.9,-183.6,-558.9,-23.4,0,2394,0,55,0, 
1.3333,-117.0,-354.0,-16.2,220.5,74.1,-37.8,-381.6,160.8,-1185.6,-470.1,463.8,375.9,-1117.8,-1395.9,-631.5,87.9,-6.3,-5.7,23.7,-1489.5,-0.6,-179.7,-562.5,-16.5,0,2400,0,56,0, 
1.3367,-108.6,-351.6,-13.5,223.8,82.8,-32.1,-377.1,168.0,-963.3,-466.8,470.7,381.9,-1112.7,-1389.6,-627.0,91.8,-7.2,-6.0,21.6,-1485.6,-0.9,-175.2,-562.2,-11.1,0,2406,0,57,0, 
1.3400,-111.6,-355.2,-19.8,215.7,76.2,-42.3,-381.9,158.1,-1111.5,-474.9,459.3,369.3,-1121.7,-1396.5,-630.3,81.9,-7.5,-6.0,12.3,-1495.8,-0.6,-187.2,-569.7,-20.4,0,2412,0,58,0, 
1.3433,-114.9,-358.2,-26.7,209.7,72.3,-48.9,-390.0,158.7,-889.2,-481.2,457.2,366.3,-1122.3,-1401.3,-625.5,77.1,-6.9,-5.7,9.6,-1499.4,-0.6,-195.0,-570.6,-22.5,0,2418,0,59,0, 
1.3467,-116.1,-352.2,-13.2,219.6,82.5,-40.8,-387.9,163.5,-889.2,-466.8,466.2,380.7,-1119.3,-1401.9,-639.3,65.4,-6.9,-5.4,24.0,-1478.7,-0.3,-181.8,-569.1,-14.7,0,2424,0,60,0, 
1.3500,-115.8,-352.2,-17.7,216.0,80.1,-38.7,-395.4,164.4,-1185.6,-480.0,464.7,381.6,-1124.7,-1404.6,-636.6,74.7,-6.6,-5.7,15.6,-1477.2,-1.2,-183.9,-559.8,-10.8,0,2430,0,61,0, 
1.3533,-113.7,-350.4,-17.4,216.6,80.4,-41.7,-392.7,164.1,-1333.8,-477.6,463.8,378.6,-1123.8,-1392.3,-633.6,69.3,-6.9,-5.4,16.5,-1479.0,-0.9,-186.0,-570.6,-12.6,0,2436,0,62,0, 
1.3567,-118.2,-345.3,-3.9,228.3,89.7,-36.0,-390.9,173.4,-1111.5,-460.5,476.1,392.7,-1122.3,-1416.3,-653.1,58.2,-7.2,-5.4,23.7,-1464.9,-0.6,-172.2,-564.6,-4.2,0,2442,0,63,0, 
1.3600,-117.9,-344.4,0.6,230.7,86.7,-35.4,-389.1,174.3,-963.3,-466.8,475.8,387.6,-1120.2,-1406.7,-640.2,66.6,-6.9,-5.7,30.0,-1470.6,-0.6,-178.5,-563.7,-6.6,0,2448,0,64,0, 
1.3633,-114.9,-347.4,-19.5,230.4,88.8,-33.0,-393.9,171.6,-963.3,-460.8,480.9,391.2,-1118.4,-1398.9,-641.4,62.7,-6.3,-6.0,38.4,-1469.1,-0.9,-171.9,-570.3,-4.8,0,2454,0,65,0, 
1.3667,-114.0,-344.4,-6.6,231.9,89.7,-31.5,-393.9,172.2,-1111.5,-464.1,480.6,388.5,-1114.8,-1393.8,-634.2,65.7,-7.2,-5.7,30.3,-1468.5,-0.9,-175.8,-573.9,-9.6,0,2460,0,66,0, 
1.3700,-107.7,-334.8,4.2,241.5,97.2,-19.8,-390.0,183.6,-1037.4,-447.6,497.1,404.7,-1103.1,-1390.8,-644.4,53.7,-6.9,-6.0,42.3,-1453.8,-0.9,-162.3,-567.6,5.1,0,2466,0,67,0, 
1.3733,-98.7,-328.5,14.7,248.1,101.7,-18.9,-391.5,185.7,-1111.5,-446.4,500.1,407.7,-1098.0,-1373.4,-627.3,63.9,-6.9,-5.7,46.5,-1453.5,0.0,-159.0,-561.6,3.3,0,2472,0,68,0, 
1.3767,-101.1,-328.8,12.3,246.3,105.3,-20.7,-394.2,185.1,-889.2,-448.2,492.3,402.9,-1100.7,-1374.9,-637.5,56.7,-6.6,-6.0,44.7,-1453.5,-0.6,-157.8,-568.8,3.3,0,2478,0,69,0, 
1.3800,-100.2,-324.6,11.7,250.5,110.4,-16.2,-388.2,188.7,-889.2,-443.7,487.5,407.1,-1096.2,-1369.2,-629.7,65.4,-6.9,-5.7,43.5,-1451.1,0.0,-151.8,-566.4,7.2,0,2484,0,70,0, 
1.3833,-99.9,-324.6,12.6,253.8,110.4,-13.8,-387.0,190.8,-1111.5,-434.1,492.6,406.5,-1093.2,-1371.3,-639.0,64.2,-6.9,-6.0,43.8,-1449.6,-0.3,-155.4,-564.6,8.7,0,2490,0,71,0, 
1.3867,-100.5,-327.3,3.6,241.2,100.2,-25.8,-391.8,181.2,-1037.4,-443.4,497.4,401.4,-1099.2,-1367.7,-627.3,74.1,-7.2,-5.7,45.6,-1458.6,-0.6,-156.9,-564.9,4.2,0,2496,0,72,0, 
1.3900,-100.2,-329.4,4.5,241.5,96.0,-26.4,-392.4,179.7,-1037.4,-438.3,496.5,402.6,-1096.8,-1364.4,-613.5,73.5,-6.9,-6.0,44.7,-1455.9,-0.9,-158.4,-569.7,2.1,0,2502,0,73,0, 
1.3933,-98.4,-329.7,3.0,238.8,96.6,-30.3,-395.1,176.1,-741.0,-438.0,490.2,402.0,-1098.6,-1362.9,-624.6,72.3,-6.6,-6.0,45.3,-1453.2,-0.9,-150.3,-562.2,5.1,0,2508,0,74,0, 
1.3967,-98.7,-329.7,-1.5,234.3,89.7,-27.6,-389.4,171.9,-963.3,-441.3,481.2,395.1,-1098.9,-1359.3,-618.9,83.1,-6.9,-5.7,36.3,-1458.0,-0.6,-157.2,-555.3,4.5,0,2514,0,75,0, 
1.4000,-105.9,-340.2,-13.8,225.0,79.5,-39.3,-398.1,161.4,-963.3,-456.0,470.1,385.5,-1109.4,-1359.0,-611.1,86.1,-6.6,-6.0,18.3,-1468.5,-0.9,-164.1,-566.1,-8.4,0,2520,0,76,0, 
1.4033,-104.4,-341.7,-16.2,221.1,78.9,-34.8,-389.7,162.9,-1185.6,-456.3,465.9,387.3,-1109.4,-1365.9,-616.2,95.7,-6.9,-5.7,19.2,-1468.8,-0.6,-165.0,-563.7,-0.3,0,2526,0,77,0, 
1.4067,-111.9,-344.7,-16.2,219.6,76.2,-41.1,-392.1,157.8,-889.2,-452.1,467.7,385.2,-1113.9,-1370.4,-621.9,84.3,-6.6,-6.0,22.5,-1469.1,-0.9,-161.4,-563.1,-7.5,0,2532,0,78,0, 
1.4100,-113.4,-345.9,-12.9,220.8,80.4,-39.3,-385.5,155.1,-741.0,-446.1,478.2,388.5,-1113.0,-1377.3,-619.5,94.2,-6.9,-6.0,36.0,-1470.3,-0.6,-164.4,-555.3,-5.4,0,2538,0,79,0, 
1.4133,-117.9,-351.6,-18.9,218.4,77.1,-46.5,-391.2,150.6,-815.1,-452.7,482.7,384.0,-1124.1,-1378.2,-615.6,94.2,-6.9,-5.7,30.3,-1477.5,-0.9,-168.9,-558.3,-12.9,0,2544,0,80,0, 
1.4167,-121.2,-353.7,-22.5,211.2,74.7,-43.8,-390.6,152.7,-1111.5,-457.5,472.5,380.7,-1125.9,-1386.3,-620.4,99.3,-6.9,-5.7,20.1,-1482.0,-0.9,-171.0,-557.4,-12.0,0,2550,0,81,0, 
1.4200,-122.7,-354.6,-20.7,214.5,73.2,-47.4,-396.0,150.3,-1259.7,-463.5,465.0,373.8,-1129.5,-1391.4,-621.0,95.1,-6.9,-5.7,18.9,-1490.1,-0.9,-174.9,-559.5,-15.0,0,2556,0,82,0, 
1.4233,-127.5,-358.2,-24.6,212.1,67.5,-51.6,-399.6,145.8,-1037.4,-466.8,460.5,365.1,-1130.7,-1394.7,-624.6,94.5,-6.9,-6.3,9.9,-1491.9,-0.6,-178.2,-563.4,-21.3,0,2562,0,83,0, 
1.4267,-129.6,-359.4,-24.9,215.7,69.9,-45.3,-389.7,148.5,-963.3,-467.1,465.9,372.9,-1140.3,-1402.5,-627.3,92.7,-6.6,-6.0,13.5,-1480.8,-0.6,-174.6,-555.3,-13.8,0,2568,0,84,0, 
1.4300,-132.3,-365.7,-28.2,209.7,67.2,-49.2,-399.0,144.6,-963.3,-480.3,455.7,368.1,-1143.0,-1402.2,-625.8,90.6,-6.9,-6.0,1.5,-1485.9,-0.9,-184.5,-565.2,-23.1,0,2574,0,85,0, 
1.4333,-127.5,-358.5,-31.5,212.4,69.3,-45.6,-388.8,146.1,-1111.5,-473.1,459.0,371.1,-1143.3,-1410.6,-629.7,88.8,-6.9,-6.0,5.7,-1482.0,-0.9,-183.9,-566.1,-18.6,0,2580,0,86,0, 
1.4367,-128.4,-358.2,-26.1,212.1,69.6,-43.2,-393.3,151.5,-1185.6,-482.4,453.0,365.1,-1144.2,-1414.5,-636.9,86.4,-6.3,-5.7,-3.3,-1487.1,-0.9,-185.1,-567.9,-16.2,0,2586,0,87,0, 
1.4400,-130.8,-360.0,-27.0,210.0,71.7,-43.8,-390.6,151.5,-889.2,-478.5,444.6,363.0,-1146.9,-1425.6,-641.7,83.4,-7.2,-5.7,-11.4,-1484.4,-0.3,-189.3,-567.3,-14.4,0,2592,0,88,0, 
1.4433,-132.3,-360.9,-27.9,213.3,71.7,-44.7,-391.8,150.9,-815.1,-482.1,447.3,367.5,-1146.3,-1431.6,-650.1,79.8,-6.9,-5.7,-3.9,-1482.6,-0.6,-183.0,-571.2,-18.3,0,2598,0,89,0, 
1.4467,-133.5,-357.3,-27.3,211.8,74.1,-42.0,-389.4,152.1,-1037.4,-479.1,447.9,369.9,-1145.4,-1437.0,-650.1,81.3,-6.9,-5.7,-2.4,-1479.9,-0.6,-194.4,-568.5,-16.5,0,2604,0,90,0, 
1.4500,-130.5,-355.8,-23.1,218.1,77.4,-40.8,-387.6,154.5,-1111.5,-483.9,449.4,369.0,-1141.5,-1427.4,-652.2,76.5,-6.6,-6.0,-2.7,-1482.3,-0.6,-180.0,-570.9,-14.1,0,2610,0,91,0, 
1.4533,-132.6,-352.5,-19.8,223.2,75.6,-41.4,-392.7,156.3,-1111.5,-474.3,452.7,369.6,-1139.4,-1431.9,-654.6,70.5,-6.9,-5.4,1.8,-1480.2,-0.6,-186.0,-569.7,-18.3,0,2616,0,92,0, 
1.4567,-129.6,-351.3,-13.5,232.5,86.7,-30.9,-385.8,163.5,-1037.4,-472.8,465.6,381.9,-1135.2,-1422.3,-655.8,71.7,-6.9,-5.7,13.2,-1470.6,-1.2,-177.6,-565.8,-10.2,0,2622,0,93,0, 
1.4600,-132.0,-348.6,-9.3,230.1,83.7,-32.7,-388.5,160.2,-815.1,-471.6,464.7,378.3,-1135.8,-1417.8,-654.3,71.7,-6.9,-5.7,13.5,-1476.6,-0.9,-179.7,-563.4,-7.2,0,2628,0,94,0, 
1.4633,-122.4,-343.8,-9.3,234.3,90.9,-30.3,-388.2,167.4,-963.3,-467.4,466.2,381.6,-1123.5,-1403.4,-645.3,67.8,-6.9,-5.7,12.9,-1469.7,-0.6,-178.8,-565.8,-7.5,0,2634,0,95,0, 
1.4667,-114.9,-335.4,8.7,242.4,97.8,-24.3,-390.9,173.1,-1185.6,-464.1,476.4,391.8,-1118.4,-1389.0,-636.0,67.2,-6.9,-6.0,20.7,-1458.0,-0.6,-170.1,-571.8,0.0,0,2640,0,96,0, 
1.4700,-118.8,-344.4,-14.7,237.3,92.7,-28.2,-398.4,164.4,-1111.5,-458.1,475.8,394.5,-1120.5,-1397.7,-644.1,54.0,-6.9,-5.7,20.4,-1456.8,-0.6,-168.3,-582.0,-1.5,0,2646,0,97,0, 
1.4733,-112.5,-337.2,-9.6,243.0,99.9,-25.5,-389.7,171.6,-963.3,-450.0,483.0,398.7,-1116.9,-1398.3,-651.9,54.0,-6.6,-6.0,25.5,-1448.4,0.0,-156.0,-576.3,4.8,0,2652,0,98,0, 
1.4767,-116.7,-343.5,-15.3,234.6,93.6,-33.9,-394.2,163.5,-815.1,-463.5,469.8,386.4,-1124.7,-1388.1,-640.2,58.8,-6.9,-5.7,9.3,-1460.7,-0.3,-169.5,-577.2,-5.4,0,2658,0,99,0, 
1.4800,-101.1,-333.3,-6.0,237.3,99.0,-30.0,-389.4,169.8,-1037.4,-452.4,477.6,394.5,-1111.2,-1375.8,-621.6,71.1,-6.6,-5.7,25.5,-1458.3,-0.3,-161.1,-570.9,-1.2,0,2664,0,100,0, 
1.4833,-110.1,-342.3,-15.3,222.0,84.0,-41.1,-397.8,159.0,-1185.6,-458.1,470.7,387.0,-1115.7,-1382.7,-629.7,74.4,-7.5,-5.7,16.8,-1465.5,-0.6,-173.4,-579.3,-11.4,0,2670,0,101,0, 
1.4867,-107.4,-339.0,-9.0,224.7,86.7,-37.5,-393.9,162.9,-1185.6,-454.5,470.7,391.2,-1111.8,-1377.9,-632.7,69.0,-6.6,-6.0,19.5,-1458.9,-0.6,-165.3,-574.5,-8.1,0,2676,0,102,0, 
1.4900,-111.9,-346.5,-19.8,219.3,79.5,-38.1,-390.0,157.8,-963.3,-459.9,464.7,378.0,-1123.5,-1388.7,-630.3,80.1,-6.6,-5.4,8.4,-1468.8,-0.6,-172.8,-572.1,-7.8,0,2682,0,103,0, 
1.4933,-112.5,-347.4,-19.5,218.7,77.7,-42.0,-388.5,151.8,-889.2,-467.1,450.9,369.9,-1124.7,-1380.3,-626.4,77.7,-6.9,-5.7,1.2,-1479.9,-1.2,-175.8,-576.0,-9.9,0,2688,0,104,0, 
1.4967,-120.3,-359.4,-34.8,218.7,74.1,-45.3,-388.5,149.7,-889.2,-476.1,445.5,363.6,-1131.3,-1385.7,-627.3,78.6,-7.2,-5.7,-1.2,-1484.7,-0.6,-190.8,-578.7,-17.4,0,2694,0,105,0, 
1.5000,-116.1,-351.3,-21.3,219.3,78.3,-43.2,-384.6,148.2,-1185.6,-465.6,451.2,367.2,-1127.7,-1393.8,-624.6,83.1,-6.9,-6.0,0.0,-1479.0,-1.2,-182.4,-579.3,-17.7,0,2700,0,106,0, 
1.5033,-115.5,-356.4,-25.2,222.6,78.9,-39.9,-381.6,153.6,-1111.5,-472.5,450.3,375.3,-1131.9,-1386.3,-623.7,90.9,-6.9,-6.0,-9.6,-1470.0,-0.3,-184.5,-576.0,-12.3,0,2706,0,107,0, 
1.5067,-116.7,-357.0,-29.1,219.0,73.5,-48.6,-388.2,148.5,-1037.4,-485.1,442.5,368.4,-1138.5,-1380.6,-611.1,91.5,-7.2,-6.0,-13.5,-1477.2,-1.2,-190.8,-583.2,-22.2,0,2712,0,108,0, 
1.5100,-121.5,-362.4,-30.3,220.5,74.7,-48.6,-390.0,147.9,-889.2,-487.8,440.1,364.5,-1139.4,-1389.3,-634.8,86.4,-6.9,-6.3,-13.8,-1481.4,-0.6,-186.3,-578.7,-19.2,0,2718,0,109,0, 
1.5133,-124.5,-362.1,-25.8,221.7,78.0,-45.6,-389.1,150.0,-963.3,-486.3,439.2,364.8,-1142.1,-1408.2,-636.0,89.1,-6.6,-5.4,-14.4,-1480.5,-0.6,-183.9,-575.1,-15.9,0,2724,0,110,0, 
1.5167,-125.4,-362.4,-27.9,217.8,75.9,-46.5,-394.2,151.2,-1259.7,-488.1,440.7,361.2,-1145.7,-1410.0,-644.1,86.1,-6.6,-6.0,-16.5,-1484.4,-0.3,-185.4,-581.1,-18.3,0,2730,0,111,0, 
1.5200,-128.4,-363.6,-33.0,213.6,72.0,-49.5,-390.3,149.7,-1259.7,-493.8,435.9,358.2,-1152.3,-1421.7,-654.9,86.7,-7.2,-6.0,-21.3,-1486.8,-0.9,-187.8,-581.1,-18.3,0,2736,0,112,0, 
1.5233,-125.7,-361.2,-30.6,215.4,76.5,-46.5,-392.1,152.1,-1037.4,-496.2,442.8,355.2,-1149.3,-1420.5,-652.5,86.4,-6.6,-6.0,-19.8,-1491.0,-0.6,-192.0,-579.9,-18.3,0,2742,0,113,0, 
1.5267,-132.3,-364.5,-30.3,218.1,77.7,-45.6,-386.7,150.3,-815.1,-486.9,443.4,362.4,-1152.6,-1434.6,-660.9,78.9,-6.9,-5.7,-12.9,-1481.1,-0.9,-190.2,-581.7,-18.6,0,2748,0,114,0, 
1.5300,-124.8,-358.2,-23.4,225.3,83.1,-42.3,-385.2,153.0,-1037.4,-481.2,451.5,370.5,-1145.4,-1426.8,-651.6,81.9,-6.6,-5.7,-3.6,-1471.5,-0.6,-185.7,-576.0,-10.5,0,2754,0,115,0, 
1.5333,-123.0,-358.2,-25.8,220.5,84.3,-42.9,-383.4,152.4,-1185.6,-480.0,456.3,376.5,-1142.4,-1427.4,-644.1,86.4,-6.9,-5.7,-2.4,-1466.7,-0.6,-182.1,-575.4,-13.8,0,2760,0,116,0, 
1.5367,-120.3,-351.0,-24.0,227.1,87.0,-37.5,-386.4,161.1,-1259.7,-480.3,452.1,371.4,-1134.0,-1421.7,-643.2,87.3,-6.6,-6.0,-3.0,-1470.9,-0.6,-178.2,-580.8,-10.5,0,2766,0,117,0, 
1.5400,-121.5,-352.2,-18.9,231.6,86.7,-39.3,-388.2,161.1,-1185.6,-478.8,449.4,372.9,-1134.6,-1417.8,-645.0,78.6,-6.9,-5.4,-6.6,-1469.7,-0.9,-183.6,-577.8,-15.3,0,2772,0,118,0, 
1.5433,-126.6,-354.3,-24.9,230.1,87.0,-42.6,-399.0,158.1,-963.3,-488.7,450.3,369.9,-1143.0,-1418.1,-647.1,73.5,-6.9,-5.4,-5.1,-1474.2,-0.9,-190.2,-583.8,-16.5,0,2778,0,119,0, 
1.5467,-123.6,-349.2,-20.4,229.5,84.9,-44.1,-400.8,162.6,-1037.4,-488.4,449.4,366.3,-1143.9,-1413.0,-642.6,73.5,-6.6,-6.0,-2.7,-1482.3,-0.6,-191.4,-588.9,-24.9,0,2784,0,120,0, 
1.5500,-123.3,-345.0,-15.6,236.7,86.4,-39.6,-398.7,165.3,-1259.7,-480.0,448.2,370.2,-1137.6,-1407.0,-649.5,69.3,-6.6,-5.7,-3.6,-1477.2,-0.9,-183.9,-587.1,-21.6,0,2790,0,121,0, 
1.5533,-116.1,-341.7,-8.7,241.8,87.0,-38.4,-396.9,163.2,-1185.6,-482.7,450.9,371.1,-1135.5,-1408.5,-651.0,56.7,-6.9,-6.0,-1.2,-1473.3,-0.6,-188.1,-590.7,-14.1,0,2796,0,122,0, 
1.5567,-118.5,-339.6,3.0,252.0,95.4,-33.3,-395.1,171.3,-963.3,-471.0,471.0,385.2,-1134.0,-1408.5,-659.1,58.8,-6.6,-5.7,7.2,-1457.1,-0.9,-178.8,-586.2,-5.7,0,2802,0,123,0, 
1.5600,-111.3,-339.6,-8.4,249.6,98.7,-31.5,-387.0,168.9,-889.2,-468.0,467.1,390.3,-1127.4,-1394.4,-646.8,66.0,-6.9,-5.7,12.0,-1455.0,-0.6,-175.2,-577.2,-2.1,0,2808,0,124,0, 
1.5633,-109.8,-335.1,-2.1,251.1,100.2,-28.5,-388.2,171.0,-963.3,-468.6,465.3,387.0,-1123.2,-1380.6,-639.3,60.9,-6.6,-5.7,12.3,-1454.7,-0.9,-170.7,-574.8,-0.6,0,2814,0,125,0, 
1.5667,-111.9,-338.1,-13.5,246.0,95.1,-29.1,-388.5,170.4,-1111.5,-466.8,465.9,385.2,-1122.3,-1382.7,-637.5,58.5,-6.9,-5.7,10.2,-1455.0,-0.6,-168.9,-579.6,2.4,0,2820,0,126,0, 
1.5700,-108.3,-335.7,-3.6,244.5,96.3,-26.1,-384.0,167.7,-1111.5,-466.2,468.3,384.9,-1123.2,-1367.4,-625.8,69.9,-6.6,-5.7,9.3,-1454.4,-0.9,-169.2,-572.7,10.2,0,2826,0,127,0, 
1.5733,-114.3,-335.7,-3.9,250.8,101.7,-25.5,-384.3,167.7,-1037.4,-451.8,471.0,394.5,-1119.9,-1390.8,-654.6,65.7,-6.9,-5.7,15.9,-1444.5,-0.6,-159.0,-564.9,10.5,0,2832,0,128,0, 
1.5767,-115.2,-339.6,-2.4,249.3,101.1,-21.0,-382.8,166.5,-815.1,-451.5,469.2,390.9,-1121.4,-1390.5,-654.6,69.0,-6.9,-5.7,13.2,-1447.5,-1.2,-165.6,-559.2,14.4,0,2838,0,129,0, 
1.5800,-108.3,-340.8,-11.7,245.7,96.9,-23.1,-387.0,165.3,-963.3,-459.9,462.6,384.0,-1123.2,-1377.6,-640.8,71.1,-6.6,-6.0,4.2,-1450.8,-0.9,-164.1,-565.2,13.8,0,2844,0,130,0, 
1.5833,-116.1,-350.1,-24.3,235.8,84.6,-34.8,-396.9,156.6,-1259.7,-470.1,445.2,367.5,-1134.6,-1383.9,-640.8,72.0,-7.2,-5.7,-5.1,-1471.2,-0.6,-181.2,-574.2,-2.7,0,2850,0,131,0, 
1.5867,-108.9,-342.9,-21.3,239.7,88.2,-34.8,-381.3,161.7,-1333.8,-464.7,449.7,368.1,-1131.0,-1377.3,-633.0,82.5,-6.6,-6.3,-0.9,-1470.0,-0.3,-170.7,-566.1,-3.3,0,2856,0,132,0, 
1.5900,-117.9,-351.6,-26.4,231.9,79.2,-38.4,-385.8,154.8,-1037.4,-475.5,447.9,364.2,-1138.5,-1380.0,-635.4,87.9,-6.9,-6.0,-10.2,-1476.0,-0.6,-182.7,-569.7,-7.8,0,2862,0,133,0, 
1.5933,-117.0,-351.9,-24.9,234.9,82.8,-36.3,-379.2,156.9,-666.9,-471.3,451.5,368.1,-1136.7,-1389.9,-639.9,91.8,-7.2,-6.0,-2.4,-1476.0,-0.6,-174.6,-567.6,-6.6,0,2868,0,134,0, 
1.5967,-118.5,-352.8,-27.6,232.2,81.0,-35.7,-388.8,156.0,-1037.4,-474.9,441.6,359.7,-1140.9,-1388.4,-630.3,94.5,-6.3,-6.0,-8.4,-1479.3,-0.6,-180.9,-571.5,-7.8,0,2874,0,135,0, 
1.6000,-114.9,-349.5,-25.5,232.5,82.8,-36.6,-384.6,157.5,-1111.5,-474.3,448.2,365.4,-1137.0,-1381.8,-629.1,99.9,-6.9,-6.3,-3.9,-1473.0,-0.9,-175.8,-569.1,-9.6,0,2880,0,136,0, 
1.6033,-109.8,-349.2,-28.8,225.6,77.4,-42.6,-385.5,157.8,-1185.6,-479.4,443.7,358.5,-1134.6,-1369.5,-619.2,101.7,-7.2,-6.0,-13.5,-1478.7,-0.6,-192.6,-574.8,-16.8,0,2886,0,137,0, 
1.6067,-106.2,-353.4,-29.7,225.6,78.6,-41.7,-382.2,153.0,-1037.4,-477.0,442.5,361.8,-1137.3,-1371.9,-617.4,99.3,-6.6,-6.0,-12.3,-1475.4,-1.2,-181.5,-574.2,-12.9,0,2892,0,138,0, 
1.6100,-106.5,-350.1,-24.6,228.0,81.3,-37.5,-377.4,157.5,-889.2,-472.8,448.8,367.2,-1138.8,-1383.3,-615.9,102.9,-6.9,-6.0,-4.5,-1470.9,-0.3,-181.2,-570.3,-7.8,0,2898,0,139,0, 
1.6133,-108.9,-345.9,-22.5,230.4,86.7,-33.0,-374.1,158.4,-963.3,-467.1,450.3,368.4,-1135.2,-1387.5,-624.9,102.6,-6.9,-6.3,-5.4,-1473.9,-0.9,-173.4,-565.8,-2.7,0,2904,0,140,0, 
1.6167,-109.8,-347.1,-22.5,234.3,93.9,-29.7,-372.6,162.6,-1259.7,-462.9,451.5,372.3,-1137.6,-1393.5,-630.0,104.1,-6.9,-6.0,0.9,-1462.8,-0.9,-171.9,-570.0,0.0,0,2910,0,141,0, 
1.6200,-116.7,-349.2,-24.3,231.3,88.8,-38.1,-378.0,156.0,-1259.7,-467.1,445.8,371.7,-1140.6,-1407.0,-644.4,99.3,-6.6,-5.7,-5.1,-1466.4,-0.9,-171.9,-578.4,-8.7,0,2916,0,142,0, 
1.6233,-112.2,-345.3,-18.9,234.0,93.0,-33.3,-376.5,155.4,-1037.4,-471.0,453.9,371.4,-1137.6,-1405.8,-631.8,100.8,-6.9,-6.0,-4.2,-1459.2,-0.6,-175.5,-574.2,0.6,0,2922,0,143,0, 
1.6267,-117.3,-348.3,-21.0,233.4,93.3,-35.1,-373.8,156.0,-889.2,-473.7,451.2,373.5,-1141.8,-1402.5,-633.0,93.3,-6.6,-5.4,-2.4,-1454.7,-0.9,-173.7,-572.7,-4.8,0,2928,0,144,0, 
1.6300,-115.5,-343.2,-15.0,237.6,99.6,-25.8,-374.1,161.1,-1037.4,-467.1,456.6,377.7,-1135.2,-1407.9,-644.4,84.0,-7.2,-6.0,-0.3,-1452.9,-0.6,-167.4,-569.4,4.5,0,2934,0,145,0, 
1.6333,-116.7,-344.1,-20.1,233.7,91.2,-32.4,-380.7,156.3,-1185.6,-469.8,449.7,372.3,-1138.2,-1407.6,-636.3,87.9,-6.6,-5.4,-4.2,-1463.1,-0.9,-175.5,-576.6,-2.7,0,2940,0,146,0, 
1.6367,-120.6,-347.1,-22.5,235.8,93.9,-29.4,-381.6,156.9,-1259.7,-467.7,456.6,373.5,-1137.9,-1408.5,-646.2,76.8,-6.9,-5.7,-2.4,-1460.7,-0.6,-169.8,-581.4,1.8,0,2946,0,147,0, 
1.6400,-120.0,-344.7,-14.7,239.1,96.3,-26.7,-381.3,159.3,-963.3,-457.8,462.0,381.0,-1133.1,-1414.2,-645.0,78.3,-6.6,-5.7,3.6,-1449.0,-0.6,-160.8,-573.6,8.7,0,2952,0,148,0, 
1.6433,-123.0,-346.5,-11.7,238.5,96.9,-29.4,-390.3,158.7,-963.3,-454.8,453.3,379.8,-1132.5,-1411.8,-644.1,73.2,-7.5,-6.0,-3.0,-1449.3,-0.9,-162.3,-574.2,4.2,0,2958,0,149,0, 
1.6467,-116.1,-339.6,-9.3,242.7,104.4,-22.5,-382.2,161.4,-889.2,-448.8,461.7,386.1,-1129.5,-1409.1,-637.8,73.2,-6.6,-6.0,9.0,-1442.1,-0.9,-154.5,-570.9,12.0,0,2964,0,150,0, 
1.6500,-104.1,-330.3,-1.8,249.6,108.3,-17.7,-379.2,174.0,-1111.5,-446.1,470.7,390.6,-1120.5,-1389.3,-624.3,83.7,-7.2,-5.4,9.9,-1439.4,-0.9,-150.0,-571.5,17.7,0,2970,0,151,0, 
1.6533,-105.0,-334.2,-11.7,246.0,103.2,-25.5,-387.3,167.1,-1259.7,-452.7,462.9,384.0,-1125.3,-1385.1,-624.6,66.3,-7.2,-6.0,1.5,-1443.9,-0.9,-156.6,-582.0,8.4,0,2976,0,152,0, 
1.6567,-101.4,-333.0,-10.5,250.5,105.9,-19.5,-380.7,171.0,-1037.4,-450.6,462.6,381.3,-1120.5,-1382.1,-626.1,70.2,-7.5,-5.7,0.6,-1444.2,-0.6,-155.1,-576.3,12.9,0,2982,0,153,0, 
1.6600,-95.1,-323.4,7.5,263.1,120.3,-9.0,-375.6,180.9,-889.2,-433.8,478.2,397.5,-1109.7,-1382.7,-634.8,74.4,-6.9,-5.7,21.6,-1427.4,-1.2,-140.7,-567.9,17.7,0,2988,0,154,0, 
1.6633,-93.9,-327.0,-1.2,257.7,116.1,-16.2,-381.6,176.4,-963.3,-437.1,479.4,396.9,-1110.9,-1380.0,-631.8,77.7,-7.2,-5.7,20.7,-1433.1,-0.3,-145.2,-568.5,18.3,0,2994,0,155,0, 
1.6667,-91.8,-327.6,-5.1,250.8,107.7,-20.7,-387.9,168.9,-1259.7,-445.2,470.4,388.5,-1115.1,-1368.9,-618.0,80.7,-7.2,-6.3,12.0,-1439.1,-0.3,-145.8,-571.5,8.7,0,3000,0,156,0, 
1.6700,-93.9,-328.5,-3.0,246.0,105.6,-21.3,-390.0,164.4,-1037.4,-447.9,471.3,387.6,-1117.2,-1364.4,-616.2,82.8,-6.9,-5.7,12.0,-1437.3,-0.9,-153.3,-568.5,9.3,0,3006,0,157,0, 
1.6733,-88.5,-328.8,4.2,245.4,108.0,-16.8,-381.3,168.0,-1037.4,-439.8,468.0,390.6,-1115.4,-1370.1,-616.5,95.4,-6.9,-6.0,8.7,-1435.8,-0.6,-145.2,-556.2,12.0,0,3012,0,158,0, 
1.6767,-91.2,-345.3,-25.8,228.0,94.8,-26.4,-379.5,157.5,-963.3,-456.6,453.6,374.7,-1123.2,-1369.2,-606.0,100.8,-6.6,-5.4,-3.6,-1449.6,-0.9,-157.5,-555.3,6.3,0,3018,0,159,0, 
1.6800,-93.9,-346.8,-24.0,227.4,93.3,-26.1,-386.1,157.5,-963.3,-457.2,441.0,370.8,-1123.2,-1372.8,-616.2,99.3,-7.2,-5.7,-15.3,-1454.4,-0.9,-158.4,-555.0,4.8,0,3024,0,160,0, 
1.6833,-93.0,-342.3,-21.6,233.4,94.8,-24.0,-379.2,159.9,-1037.4,-453.6,450.0,372.6,-1117.2,-1369.5,-614.4,99.6,-7.2,-5.7,-3.9,-1453.5,-0.6,-155.4,-550.5,3.9,0,3030,0,161,0, 
1.6867,-96.6,-350.7,-24.9,230.1,89.1,-29.4,-385.5,153.6,-1259.7,-460.5,445.2,366.0,-1122.3,-1371.6,-615.0,100.8,-7.2,-5.7,-5.1,-1465.5,-0.6,-161.7,-556.5,-6.0,0,3036,0,162,0, 
1.6900,-99.3,-359.1,-26.1,222.0,79.8,-35.4,-386.1,151.2,-1111.5,-471.9,441.3,351.6,-1128.3,-1367.1,-612.9,95.7,-7.2,-6.0,-15.6,-1478.1,-0.9,-175.5,-568.8,-13.5,0,3042,0,163,0, 
1.6933,-104.4,-358.5,-31.8,221.1,77.7,-32.1,-379.2,153.6,-815.1,-469.5,443.7,363.6,-1133.1,-1390.8,-619.8,98.4,-7.2,-6.0,-14.4,-1464.6,-0.6,-169.8,-564.6,-6.9,0,3048,0,164,0, 
1.6967,-99.3,-361.5,-29.4,220.5,79.8,-34.5,-379.2,154.8,-1037.4,-475.2,449.1,366.6,-1131.6,-1378.5,-608.7,104.7,-6.6,-6.6,-12.3,-1461.0,-0.9,-177.9,-564.0,-8.7,0,3054,0,165,0, 
1.7000,-103.8,-363.0,-27.9,219.9,80.1,-35.4,-377.4,152.7,-1111.5,-469.2,448.8,367.8,-1134.9,-1391.4,-614.1,97.2,-6.9,-6.3,-14.4,-1459.2,-1.2,-179.1,-567.0,-12.6,0,3060,0,166,0, 
1.7033,-111.9,-363.9,-23.7,226.8,83.7,-37.2,-383.1,151.5,-1333.8,-465.6,459.0,376.2,-1132.2,-1394.4,-644.7,77.4,-6.9,-5.7,-9.3,-1449.3,-0.9,-159.6,-571.5,-13.5,0,3066,0,167,0, 
1.7067,-113.1,-366.9,-23.4,221.4,78.0,-41.4,-387.9,150.0,-1037.4,-472.5,445.5,357.0,-1131.9,-1395.0,-635.1,80.7,-6.6,-6.3,-19.8,-1473.3,-1.2,-173.1,-576.6,-19.8,0,3072,0,168,0, 
1.7100,-116.4,-369.9,-22.5,222.3,78.6,-42.6,-396.9,152.1,-1037.4,-476.1,438.3,351.6,-1132.5,-1398.0,-627.9,77.4,-6.9,-6.0,-24.0,-1482.9,-0.9,-175.8,-578.1,-20.7,0,3078,0,169,0, 
1.7133,-113.1,-366.3,-26.4,225.9,84.9,-38.1,-386.1,155.4,-889.2,-469.5,446.1,360.6,-1125.9,-1399.8,-633.6,74.7,-6.6,-5.7,-18.0,-1468.8,-0.9,-169.5,-573.9,-15.3,0,3084,0,170,0, 
1.7167,-118.5,-368.4,-20.1,228.9,90.3,-32.7,-389.1,151.5,-1185.6,-465.6,454.8,376.2,-1131.3,-1409.7,-651.0,71.7,-6.9,-5.7,-8.4,-1450.5,-0.3,-163.8,-577.2,-10.2,0,3090,0,171,0, 
1.7200,-117.6,-373.8,-18.0,230.7,90.6,-30.6,-389.1,152.4,-1111.5,-471.3,453.6,372.9,-1135.2,-1401.6,-642.6,61.5,-6.9,-5.7,-13.2,-1453.8,-0.6,-169.8,-582.0,-11.7,0,3096,0,172,0, 
1.7233,-116.7,-374.7,-23.4,227.7,88.8,-34.5,-392.4,146.4,-963.3,-471.3,450.3,370.5,-1133.7,-1397.4,-638.7,60.9,-6.9,-5.7,-15.9,-1458.9,-0.9,-173.7,-589.5,-18.9,0,3102,0,173,0, 
1.7267,-111.6,-371.4,-15.3,231.6,94.2,-31.2,-386.7,151.2,-815.1,-468.3,453.0,372.6,-1132.2,-1398.9,-642.9,53.4,-6.9,-5.7,-11.7,-1452.6,-0.6,-166.8,-585.9,-8.7,0,3108,0,174,0, 
1.7300,-114.3,-369.3,-16.5,233.1,96.6,-30.9,-395.1,155.4,-963.3,-469.8,450.0,374.1,-1131.0,-1397.4,-647.7,43.2,-6.6,-6.0,-16.2,-1452.9,-0.6,-163.5,-586.5,-6.9,0,3114,0,175,0, 
1.7333,-108.6,-368.7,-11.4,239.4,102.3,-27.3,-394.2,155.1,-1333.8,-466.2,451.8,373.2,-1128.6,-1396.5,-642.9,35.4,-6.9,-6.3,-15.3,-1453.2,-0.9,-165.0,-584.4,-6.0,0,3120,0,176,0, 
1.7367,-101.1,-359.1,0.0,249.6,115.2,-19.8,-387.0,163.5,-1185.6,-455.4,468.9,389.7,-1120.2,-1390.8,-639.6,41.4,-6.9,-6.0,2.1,-1436.7,-0.6,-154.2,-580.2,1.5,0,3126,0,177,0, 
1.7400,-100.8,-360.0,-0.3,251.4,118.5,-18.0,-385.2,163.5,-815.1,-457.8,472.8,393.3,-1119.9,-1386.9,-630.3,43.2,-6.9,-5.7,1.8,-1436.7,-0.3,-156.0,-571.5,8.1,0,3132,0,178,0, 
1.7433,-99.6,-353.7,4.5,254.4,122.4,-17.4,-388.5,168.6,-666.9,-451.5,471.0,394.8,-1113.9,-1378.2,-637.5,42.3,-6.6,-6.0,4.8,-1437.0,-0.6,-151.8,-575.4,10.5,0,3138,0,179,0, 
1.7467,-104.1,-355.2,4.5,250.5,115.5,-23.4,-390.9,166.5,-1037.4,-452.1,468.9,389.4,-1115.4,-1370.7,-640.2,36.3,-6.6,-5.7,3.6,-1440.9,-0.6,-153.3,-582.6,5.7,0,3144,0,180,0, 
1.7500,-95.4,-351.6,7.5,252.9,120.6,-20.7,-389.7,172.2,-1185.6,-449.4,471.3,393.3,-1110.3,-1370.1,-639.0,26.1,-6.6,-5.7,6.6,-1435.8,-0.6,-150.9,-583.5,8.1,0,3150,0,181,0, 
1.7533,-102.3,-357.6,1.5,246.6,111.9,-28.2,-400.8,162.6,-1333.8,-459.0,465.0,387.0,-1119.9,-1390.8,-646.8,23.1,-7.2,-5.7,5.1,-1437.0,-0.3,-148.5,-583.8,1.2,0,3156,0,182,0, 
1.7567,-99.9,-358.5,-3.0,241.8,110.7,-33.0,-400.2,159.9,-1037.4,-462.6,454.8,381.3,-1117.8,-1368.3,-635.1,27.3,-6.9,-5.7,-0.3,-1445.4,-0.3,-162.6,-588.0,-2.1,0,3162,0,183,0, 
1.7600,-99.0,-360.3,-0.6,241.2,108.0,-33.0,-402.6,162.9,-815.1,-459.9,462.9,383.4,-1119.6,-1373.7,-632.1,28.8,-6.6,-5.7,-1.8,-1440.9,-0.6,-160.5,-590.7,-2.4,0,3168,0,184,0, 
1.7633,-105.0,-364.5,-8.7,236.4,107.4,-36.6,-405.3,161.1,-889.2,-468.3,462.9,379.5,-1124.7,-1377.6,-629.1,30.6,-6.9,-5.4,-7.5,-1445.1,-1.2,-164.4,-595.5,-6.6,0,3174,0,185,0, 
1.7667,-96.9,-358.2,-0.3,243.9,113.4,-32.1,-402.0,168.6,-1111.5,-458.4,465.0,390.0,-1112.4,-1362.0,-627.6,32.4,-6.9,-6.0,-3.0,-1443.6,-0.3,-158.4,-587.7,-3.9,0,3180,0,186,0, 
1.7700,-96.9,-357.9,2.1,248.4,118.8,-24.3,-392.4,170.4,-1111.5,-451.2,466.2,385.8,-1116.9,-1382.1,-641.1,43.5,-6.9,-5.4,-1.5,-1444.2,-1.2,-150.6,-573.9,6.3,0,3186,0,187,0, 
1.7733,-101.4,-363.0,-7.8,242.4,110.7,-27.3,-394.8,160.8,-963.3,-464.7,456.0,377.1,-1122.6,-1377.9,-629.7,45.3,-7.2,-6.3,-11.1,-1449.3,-0.3,-160.5,-577.8,0.9,0,3192,0,188,0, 
1.7767,-95.4,-364.5,-11.1,235.2,110.1,-25.8,-386.4,157.8,-889.2,-468.0,450.6,377.1,-1111.5,-1357.2,-612.9,47.7,-7.2,-5.7,-15.9,-1446.6,-0.9,-167.4,-573.6,-1.5,0,3198,0,189,0, 
1.7800,-103.2,-365.7,-7.8,245.1,114.6,-20.7,-383.4,158.7,-889.2,-458.1,462.0,391.5,-1118.1,-1395.0,-631.5,45.6,-6.9,-5.7,-2.4,-1430.4,-0.6,-151.2,-569.1,5.1,0,3204,0,190,0, 
1.7833,-105.9,-369.6,-9.0,241.2,113.7,-22.2,-383.4,156.3,-1259.7,-459.0,463.5,389.1,-1122.3,-1389.9,-641.7,53.7,-6.9,-6.0,-2.1,-1435.5,-0.9,-148.5,-564.3,5.1,0,3210,0,191,0, 
1.7867,-117.0,-378.6,-11.4,227.4,97.2,-31.8,-396.9,147.6,-1185.6,-476.7,439.2,367.8,-1134.6,-1394.1,-645.0,49.8,-6.9,-5.4,-27.9,-1457.4,-0.9,-170.4,-578.1,-6.9,0,3216,0,192,0, 
1.7900,-104.1,-375.6,-27.3,223.8,94.2,-32.4,-380.4,148.5,-963.3,-470.4,444.3,369.9,-1126.2,-1371.0,-625.8,60.3,-6.9,-5.4,-19.2,-1453.2,-0.6,-167.7,-571.2,-6.3,0,3222,0,193,0, 
1.7933,-109.2,-381.0,-32.4,215.1,86.4,-40.5,-381.0,141.0,-963.3,-479.1,437.1,356.7,-1134.0,-1375.8,-629.1,61.5,-6.9,-6.0,-28.8,-1463.4,-0.9,-170.4,-573.0,-11.1,0,3228,0,194,0, 
1.7967,-111.9,-377.7,-25.2,221.1,97.2,-32.4,-373.8,147.9,-963.3,-466.8,442.8,369.3,-1128.9,-1383.6,-634.2,64.8,-6.9,-5.7,-21.6,-1450.8,-0.9,-159.0,-561.0,1.5,0,3234,0,195,0, 
1.8000,-116.4,-385.8,-30.6,211.5,88.8,-41.4,-390.3,134.7,-1111.5,-474.3,433.5,363.3,-1134.0,-1387.8,-633.3,64.5,-6.9,-5.7,-27.9,-1452.6,-0.6,-170.1,-572.7,-8.1,0,3240,0,196,0, 
1.8033,-113.1,-383.4,-25.2,216.0,96.0,-39.3,-379.2,144.9,-1037.4,-470.7,445.8,374.1,-1131.9,-1387.8,-631.2,70.8,-6.9,-6.0,-21.6,-1445.4,-0.3,-163.2,-563.4,-1.2,0,3246,0,197,0, 
1.8067,-119.4,-384.9,-27.6,216.3,93.6,-40.2,-387.0,144.3,-1037.4,-467.4,447.3,371.1,-1132.5,-1395.9,-634.8,63.3,-6.9,-6.0,-26.1,-1447.8,-0.9,-161.1,-569.4,-4.2,0,3252,0,198,0, 
1.8100,-117.3,-379.2,-24.3,216.9,98.1,-37.2,-384.3,148.8,-815.1,-463.2,455.4,374.4,-1128.6,-1394.4,-639.3,66.0,-6.6,-5.4,-15.9,-1446.0,-0.6,-159.9,-560.1,2.1,0,3258,0,199,0, 
1.8133,-111.0,-372.6,-13.8,225.9,102.0,-33.6,-380.7,156.3,-889.2,-459.6,452.1,375.0,-1123.2,-1384.8,-639.3,66.0,-7.2,-6.3,-13.2,-1450.5,-0.6,-153.3,-556.5,4.2,0,3264,0,200,0, 
1.8167,-114.6,-371.4,-15.9,227.1,105.6,-33.6,-384.6,155.4,-1037.4,-459.0,452.4,371.4,-1122.6,-1394.4,-641.1,64.5,-7.2,-5.7,-13.2,-1453.8,-0.6,-151.8,-556.2,2.1,0,3270,0,201,0, 
1.8200,-117.6,-373.8,-18.0,225.6,99.3,-41.1,-395.4,151.2,-1185.6,-460.8,456.0,376.8,-1125.6,-1392.6,-646.2,50.4,-6.6,-5.7,-11.7,-1440.3,-0.9,-149.7,-567.3,-2.7,0,3276,0,202,0, 
1.8233,-114.9,-372.6,-12.0,231.0,105.9,-30.9,-393.9,156.9,-889.2,-453.6,467.7,391.2,-1122.6,-1396.8,-642.0,53.1,-7.2,-6.0,0.9,-1425.0,-0.6,-146.1,-558.3,8.7,0,3282,0,203,0, 
1.8267,-115.2,-368.7,-12.9,230.7,97.8,-36.3,-393.9,154.8,-741.0,-459.6,461.1,383.4,-1123.8,-1394.1,-639.9,51.0,-7.2,-6.6,-4.2,-1433.7,-0.6,-147.9,-561.0,2.7,0,3288,0,204,0, 
1.8300,-117.3,-367.5,-12.0,230.4,104.4,-30.3,-391.8,160.5,-963.3,-462.0,455.7,379.5,-1122.6,-1395.0,-637.5,49.5,-6.6,-5.7,-10.5,-1438.8,-0.6,-155.4,-565.8,6.9,0,3294,0,205,0, 
1.8333,-111.3,-363.6,-10.5,235.8,111.9,-27.0,-391.8,163.2,-1333.8,-455.1,460.5,384.9,-1119.9,-1393.8,-639.0,36.9,-7.2,-6.0,-9.9,-1431.9,-0.9,-146.4,-574.2,10.2,0,3300,0,206,0, 
1.8367,-112.5,-363.9,-7.8,232.5,110.1,-28.2,-391.8,161.7,-1185.6,-455.1,459.6,386.1,-1120.5,-1393.5,-632.7,40.2,-6.9,-6.3,-3.6,-1431.3,-0.6,-149.7,-577.8,9.3,0,3306,0,207,0, 
1.8400,-112.5,-371.7,-8.1,231.0,110.1,-30.0,-394.5,163.5,-963.3,-464.7,459.3,378.6,-1123.2,-1396.8,-640.2,34.5,-6.6,-5.7,-4.5,-1445.4,-0.6,-159.3,-579.9,6.3,0,3312,0,208,0, 
1.8433,-117.0,-374.4,-16.8,223.2,104.1,-27.0,-396.3,157.5,-963.3,-466.2,453.3,372.0,-1124.1,-1386.9,-629.1,38.4,-6.9,-5.7,-12.3,-1451.4,-1.2,-148.8,-578.4,6.3,0,3318,0,209,0, 
1.8467,-110.7,-369.6,-18.3,226.5,110.4,-24.0,-390.0,165.0,-963.3,-459.9,459.0,384.0,-1113.9,-1383.9,-626.7,34.5,-7.2,-5.7,-3.6,-1431.9,-0.6,-145.8,-576.0,12.6,0,3324,0,210,0, 
1.8500,-112.5,-367.2,-14.7,233.4,115.8,-16.2,-387.6,166.2,-1111.5,-451.2,471.9,397.5,-1112.7,-1378.5,-643.2,33.3,-6.9,-5.4,0.6,-1416.0,-0.9,-143.4,-574.5,19.2,0,3330,0,211,0, 
1.8533,-112.5,-364.5,-10.2,233.1,111.6,-21.0,-390.0,169.2,-1185.6,-456.0,471.3,393.9,-1116.9,-1374.6,-636.0,48.3,-6.9,-5.7,-3.9,-1424.7,-0.6,-141.3,-572.7,15.6,0,3336,0,212,0, 
1.8567,-110.7,-366.9,-15.9,231.3,110.7,-22.5,-388.5,161.1,-1037.4,-448.2,465.3,386.1,-1118.7,-1377.9,-630.3,43.8,-6.6,-5.4,-5.4,-1430.1,-0.9,-148.5,-570.6,15.9,0,3342,0,213,0, 
1.8600,-102.9,-362.4,-6.9,236.4,118.2,-17.1,-378.0,165.9,-889.2,-445.8,467.1,389.7,-1113.9,-1372.2,-623.4,57.0,-6.6,-6.0,-1.8,-1424.7,-0.9,-135.6,-563.1,24.0,0,3348,0,214,0, 
1.8633,-105.6,-362.1,-10.2,240.0,120.3,-20.4,-379.5,163.5,-889.2,-446.4,458.7,388.2,-1115.7,-1366.2,-631.2,55.2,-7.2,-6.3,-2.1,-1430.4,-1.5,-141.0,-573.0,22.2,0,3354,0,215,0, 
1.8667,-105.0,-362.4,-6.6,242.7,126.3,-15.9,-372.3,166.8,-1111.5,-443.1,470.1,393.3,-1113.3,-1371.6,-636.6,67.8,-6.9,-6.0,1.5,-1417.5,-0.9,-134.4,-558.3,24.3,0,3360,0,216,0, 
1.8700,-107.7,-368.7,-9.0,235.5,120.0,-22.5,-374.7,164.1,-963.3,-454.2,465.9,388.5,-1120.2,-1372.8,-627.6,67.8,-6.6,-5.7,-8.4,-1422.9,-0.9,-144.0,-566.7,14.7,0,3366,0,217,0, 
1.8733,-96.0,-354.9,4.8,251.1,133.8,-7.5,-366.0,178.2,-963.3,-438.9,474.0,401.4,-1106.4,-1374.6,-635.7,80.4,-7.2,-5.7,2.1,-1411.2,-0.6,-131.4,-551.7,31.2,0,3372,0,218,0, 
1.8767,-96.0,-357.9,-5.4,245.1,126.9,-19.5,-374.4,171.9,-889.2,-446.7,465.0,390.9,-1106.1,-1359.0,-627.9,71.7,-7.2,-5.7,0.0,-1424.7,-0.6,-136.5,-554.4,25.8,0,3378,0,219,0, 
1.8800,-89.4,-350.1,-3.0,243.9,126.6,-21.3,-375.3,171.6,-889.2,-446.4,466.8,390.9,-1099.8,-1347.0,-611.4,79.8,-6.9,-5.7,4.8,-1432.2,-0.6,-142.2,-552.3,22.8,0,3384,0,220,0, 
1.8833,-90.9,-352.2,-1.8,243.0,126.3,-20.1,-376.2,175.2,-1111.5,-445.8,467.1,390.0,-1105.2,-1362.9,-622.2,81.3,-6.9,-6.0,3.3,-1426.8,-0.9,-139.5,-557.7,26.1,0,3390,0,221,0, 
1.8867,-90.3,-351.9,-8.4,241.5,121.5,-26.4,-376.8,169.2,-1259.7,-448.2,468.0,390.6,-1105.5,-1364.4,-622.5,72.9,-7.5,-6.0,0.9,-1420.8,-0.9,-139.5,-564.9,19.5,0,3396,0,222,0, 
1.8900,-90.9,-352.5,-3.6,245.4,122.1,-24.0,-373.8,175.2,-1037.4,-446.4,469.5,398.7,-1108.5,-1368.3,-628.2,79.5,-6.9,-5.7,3.3,-1413.3,-0.6,-136.8,-557.4,21.6,0,3402,0,223,0, 
1.8933,-90.3,-350.4,-1.5,244.8,125.7,-22.5,-380.7,172.2,-666.9,-448.8,469.8,395.1,-1107.9,-1369.2,-622.8,76.2,-6.6,-5.7,-0.6,-1414.2,-0.3,-141.3,-567.6,19.2,0,3408,0,224,0, 
1.8967,-101.7,-360.3,-11.4,233.1,107.4,-36.9,-387.3,162.3,-963.3,-465.6,447.3,376.5,-1119.9,-1376.1,-624.3,67.8,-6.9,-6.0,-22.8,-1437.0,-1.5,-161.4,-579.9,2.4,0,3414,0,225,0, 
1.9000,-98.1,-351.0,3.0,240.3,112.8,-34.5,-390.0,170.4,-1037.4,-462.6,454.8,376.2,-1113.0,-1378.5,-627.6,50.4,-7.2,-6.0,-14.1,-1440.9,-0.3,-159.0,-584.4,3.3,0,3420,0,226,0, 
1.9033,-101.7,-355.5,-7.5,240.9,112.8,-33.9,-390.6,170.1,-1185.6,-457.5,460.5,377.7,-1111.5,-1377.0,-629.7,53.4,-6.9,-6.0,-6.3,-1438.8,-0.9,-157.5,-583.2,6.3,0,3426,0,227,0, 
1.9067,-104.7,-358.2,-5.7,240.6,111.6,-34.8,-389.7,168.6,-1037.4,-459.0,461.1,377.1,-1117.2,-1387.8,-642.0,54.3,-6.9,-5.7,-4.2,-1438.8,-0.3,-156.9,-590.7,2.4,0,3432,0,228,0, 
1.9100,-114.9,-366.0,-10.2,233.1,105.9,-41.4,-396.6,164.4,-815.1,-465.0,455.1,375.9,-1124.7,-1395.3,-643.5,54.9,-6.6,-6.0,-12.6,-1433.4,-0.6,-161.1,-587.4,0.6,0,3438,0,229,0, 
1.9133,-120.0,-368.1,-12.3,229.2,104.4,-42.3,-395.1,160.5,-963.3,-469.2,455.4,378.9,-1127.7,-1400.7,-640.2,56.4,-6.6,-6.0,-13.5,-1433.7,-0.9,-164.7,-593.4,-3.0,0,3444,0,230,0, 
1.9167,-114.6,-363.6,-3.9,241.2,120.6,-34.2,-395.1,169.5,-1037.4,-462.0,456.3,382.8,-1122.0,-1397.4,-634.5,57.3,-6.6,-5.7,-12.0,-1426.2,-1.2,-153.3,-584.7,6.9,0,3450,0,231,0, 
1.9200,-120.0,-366.0,-7.2,237.0,111.3,-35.1,-401.4,165.9,-1259.7,-465.0,457.5,377.1,-1128.0,-1408.2,-641.7,56.4,-6.9,-6.3,-10.2,-1434.0,-0.6,-156.0,-582.3,2.7,0,3456,0,232,0, 
1.9233,-118.5,-364.8,-7.5,243.9,116.7,-27.0,-389.7,174.0,-1037.4,-456.9,467.1,383.1,-1120.5,-1413.0,-642.6,64.8,-7.2,-5.1,-4.2,-1431.3,-0.9,-152.1,-578.4,9.0,0,3462,0,233,0, 
1.9267,-120.6,-366.9,-3.9,236.1,110.4,-37.2,-394.8,168.3,-889.2,-465.9,460.8,375.9,-1123.5,-1413.0,-634.5,62.7,-6.6,-6.0,-12.6,-1438.8,-0.9,-157.8,-581.7,3.3,0,3468,0,234,0, 
1.9300,-113.1,-360.9,-0.3,238.2,116.4,-27.0,-385.5,172.5,-889.2,-455.4,461.4,383.7,-1117.5,-1402.2,-636.3,67.8,-7.2,-5.7,-7.8,-1428.0,-0.6,-150.0,-571.2,8.1,0,3474,0,235,0, 
1.9333,-111.6,-362.7,-4.8,235.8,117.6,-25.2,-388.8,173.4,-1111.5,-459.9,459.6,381.6,-1119.9,-1399.2,-626.1,68.1,-6.9,-6.0,-1.2,-1426.5,-0.6,-146.4,-563.7,14.4,0,3480,0,236,0, 
1.9367,-109.8,-360.3,1.8,240.3,121.5,-24.3,-387.3,179.4,-1185.6,-448.5,475.5,390.0,-1111.5,-1397.1,-628.8,68.1,-7.2,-6.3,3.9,-1421.7,-0.9,-144.0,-567.3,15.3,0,3486,0,237,0, 
1.9400,-102.3,-351.3,3.3,244.8,125.7,-19.8,-381.6,183.0,-1037.4,-443.4,478.2,393.3,-1103.1,-1390.2,-622.5,71.1,-6.9,-5.7,6.3,-1418.7,-0.6,-137.1,-562.8,18.6,0,3492,0,238,0, 
1.9433,-100.8,-349.8,8.7,246.6,126.9,-19.8,-380.4,182.7,-741.0,-438.3,480.9,397.5,-1103.1,-1395.0,-624.6,66.9,-7.2,-6.3,10.2,-1412.7,-0.6,-136.2,-558.9,18.9,0,3498,0,239,0, 
1.9467,-106.5,-347.1,10.5,249.6,127.8,-17.7,-384.0,183.3,-1111.5,-436.2,486.0,403.8,-1100.7,-1393.2,-635.7,66.0,-7.2,-5.7,14.4,-1405.8,-0.9,-127.5,-558.6,21.9,0,3504,0,240,0, 
1.9500,-103.5,-344.7,15.9,253.8,131.7,-14.1,-381.9,186.3,-1185.6,-429.6,486.3,402.0,-1093.2,-1402.5,-639.3,72.6,-6.6,-6.0,18.6,-1409.4,-0.6,-127.5,-550.8,27.6,0,3510,0,241,0, 
1.9533,-105.0,-340.2,15.3,255.3,136.2,-11.7,-380.4,192.3,-1185.6,-429.9,488.1,407.7,-1094.4,-1392.6,-633.3,80.4,-7.2,-5.7,13.5,-1402.5,-1.2,-126.3,-550.2,31.8,0,3516,0,242,0, 
1.9567,-102.3,-342.6,18.0,255.6,134.4,-15.0,-376.5,188.1,-963.3,-432.6,487.5,406.2,-1098.9,-1385.1,-635.1,68.4,-6.6,-6.0,12.0,-1402.8,-0.6,-126.9,-549.6,28.2,0,3522,0,243,0, 
1.9600,-99.3,-342.6,13.8,251.7,133.2,-18.6,-377.7,183.6,-889.2,-436.2,481.5,402.3,-1098.9,-1373.7,-625.8,70.5,-6.9,-5.7,5.4,-1406.4,-0.6,-129.0,-552.9,26.7,0,3528,0,244,0, 
1.9633,-103.5,-349.5,6.6,250.8,131.1,-20.4,-375.6,178.5,-963.3,-442.2,476.7,399.6,-1105.2,-1383.0,-625.5,65.7,-6.9,-5.7,6.3,-1406.7,-0.6,-131.7,-555.6,25.2,0,3534,0,245,0, 
1.9667,-105.3,-348.6,10.5,248.7,132.9,-16.8,-376.2,178.8,-1259.7,-439.8,471.0,397.2,-1100.1,-1382.4,-627.3,81.9,-6.9,-5.7,0.9,-1409.7,-0.6,-132.0,-543.9,29.1,0,3540,0,246,0, 
1.9700,-109.5,-353.1,3.6,241.2,124.5,-23.4,-381.3,174.9,-1185.6,-438.9,469.5,390.3,-1104.6,-1387.8,-630.0,76.8,-6.9,-5.4,-0.9,-1413.9,-1.2,-129.3,-549.6,24.6,0,3546,0,247,0, 
1.9733,-115.5,-364.2,-3.9,235.5,111.9,-33.3,-388.5,162.6,-963.3,-446.7,467.4,385.8,-1111.2,-1383.6,-631.2,75.3,-6.9,-5.7,-5.7,-1422.9,-0.6,-146.1,-559.2,13.8,0,3552,0,248,0, 
1.9767,-115.5,-367.8,-13.8,235.5,107.7,-34.8,-393.9,160.5,-741.0,-451.5,462.6,376.2,-1116.3,-1381.2,-621.9,82.8,-6.3,-6.0,-8.1,-1437.3,-0.6,-150.6,-555.0,6.6,0,3558,0,249,0, 
1.9800,-116.4,-373.2,-10.2,230.4,107.4,-36.3,-388.8,159.3,-889.2,-460.5,457.8,367.2,-1121.1,-1385.7,-621.0,74.1,-6.9,-5.7,-15.3,-1451.7,-0.6,-156.3,-558.6,4.8,0,3564,0,250,0, 
1.9833,-121.2,-381.3,-24.9,218.7,105.9,-35.1,-389.1,159.0,-1037.4,-463.5,449.7,371.1,-1123.5,-1383.6,-622.8,71.7,-6.6,-6.0,-27.6,-1438.2,-0.6,-151.5,-564.0,7.8,0,3570,0,251,0, 
1.9867,-116.1,-378.6,-20.4,227.4,115.8,-28.8,-378.6,162.3,-1185.6,-451.8,470.1,391.8,-1113.3,-1394.1,-631.5,76.8,-6.9,-6.0,-6.3,-1411.2,-0.3,-147.9,-555.0,14.1,0,3576,0,252,0, 
1.9900,-123.6,-375.3,-8.7,238.2,122.1,-24.3,-375.3,167.4,-741.0,-444.0,477.6,396.3,-1116.9,-1417.2,-651.0,72.3,-6.9,-6.0,2.7,-1407.0,-0.6,-135.6,-556.2,21.3,0,3582,0,253,0, 
1.9933,-116.4,-373.5,-10.2,235.2,117.0,-27.3,-373.5,165.6,-889.2,-453.6,463.5,388.8,-1117.5,-1405.5,-642.3,74.4,-6.9,-5.7,-7.5,-1419.0,-0.3,-142.5,-549.0,15.9,0,3588,0,254,0, 
1.9967,-118.8,-375.6,-10.8,236.4,123.0,-22.8,-379.2,167.4,-889.2,-453.3,462.9,385.2,-1117.5,-1410.9,-640.2,66.6,-6.6,-6.0,-10.5,-1425.6,-0.9,-149.1,-549.3,18.9,0,3594,0,255,0, 
2.0000,-122.1,-376.2,-14.4,234.9,116.7,-30.3,-381.9,160.2,-1111.5,-457.2,462.9,382.2,-1119.3,-1406.4,-632.7,69.0,-6.9,-6.0,-14.7,-1424.4,-0.6,-149.7,-550.5,13.8,0,3600,0,0,0, 
2.0033,-122.4,-372.0,-10.5,240.6,123.0,-27.0,-385.2,162.0,-1111.5,-450.0,467.1,388.2,-1119.6,-1410.0,-639.6,64.2,-6.6,-6.0,-9.0,-1416.6,-0.6,-143.7,-561.9,17.4,0,3606,0,1,0, 
2.0067,-117.9,-370.2,-5.4,240.6,125.4,-24.6,-379.5,163.5,-1111.5,-452.7,473.4,391.2,-1117.8,-1405.5,-633.0,68.7,-6.6,-6.0,-7.5,-1416.6,-0.6,-143.7,-560.7,21.3,0,3612,0,2,0, 
2.0100,-123.3,-373.2,-15.9,231.9,120.0,-34.2,-391.5,156.6,-666.9,-461.1,467.1,386.4,-1125.0,-1413.9,-633.0,52.8,-7.2,-6.0,-17.4,-1418.1,-0.9,-151.8,-570.9,14.7,0,3618,0,3,0, 
2.0133,-120.0,-362.4,-4.5,243.0,125.1,-31.8,-392.7,165.6,-1037.4,-454.5,474.6,395.7,-1112.4,-1409.7,-638.4,53.1,-6.9,-6.0,-1.5,-1411.8,-0.6,-144.3,-569.7,18.6,0,3624,0,4,0, 
2.0167,-118.2,-362.4,-9.3,240.6,122.1,-34.5,-394.2,160.2,-1111.5,-459.9,466.2,387.6,-1115.7,-1417.8,-635.4,52.2,-6.6,-6.0,-14.1,-1419.3,-0.6,-150.3,-570.9,13.5,0,3630,0,5,0, 
2.0200,-109.8,-352.2,11.7,259.5,138.6,-22.8,-389.1,177.0,-1185.6,-439.8,480.9,398.4,-1107.6,-1418.7,-645.6,51.0,-7.2,-6.0,3.0,-1412.1,-0.3,-137.1,-565.2,24.0,0,3636,0,6,0, 
2.0233,-114.6,-352.8,9.3,259.2,136.2,-27.3,-396.6,176.4,-963.3,-447.0,471.9,388.8,-1113.9,-1419.9,-645.3,47.7,-6.9,-6.3,-2.1,-1422.0,-0.9,-145.5,-574.2,17.1,0,3642,0,7,0, 
2.0267,-114.9,-353.4,9.9,261.6,139.2,-27.9,-396.0,176.1,-889.2,-444.9,475.8,396.0,-1112.1,-1408.2,-639.0,41.1,-6.6,-5.4,3.6,-1409.4,-0.3,-138.9,-574.8,17.1,0,3648,0,8,0, 
2.0300,-113.4,-350.7,7.8,256.2,141.0,-28.8,-394.8,175.2,-815.1,-448.2,479.1,407.1,-1111.5,-1401.0,-627.0,45.0,-6.9,-5.7,1.5,-1395.6,-0.9,-136.8,-571.2,16.8,0,3654,0,9,0, 
2.0333,-110.1,-342.6,20.4,269.1,149.7,-18.3,-383.4,184.8,-1037.4,-433.5,495.0,416.4,-1100.1,-1404.9,-632.4,45.6,-6.6,-6.0,12.0,-1386.3,-0.9,-122.7,-563.7,34.2,0,3660,0,10,0, 
2.0367,-103.8,-342.3,13.2,263.4,143.1,-15.6,-381.3,186.6,-1111.5,-439.8,479.7,402.3,-1103.1,-1396.2,-629.4,56.7,-6.6,-6.3,5.7,-1401.6,-0.6,-130.8,-564.0,31.5,0,3666,0,11,0, 
2.0400,-101.7,-339.9,21.6,268.8,146.7,-11.1,-376.5,190.2,-963.3,-431.7,494.1,408.3,-1099.5,-1396.5,-629.4,54.0,-6.6,-5.7,16.5,-1397.1,-0.9,-123.3,-558.6,38.4,0,3672,0,12,0, 
2.0433,-102.6,-342.6,21.9,266.7,144.6,-13.5,-373.2,188.1,-889.2,-427.8,494.7,413.4,-1099.8,-1394.7,-633.6,53.1,-6.9,-6.0,21.0,-1395.3,-0.6,-119.4,-558.6,34.8,0,3678,0,13,0, 
2.0467,-105.9,-348.0,17.1,261.9,141.9,-15.9,-378.6,186.9,-963.3,-430.5,498.3,410.1,-1104.9,-1407.9,-628.5,55.2,-6.9,-6.0,19.5,-1395.9,-0.6,-121.5,-559.2,30.6,0,3684,0,14,0, 
2.0500,-103.8,-352.5,12.6,255.3,134.1,-21.3,-381.6,178.8,-1185.6,-441.0,488.1,406.2,-1108.5,-1394.7,-611.1,65.4,-7.2,-5.7,11.4,-1401.9,-0.6,-129.9,-559.5,21.0,0,3690,0,15,0, 
2.0533,-101.7,-345.6,16.8,260.4,138.3,-11.1,-372.6,186.3,-1111.5,-428.1,496.2,409.2,-1100.4,-1388.7,-613.8,75.0,-6.3,-6.0,17.7,-1397.1,-0.9,-125.7,-549.9,34.2,0,3696,0,16,0, 
2.0567,-112.5,-351.0,20.7,263.4,140.1,-7.2,-367.5,186.6,-963.3,-429.0,484.5,402.0,-1107.6,-1418.7,-638.1,83.1,-6.9,-5.7,8.7,-1401.0,-0.6,-123.6,-547.8,36.3,0,3702,0,17,0, 
2.0600,-114.9,-358.8,4.2,249.3,128.1,-19.2,-374.7,175.2,-889.2,-441.6,468.3,388.8,-1110.6,-1406.1,-626.1,85.2,-6.6,-6.3,-4.2,-1417.5,-0.6,-133.5,-552.9,22.8,0,3708,0,18,0, 
2.0633,-107.4,-354.3,3.3,260.4,136.5,-9.0,-369.9,183.6,-741.0,-429.6,480.0,398.1,-1103.4,-1404.6,-619.5,93.6,-6.9,-6.0,6.0,-1411.8,-0.6,-126.3,-539.4,35.7,0,3714,0,19,0, 
2.0667,-105.6,-349.8,9.3,261.6,136.5,-7.2,-368.7,185.1,-1111.5,-428.7,482.1,397.5,-1101.9,-1393.2,-624.9,84.3,-6.3,-6.0,6.6,-1412.1,-0.3,-125.4,-547.5,30.6,0,3720,0,20,0, 
2.0700,-105.6,-353.4,5.7,250.8,129.6,-11.1,-376.2,183.3,-1037.4,-435.3,469.5,388.5,-1101.6,-1386.9,-619.8,92.7,-7.2,-6.0,-4.2,-1408.8,-0.6,-128.1,-544.5,29.4,0,3726,0,21,0, 
2.0733,-105.9,-357.9,-4.5,243.0,123.0,-18.0,-377.4,172.5,-815.1,-444.0,471.9,389.7,-1110.3,-1384.8,-612.9,94.8,-7.5,-6.3,-6.9,-1412.4,-0.6,-139.5,-549.3,24.3,0,3732,0,22,0, 
2.0767,-106.5,-354.0,-3.3,241.2,124.2,-16.2,-374.7,174.3,-889.2,-436.8,476.1,390.3,-1109.4,-1392.3,-614.1,93.9,-6.6,-5.1,-7.5,-1413.9,-0.6,-130.5,-549.3,24.6,0,3738,0,23,0, 
2.0800,-109.2,-359.7,-11.1,236.4,113.7,-28.2,-379.8,166.2,-889.2,-450.6,459.9,373.5,-1116.3,-1394.4,-619.5,85.8,-6.6,-6.0,-18.6,-1431.6,-0.9,-148.5,-561.6,15.9,0,3744,0,24,0, 
2.0833,-105.3,-354.9,-4.8,235.5,116.7,-27.0,-372.6,171.3,-1037.4,-447.9,459.0,374.1,-1111.8,-1393.2,-612.0,89.4,-6.9,-5.7,-18.3,-1430.4,-0.9,-145.2,-560.4,14.7,0,3750,0,25,0, 
2.0867,-108.6,-353.4,0.6,238.8,119.7,-22.2,-376.8,180.3,-1111.5,-441.0,470.1,378.9,-1112.7,-1409.7,-630.0,84.9,-6.9,-6.0,-6.3,-1426.5,-0.6,-135.6,-556.5,18.0,0,3756,0,26,0, 
2.0900,-110.4,-356.7,-8.7,228.0,117.3,-25.2,-386.7,169.2,-889.2,-453.9,460.8,381.3,-1117.8,-1404.3,-616.8,84.9,-6.6,-6.0,-19.5,-1419.6,-0.9,-149.1,-562.5,18.6,0,3762,0,27,0, 
2.0933,-111.6,-355.5,-10.5,227.1,113.7,-31.5,-389.1,169.5,-741.0,-451.2,462.6,383.7,-1116.6,-1398.3,-620.4,80.1,-6.9,-5.7,-14.7,-1415.7,-0.9,-147.0,-561.9,6.6,0,3768,0,28,0, 
2.0967,-106.5,-354.9,-9.6,232.2,118.2,-28.2,-384.9,171.0,-889.2,-450.6,462.9,383.4,-1115.4,-1400.4,-621.6,78.9,-7.2,-5.7,-15.3,-1415.4,-0.9,-143.7,-563.7,12.9,0,3774,0,29,0, 
2.1000,-114.3,-357.0,-9.0,228.9,111.9,-37.8,-393.0,170.1,-1185.6,-458.1,461.4,375.0,-1125.0,-1409.1,-624.6,69.6,-6.9,-5.7,-19.8,-1424.7,-0.6,-150.9,-567.9,7.2,0,3780,0,30,0, 
2.1033,-109.5,-350.4,-6.0,236.7,121.8,-30.6,-391.2,171.6,-1111.5,-458.7,467.7,385.2,-1119.3,-1409.1,-626.7,69.0,-7.2,-6.3,-12.9,-1419.0,-0.6,-149.7,-567.9,12.9,0,3786,0,31,0, 
2.1067,-110.1,-348.9,6.9,240.6,125.4,-28.5,-381.3,177.0,-963.3,-444.6,465.9,383.7,-1116.0,-1414.2,-629.1,78.0,-6.9,-6.0,-11.7,-1422.3,-0.6,-145.5,-562.5,17.4,0,3792,0,32,0, 
2.1100,-110.7,-348.3,0.0,244.5,132.0,-20.1,-378.6,183.9,-889.2,-444.6,466.5,386.7,-1113.9,-1407.9,-628.2,73.2,-7.2,-5.7,-10.8,-1419.0,-0.6,-143.1,-560.1,24.0,0,3798,0,33,0, 
2.1133,-108.0,-343.2,9.3,250.2,139.2,-16.2,-379.8,190.5,-889.2,-437.4,476.4,401.1,-1104.9,-1401.0,-621.0,78.3,-6.9,-6.0,6.0,-1400.4,-0.6,-132.3,-554.7,27.0,0,3804,0,34,0, 
2.1167,-106.5,-342.3,13.8,258.0,143.7,-9.0,-378.9,192.0,-1037.4,-435.3,485.4,408.6,-1106.4,-1397.4,-619.5,81.0,-6.9,-5.7,3.0,-1387.5,-0.9,-130.5,-551.1,36.6,0,3810,0,35,0, 
2.1200,-109.8,-345.0,12.3,258.9,145.8,-9.0,-375.3,189.3,-1185.6,-435.6,492.6,410.4,-1110.3,-1413.0,-627.0,71.1,-6.6,-6.0,11.7,-1381.8,-0.3,-129.3,-549.0,38.7,0,3816,0,36,0, 
2.1233,-110.4,-345.3,10.2,257.7,145.2,-10.8,-381.0,191.1,-1037.4,-439.8,489.0,411.0,-1113.3,-1416.6,-627.3,73.5,-6.9,-5.7,3.6,-1384.5,-0.9,-127.5,-555.6,33.9,0,3822,0,37,0, 
2.1267,-116.1,-343.2,12.0,258.9,144.0,-9.9,-381.9,189.3,-889.2,-432.0,493.5,410.1,-1111.2,-1420.5,-643.5,66.6,-7.2,-6.6,8.1,-1391.7,-0.6,-123.9,-549.0,37.2,0,3828,0,38,0, 
2.1300,-112.2,-342.6,10.8,258.9,145.2,-6.3,-382.8,192.0,-963.3,-430.2,489.6,408.3,-1106.4,-1417.8,-632.7,66.0,-6.6,-6.3,4.2,-1394.7,-0.6,-120.6,-554.4,35.4,0,3834,0,39,0, 
2.1333,-108.6,-345.3,2.7,258.3,142.5,-12.6,-379.8,190.8,-1111.5,-432.9,489.0,409.5,-1106.4,-1410.6,-621.0,71.7,-6.6,-6.0,3.0,-1393.5,-0.3,-126.3,-556.2,32.1,0,3840,0,40,0, 
2.1367,-106.5,-341.4,12.0,263.7,149.4,-10.5,-378.0,188.1,-1185.6,-432.9,491.1,412.2,-1105.2,-1412.1,-617.4,73.2,-6.9,-6.0,2.7,-1390.8,-0.9,-123.9,-550.8,34.8,0,3846,0,41,0, 
2.1400,-108.0,-341.1,9.6,259.2,143.7,-13.8,-376.2,186.6,-889.2,-433.8,492.6,413.1,-1100.7,-1407.3,-633.9,72.6,-6.9,-5.7,2.7,-1385.4,-0.9,-126.0,-548.7,35.7,0,3852,0,42,0, 
2.1433,-111.6,-344.4,2.7,254.4,138.0,-18.9,-371.4,179.1,-963.3,-440.7,479.4,400.5,-1106.4,-1412.1,-633.3,81.0,-6.9,-6.0,-6.0,-1399.2,-0.6,-135.3,-549.0,28.5,0,3858,0,43,0, 
2.1467,-107.1,-343.8,-3.6,249.3,132.6,-20.7,-373.8,181.5,-889.2,-445.8,467.4,386.4,-1108.5,-1401.6,-620.4,80.4,-6.9,-5.7,-18.9,-1415.7,-0.6,-142.2,-555.0,26.4,0,3864,0,44,0, 
2.1500,-112.2,-348.9,-8.1,243.3,123.6,-28.8,-381.3,173.4,-1037.4,-444.9,462.9,384.0,-1113.3,-1410.0,-627.6,75.3,-7.2,-6.0,-17.7,-1419.3,-0.6,-140.7,-569.4,16.5,0,3870,0,45,0, 
2.1533,-107.4,-345.3,-3.6,246.0,125.7,-24.6,-374.7,171.6,-963.3,-434.4,472.5,398.7,-1110.6,-1419.9,-638.4,84.6,-6.9,-6.0,-10.8,-1399.2,-0.9,-134.1,-561.9,25.5,0,3876,0,46,0, 
2.1567,-113.4,-355.2,-13.8,234.6,115.8,-33.3,-384.6,161.1,-889.2,-450.9,463.2,387.6,-1121.7,-1415.7,-630.9,83.7,-6.6,-6.0,-19.2,-1408.5,-0.6,-141.9,-564.9,17.1,0,3882,0,47,0, 
2.1600,-113.7,-361.5,-20.7,225.6,108.3,-39.3,-385.2,156.0,-889.2,-452.4,461.4,381.0,-1123.2,-1416.3,-630.9,80.7,-6.9,-5.7,-23.7,-1410.6,-0.3,-147.3,-568.8,14.1,0,3888,0,48,0, 
2.1633,-116.7,-365.7,-24.3,219.9,99.3,-44.1,-387.0,150.6,-963.3,-466.5,448.8,367.8,-1128.3,-1413.6,-624.6,80.4,-6.9,-6.0,-34.8,-1427.1,-0.3,-155.1,-569.4,11.4,0,3894,0,49,0, 
2.1667,-114.3,-366.3,-25.8,221.7,102.0,-41.1,-383.4,158.4,-1037.4,-452.1,453.9,370.5,-1125.9,-1425.9,-633.6,85.2,-6.9,-5.7,-33.9,-1429.5,-0.6,-146.4,-563.1,19.8,0,3900,0,50,0, 
2.1700,-115.2,-368.1,-29.4,215.4,95.1,-45.6,-381.3,154.2,-1259.7,-456.3,443.1,359.1,-1126.2,-1409.1,-622.8,84.6,-6.9,-6.0,-35.1,-1437.0,-0.6,-156.3,-564.0,8.7,0,3906,0,51,0, 
2.1733,-111.6,-367.8,-28.2,218.4,101.4,-40.8,-377.4,155.7,-963.3,-456.6,450.0,366.9,-1127.1,-1410.9,-621.6,92.1,-7.2,-6.0,-35.4,-1429.2,-0.9,-151.8,-559.2,15.3,0,3912,0,52,0, 
2.1767,-119.7,-370.5,-31.2,211.2,99.9,-47.7,-381.0,151.5,-815.1,-459.6,447.9,369.0,-1129.5,-1417.2,-624.3,90.6,-6.6,-6.3,-36.9,-1426.2,-0.9,-149.7,-563.4,8.1,0,3918,0,53,0, 
2.1800,-116.7,-371.7,-28.2,213.9,99.9,-45.9,-384.6,153.6,-889.2,-460.5,446.7,372.6,-1128.9,-1422.3,-620.7,97.2,-6.6,-6.0,-37.2,-1423.8,-0.6,-152.7,-561.6,12.6,0,3924,0,54,0, 
2.1833,-114.0,-365.7,-21.9,220.5,101.7,-47.7,-381.0,160.2,-1185.6,-452.7,447.3,372.3,-1126.5,-1420.2,-625.2,94.2,-6.9,-6.0,-32.4,-1421.4,-0.9,-145.2,-558.6,12.0,0,3930,0,55,0, 
2.1867,-114.3,-362.4,-14.1,226.2,104.4,-45.0,-379.2,160.8,-1185.6,-456.6,450.6,368.7,-1128.6,-1421.4,-627.0,83.4,-6.9,-6.3,-35.7,-1424.1,-0.3,-153.3,-560.4,15.3,0,3936,0,56,0, 
2.1900,-113.1,-366.6,-29.1,220.8,99.9,-49.2,-386.1,159.9,-963.3,-456.3,452.7,370.8,-1126.2,-1419.0,-622.8,87.6,-6.9,-5.7,-33.0,-1425.6,-0.9,-151.8,-565.2,8.1,0,3942,0,57,0, 
2.1933,-109.2,-358.5,-18.9,226.8,108.6,-43.8,-388.2,167.1,-815.1,-457.5,459.6,377.7,-1121.1,-1410.0,-618.6,79.5,-6.9,-6.0,-30.0,-1417.8,-0.6,-149.1,-569.4,12.3,0,3948,0,58,0, 
2.1967,-113.7,-359.1,-23.1,221.7,103.8,-43.5,-387.9,159.6,-889.2,-466.8,450.0,367.5,-1126.5,-1408.8,-610.5,78.6,-6.9,-6.0,-38.7,-1431.9,-0.9,-156.0,-574.2,7.2,0,3954,0,59,0, 
2.2000,-105.9,-350.4,-8.1,234.6,117.6,-34.8,-384.0,172.5,-1185.6,-459.3,459.9,378.9,-1118.4,-1404.0,-614.1,80.4,-6.9,-6.0,-27.6,-1420.2,-0.6,-152.7,-573.9,18.6,0,3960,0,60,0, 
2.2033,-109.2,-345.0,1.2,243.6,130.2,-23.4,-378.9,185.1,-1185.6,-444.0,475.5,395.1,-1118.4,-1418.1,-635.7,77.1,-6.9,-5.7,-11.7,-1397.7,-0.9,-136.8,-567.6,29.4,0,3966,0,61,0, 
2.2067,-114.0,-345.3,1.5,247.2,134.1,-18.3,-369.9,189.0,-889.2,-444.9,474.0,399.9,-1117.5,-1436.7,-639.9,89.7,-6.9,-5.4,-9.0,-1389.6,-0.6,-135.6,-556.5,37.5,0,3972,0,62,0, 
2.2100,-116.7,-346.5,0.6,249.6,135.9,-15.3,-375.0,182.4,-889.2,-439.8,483.3,402.9,-1118.1,-1444.2,-647.4,79.5,-6.9,-6.0,-11.4,-1390.2,-0.9,-133.5,-558.3,41.1,0,3978,0,63,0, 
2.2133,-115.5,-349.5,-3.3,243.0,127.2,-23.1,-374.7,182.4,-889.2,-450.0,474.9,391.2,-1117.2,-1421.7,-631.5,85.8,-6.9,-6.0,-16.8,-1404.9,-0.9,-141.9,-561.3,32.1,0,3984,0,64,0, 
2.2167,-114.3,-342.3,2.4,249.3,134.1,-17.4,-369.6,185.7,-1185.6,-439.8,474.9,395.7,-1111.5,-1426.8,-640.2,81.0,-7.2,-6.0,-13.8,-1398.9,0.0,-133.5,-559.5,39.6,0,3990,0,65,0, 
2.2200,-117.9,-342.9,-1.8,245.4,132.3,-21.3,-377.1,181.8,-1111.5,-438.0,478.5,399.0,-1112.7,-1431.9,-639.3,73.8,-6.9,-5.4,-12.0,-1398.3,-0.9,-135.9,-567.3,32.1,0,3996,0,66,0, 
2.2233,-115.2,-343.5,-0.6,246.3,126.6,-21.6,-376.5,178.8,-1037.4,-440.1,474.0,389.7,-1110.3,-1419.6,-627.3,77.4,-6.9,-6.0,-16.2,-1408.8,-0.6,-143.1,-568.2,28.8,0,4002,0,67,0, 
2.2267,-111.9,-349.8,-9.9,240.3,123.6,-29.7,-379.5,175.8,-889.2,-444.3,464.7,385.5,-1113.9,-1421.7,-630.6,78.3,-6.9,-6.0,-15.9,-1413.0,-0.9,-143.1,-569.4,22.5,0,4008,0,68,0, 
2.2300,-109.2,-347.4,-2.4,247.2,126.9,-24.6,-381.3,178.5,-963.3,-439.8,466.8,386.1,-1107.9,-1408.2,-621.0,82.8,-7.2,-6.3,-17.1,-1407.6,-0.6,-133.5,-565.2,27.9,0,4014,0,69,0, 
2.2333,-104.1,-339.0,5.7,254.4,135.3,-16.5,-375.9,183.6,-1037.4,-432.9,478.2,403.8,-1104.9,-1413.6,-627.3,80.7,-6.9,-5.7,-6.3,-1390.2,-0.9,-128.4,-562.8,38.4,0,4020,0,70,0, 
2.2367,-105.3,-344.4,-4.2,249.6,131.4,-24.6,-379.8,177.6,-1111.5,-440.7,472.8,400.5,-1108.2,-1407.0,-630.3,73.2,-6.9,-6.0,-11.1,-1395.0,-1.2,-132.0,-565.5,32.7,0,4026,0,71,0, 
2.2400,-104.7,-346.5,-12.6,246.0,128.1,-23.7,-375.0,177.6,-889.2,-441.3,471.3,395.7,-1110.3,-1407.9,-623.1,83.7,-7.2,-6.0,-11.4,-1396.8,-0.9,-137.4,-559.2,30.3,0,4032,0,72,0, 
2.2433,-110.4,-354.3,-20.4,234.3,118.5,-30.3,-380.4,169.8,-815.1,-452.4,463.8,387.0,-1119.6,-1408.2,-618.9,89.4,-6.6,-6.0,-26.7,-1408.8,-0.6,-144.0,-560.1,27.0,0,4038,0,73,0, 
2.2467,-111.6,-357.9,-25.2,229.5,116.4,-32.7,-376.2,166.8,-1037.4,-455.1,456.6,380.1,-1125.3,-1407.3,-619.8,96.0,-7.2,-6.3,-34.2,-1413.9,-0.6,-150.0,-560.1,19.8,0,4044,0,74,0, 
2.2500,-111.6,-361.8,-26.1,226.8,112.5,-30.3,-380.1,167.1,-1111.5,-462.3,454.5,379.8,-1125.9,-1405.8,-621.6,96.6,-7.2,-5.7,-38.4,-1416.0,-0.6,-153.9,-557.7,17.7,0,4050,0,75,0, 
2.2533,-119.1,-368.4,-34.2,220.5,103.8,-39.6,-386.4,156.3,-1185.6,-466.2,444.3,369.9,-1134.6,-1413.9,-630.9,90.6,-6.9,-5.4,-47.1,-1427.1,-0.9,-156.9,-569.7,10.8,0,4056,0,76,0, 
2.2567,-120.3,-370.2,-31.5,223.5,110.4,-34.5,-382.8,158.7,-889.2,-460.2,446.7,373.2,-1132.2,-1422.0,-636.6,89.1,-6.9,-6.0,-42.0,-1422.6,-0.9,-151.5,-564.0,15.3,0,4062,0,77,0, 
2.2600,-120.3,-368.1,-35.4,221.7,106.2,-38.1,-378.0,157.2,-963.3,-464.1,444.6,374.1,-1133.7,-1424.4,-630.0,96.6,-7.2,-5.7,-44.1,-1422.0,-0.6,-152.7,-567.3,14.4,0,4068,0,78,0, 
2.2633,-124.5,-366.9,-39.0,217.5,101.4,-40.8,-379.5,154.5,-815.1,-465.0,443.1,370.2,-1139.1,-1424.4,-637.2,93.0,-6.9,-6.0,-48.3,-1425.0,-0.6,-157.5,-570.3,11.1,0,4074,0,79,0, 
2.2667,-119.4,-371.7,-44.7,210.3,93.3,-49.2,-388.5,154.5,-1111.5,-471.9,434.1,364.5,-1139.7,-1419.9,-631.2,93.3,-6.9,-5.7,-60.0,-1432.2,-0.9,-167.4,-579.3,-1.2,0,4080,0,80,0, 
2.2700,-118.5,-368.7,-41.7,212.4,96.0,-45.9,-388.8,153.6,-1185.6,-478.2,439.8,363.0,-1137.9,-1417.8,-629.1,87.6,-6.9,-6.0,-56.4,-1434.3,-0.6,-168.6,-582.6,3.0,0,4086,0,81,0, 
2.2733,-116.1,-371.1,-44.1,207.6,89.7,-52.2,-394.2,153.3,-963.3,-475.2,432.0,356.4,-1137.6,-1419.3,-626.1,88.2,-6.9,-6.0,-59.4,-1439.7,-0.9,-169.2,-584.7,0.0,0,4092,0,82,0, 
2.2767,-116.4,-367.5,-39.9,209.4,98.7,-45.9,-396.6,153.6,-815.1,-475.2,437.7,364.2,-1132.8,-1415.4,-626.7,87.6,-6.9,-6.3,-51.6,-1435.2,-1.2,-166.2,-578.4,3.6,0,4098,0,83,0, 
2.2800,-117.9,-368.4,-37.2,210.3,97.5,-46.8,-395.1,154.5,-889.2,-467.7,440.1,364.5,-1134.3,-1415.7,-627.9,78.3,-6.6,-6.0,-56.4,-1428.0,-1.2,-162.3,-576.0,10.5,0,4104,0,84,0, 
2.2833,-122.7,-366.6,-31.2,209.4,97.2,-48.9,-394.5,150.0,-1185.6,-482.7,437.1,361.2,-1135.8,-1414.5,-621.3,86.4,-6.9,-5.7,-59.1,-1430.1,-0.6,-164.4,-581.7,1.5,0,4110,0,85,0, 
2.2867,-123.9,-366.9,-31.8,217.2,102.9,-41.4,-388.5,156.9,-1037.4,-468.3,436.8,365.4,-1134.0,-1429.8,-640.2,82.5,-6.6,-6.0,-55.2,-1433.1,-0.6,-164.1,-578.1,11.1,0,4116,0,86,0, 
