Time,P3,C3,F3,Fz,F4,C4,P4,Cz,CM,A1,Fp1,Fp2,T3,T5,O1,O2,X3,X2,F7,F8,X1,A2,T6,T4,Trigger,Time_Offset,ADC_Status,ADC_Sequence,Event,Comments
0.0033,-92.7,1116.9,1047.9,1190.4,1877.4,-1614.0,2146.2,748.5,-2223.0,1938.9,-3477.0,-1717.8,-2374.2,3415.8,4837.8,2443.2,-7.2,-6.0,-3075.3,1199.1,-0.6,1100.1,3616.8,886.2,0,6,0,20,0, 
0.0067,-104.1,1099.5,1043.7,1191.9,1883.1,-1619.4,2146.8,744.0,-3779.1,1935.9,-2820.6,-1452.9,-2489.4,3267.0,3303.9,2432.1,-6.6,-5.7,-3071.7,1197.0,-0.9,1095.9,3609.0,850.5,0,12,0,21,0, 
0.0100,-105.0,1105.8,1054.5,1199.1,1891.8,-1625.1,2136.3,743.7,-4149.6,1950.6,-2363.7,-1199.7,-2568.9,3210.9,2946.9,2427.3,-6.9,-5.7,-3054.6,1206.6,-0.6,1109.1,3582.9,813.9,0,18,0,22,0, 
0.0133,-107.4,1096.2,1046.4,1191.3,1890.0,-1624.5,2135.1,751.5,-2815.8,1951.8,-2632.2,-1333.5,-2435.4,3282.9,4268.4,2442.6,-6.6,-6.0,-3066.0,1206.9,-1.2,1126.2,3588.0,806.7,0,24,0,23,0, 
0.0167,-111.0,1079.7,1039.2,1191.9,1893.6,-1618.8,2133.6,753.0,-1630.2,1947.9,-3329.4,-1621.5,-2367.0,3411.6,5410.5,2440.5,-7.2,-5.7,-3062.7,1215.0,-0.9,1129.8,3590.4,824.7,0,30,0,24,0, 
0.0200,-108.3,1079.7,1033.2,1190.4,1889.4,-1611.9,2139.6,753.0,-2297.1,1936.5,-3503.1,-1754.7,-2442.3,3423.3,4826.7,2446.8,-6.9,-5.7,-3060.3,1210.2,-0.9,1127.7,3587.1,848.7,0,36,0,25,0, 
0.0233,-119.1,1076.4,1019.1,1181.1,1877.7,-1626.9,2136.3,735.9,-3779.1,1920.9,-2725.5,-1439.1,-2532.9,3310.8,3316.8,2431.8,-6.6,-5.7,-3078.9,1200.6,-1.2,1116.6,3585.9,813.0,0,42,0,26,0, 
0.0267,-116.4,1073.7,1017.9,1174.5,1871.4,-1632.3,2127.9,731.1,-4001.4,1924.8,-2310.9,-1210.5,-2489.4,3241.8,2985.9,2447.7,-6.9,-5.7,-3075.3,1197.9,-0.6,1115.1,3595.2,828.9,0,48,0,27,0, 
0.0300,-116.7,1082.1,1011.0,1167.9,1863.6,-1633.5,2124.0,726.9,-2667.6,1914.6,-2536.2,-1317.9,-2464.8,3305.1,4267.5,2435.7,-7.2,-5.4,-3079.5,1179.0,-0.9,1083.6,3585.9,837.6,0,54,0,28,0, 
0.0333,-110.4,1104.0,1020.6,1176.0,1865.4,-1626.9,2130.0,739.5,-1630.2,1918.8,-3207.3,-1705.8,-2444.4,3405.0,5421.3,2433.6,-6.6,-5.4,-3067.2,1182.9,0.0,1086.3,3601.8,891.3,0,60,0,29,0, 
0.0367,-108.9,1067.1,1004.1,1171.2,1868.1,-1624.8,2133.9,739.2,-2223.0,1922.4,-3172.2,-1740.0,-2396.7,3393.6,4827.9,2432.7,-6.6,-6.0,-3072.0,1184.1,-0.9,1085.1,3592.2,867.3,0,66,0,30,0, 
0.0400,-102.9,1078.2,1007.7,1172.7,1865.4,-1623.9,2143.5,736.8,-3779.1,1921.8,-2463.9,-1546.5,-2480.1,3301.2,3315.3,2440.2,-6.3,-5.7,-3071.4,1184.7,-0.6,1091.7,3612.6,829.8,0,72,0,31,0, 
0.0433,-111.3,1074.3,1011.9,1177.2,1867.2,-1629.3,2142.6,732.6,-4075.5,1932.0,-1857.9,-1250.1,-2531.7,3224.4,2969.1,2455.2,-7.2,-5.7,-3069.0,1188.9,-0.9,1098.3,3605.7,811.5,0,78,0,32,0, 
0.0467,-112.8,1064.4,1005.3,1170.9,1857.6,-1633.8,2138.7,733.5,-2815.8,1920.3,-2286.9,-1404.3,-2489.7,3323.7,4281.3,2452.2,-6.9,-5.7,-3087.0,1185.3,-1.2,1107.3,3612.0,804.9,0,84,0,33,0, 
0.0500,-109.5,1073.4,1000.8,1171.2,1862.4,-1626.3,2135.7,733.2,-1630.2,1925.4,-2993.1,-1803.3,-2461.8,3425.7,5429.7,2444.7,-6.9,-6.3,-3095.7,1186.5,-0.9,1098.6,3612.3,811.8,0,90,0,34,0, 
0.0533,-112.8,1082.1,997.5,1165.5,1859.1,-1627.2,2135.1,730.8,-2297.1,1896.3,-2973.9,-1831.8,-2449.5,3427.5,4837.5,2451.3,-7.2,-5.4,-3108.3,1176.9,-0.3,1088.4,3596.4,836.1,0,96,0,35,0, 
0.0567,-108.3,1081.8,1004.1,1167.6,1864.5,-1623.6,2132.7,733.5,-3853.2,1906.2,-2263.2,-1491.9,-2448.3,3293.1,3317.1,2418.0,-6.9,-6.3,-3103.8,1179.6,-0.9,1087.8,3595.2,853.2,0,102,0,36,0, 
0.0600,-109.5,1088.7,1016.4,1179.0,1871.7,-1621.8,2141.4,735.3,-4075.5,1911.9,-1803.9,-1298.4,-2583.6,3209.7,2958.6,2442.0,-6.3,-5.7,-3090.3,1178.4,-0.6,1094.7,3628.2,842.4,0,108,0,37,0, 
0.0633,-103.8,1102.5,1027.2,1190.1,1884.9,-1608.6,2142.0,750.9,-2667.6,1925.4,-2029.8,-1431.9,-2512.5,3297.3,4262.1,2440.2,-6.9,-6.0,-3084.0,1191.9,-0.9,1115.1,3596.4,871.5,0,114,0,38,0, 
0.0667,-105.9,1075.8,1021.5,1192.2,1884.9,-1613.4,2141.1,752.7,-1704.3,1937.7,-2798.7,-1791.9,-2367.6,3446.1,5439.6,2447.4,-6.9,-5.4,-3086.7,1199.4,-0.9,1114.2,3608.4,879.0,0,120,0,39,0, 
0.0700,-101.1,1073.1,1019.1,1185.9,1867.8,-1627.5,2139.9,749.4,-2223.0,1940.4,-2922.0,-1888.2,-2376.0,3448.8,4872.3,2459.1,-7.5,-6.0,-3084.9,1186.5,-0.6,1105.5,3616.8,837.9,0,126,0,40,0, 
0.0733,-105.0,1079.4,1012.5,1178.4,1863.0,-1643.7,2126.7,735.6,-3779.1,1941.0,-2303.1,-1665.3,-2464.8,3321.9,3355.5,2437.2,-6.9,-5.7,-3075.3,1173.6,-0.9,1107.0,3601.2,793.5,0,132,0,41,0, 
0.0767,-108.3,1065.3,1000.5,1176.0,1860.3,-1639.2,2129.4,731.4,-4075.5,1929.3,-1806.0,-1421.7,-2476.2,3261.0,3011.7,2438.4,-7.2,-6.0,-3082.2,1176.3,-0.9,1112.4,3600.6,814.5,0,138,0,42,0, 
0.0800,-110.4,1071.6,999.3,1170.0,1853.1,-1645.8,2128.5,726.6,-2667.6,1911.3,-2205.6,-1531.5,-2403.3,3312.6,4305.3,2440.8,-6.9,-6.3,-3106.5,1169.1,-0.9,1083.0,3628.5,808.8,0,144,0,43,0, 
0.0833,-111.6,1065.9,999.0,1170.3,1854.6,-1661.1,2118.3,729.0,-1630.2,1914.9,-2868.9,-1843.2,-2386.5,3445.5,5453.4,2435.4,-6.9,-5.4,-3120.6,1184.4,-0.6,1097.7,3609.9,799.5,0,150,0,44,0, 
0.0867,-107.1,1083.6,1006.5,1172.7,1857.9,-1641.3,2126.4,731.4,-2223.0,1915.8,-3016.5,-2051.7,-2475.6,3429.0,4837.8,2434.8,-6.9,-6.0,-3117.3,1181.7,-0.6,1091.7,3612.6,842.7,0,156,0,45,0, 
0.0900,-102.6,1109.1,1021.2,1185.0,1867.5,-1634.1,2132.1,740.1,-3630.9,1935.9,-2293.2,-1664.1,-2520.9,3309.3,3319.8,2428.2,-6.9,-5.7,-3099.9,1196.4,-0.9,1113.6,3594.9,855.9,0,162,0,46,0, 
0.0933,-108.0,1080.9,1000.8,1168.5,1855.2,-1638.6,2123.7,724.8,-4001.4,1910.1,-1945.2,-1408.8,-2526.9,3231.6,2997.0,2428.2,-6.6,-5.4,-3129.9,1180.8,-0.9,1095.0,3613.2,836.1,0,168,0,47,0, 
0.0967,-112.8,1068.3,998.1,1166.1,1857.0,-1649.1,2117.1,718.2,-2741.7,1920.3,-2337.3,-1606.8,-2480.4,3305.7,4268.1,2420.1,-6.9,-6.0,-3123.3,1175.7,-0.9,1091.4,3608.4,809.4,0,174,0,48,0, 
0.1000,-109.5,1078.5,1007.1,1172.4,1865.7,-1642.2,2121.9,726.0,-1630.2,1920.9,-3072.9,-1910.4,-2448.3,3423.0,5418.9,2428.5,-6.9,-5.7,-3112.8,1178.1,-0.9,1093.8,3591.6,828.9,0,180,0,49,0, 
0.1033,-110.4,1086.3,1018.8,1181.7,1869.0,-1624.5,2135.7,736.2,-2223.0,1921.8,-2989.2,-1908.9,-2437.5,3425.4,4844.1,2433.0,-6.9,-6.0,-3106.2,1190.1,-0.9,1098.6,3601.2,848.7,0,186,0,50,0, 
0.1067,-117.0,1050.6,1000.8,1167.9,1857.0,-1635.6,2128.2,719.1,-3705.0,1918.2,-2351.4,-1718.1,-2453.1,3315.6,3333.9,2430.9,-7.2,-5.7,-3112.8,1183.2,-0.9,1079.4,3612.3,847.5,0,192,0,51,0, 
0.1100,-110.1,1060.8,1013.7,1175.7,1868.1,-1623.0,2136.0,721.2,-4075.5,1924.2,-1896.6,-1501.8,-2491.8,3232.2,2978.4,2450.7,-6.6,-5.7,-3090.0,1182.6,-0.9,1074.6,3625.5,852.6,0,198,0,52,0, 
0.1133,-101.4,1079.4,1025.1,1189.8,1880.7,-1622.4,2141.4,740.1,-2667.6,1946.1,-2366.1,-1691.7,-2464.2,3300.6,4279.8,2440.5,-7.5,-5.7,-3084.3,1197.3,-0.6,1095.9,3650.1,843.6,0,204,0,53,0, 
0.1167,-101.1,1096.8,1031.7,1196.4,1882.8,-1626.0,2131.2,742.8,-1482.0,1961.4,-2958.9,-1985.7,-2401.2,3416.7,5427.9,2422.2,-6.9,-5.7,-3079.8,1206.0,-1.2,1102.2,3617.7,813.3,0,210,0,54,0, 
0.1200,-104.1,1092.9,1023.6,1186.8,1876.5,-1628.1,2133.9,735.3,-2223.0,1938.3,-2993.4,-2028.0,-2389.8,3417.9,4833.0,2422.8,-7.2,-5.7,-3081.0,1193.1,-0.9,1111.8,3629.4,819.0,0,216,0,55,0, 
0.1233,-113.1,1063.2,1014.6,1182.6,1878.6,-1630.2,2127.9,726.9,-3779.1,1935.0,-2330.7,-1735.2,-2460.0,3307.2,3324.0,2430.0,-6.9,-5.7,-3083.7,1196.7,-0.9,1111.5,3610.5,848.7,0,222,0,56,0, 
0.1267,-114.9,1057.5,1008.3,1174.8,1875.6,-1639.8,2124.6,720.0,-4075.5,1919.7,-1908.6,-1505.7,-2530.5,3231.6,2982.0,2438.4,-7.5,-5.7,-3096.3,1192.5,-0.3,1103.1,3615.9,863.4,0,228,0,57,0, 
0.1300,-104.7,1060.8,1019.1,1176.9,1864.5,-1643.4,2124.0,728.1,-2741.7,1933.8,-2240.1,-1665.6,-2369.7,3311.4,4292.7,2434.8,-6.6,-5.7,-3096.9,1182.9,-1.2,1112.7,3604.5,825.9,0,234,0,58,0, 
0.1333,-105.0,1067.7,1021.2,1186.8,1873.2,-1629.0,2137.5,736.5,-1704.3,1934.1,-2994.6,-2073.9,-2358.3,3415.5,5417.4,2454.9,-6.6,-5.7,-3092.1,1191.0,-1.5,1119.0,3626.1,846.9,0,240,0,59,0, 
0.1367,-109.5,1074.3,1023.9,1190.7,1876.5,-1629.6,2138.1,729.9,-2297.1,1938.3,-2916.9,-2075.1,-2454.9,3448.2,4813.5,2447.4,-6.9,-6.0,-3092.1,1201.5,-0.6,1120.2,3637.5,858.3,0,246,0,60,0, 
0.1400,-105.3,1090.8,1029.9,1191.6,1869.0,-1621.2,2145.3,730.5,-3853.2,1961.4,-2170.2,-1790.7,-2506.5,3303.0,3296.1,2447.4,-6.9,-6.0,-3090.9,1199.7,-0.6,1124.1,3660.0,869.7,0,252,0,61,0, 
0.1433,-103.5,1095.0,1018.5,1184.4,1864.5,-1622.4,2136.3,723.6,-4001.4,1929.9,-1804.5,-1595.7,-2500.5,3218.4,2952.3,2440.2,-6.9,-6.0,-3103.2,1187.1,-0.9,1104.0,3622.5,879.3,0,258,0,62,0, 
0.1467,-103.2,1097.4,1013.4,1179.6,1864.8,-1627.5,2132.1,727.2,-2741.7,1932.3,-2148.6,-1757.1,-2523.3,3281.4,4240.2,2429.4,-6.9,-6.0,-3131.1,1185.3,-0.9,1094.7,3619.8,865.5,0,264,0,63,0, 
0.1500,-112.2,1106.1,1015.2,1180.8,1871.1,-1622.1,2129.1,734.1,-1482.0,1920.6,-2818.8,-2046.9,-2469.9,3411.9,5386.2,2436.6,-7.2,-6.0,-3147.0,1185.3,-0.6,1103.7,3606.3,891.0,0,270,0,64,0, 
0.1533,-111.3,1077.0,1001.1,1175.4,1869.6,-1625.1,2136.3,734.7,-2223.0,1927.8,-2831.1,-2096.4,-2424.6,3434.4,4797.6,2440.5,-7.2,-6.0,-3150.3,1167.0,-0.9,1107.3,3631.2,849.6,0,276,0,65,0, 
0.1567,-113.7,1048.5,998.1,1173.3,1869.0,-1638.3,2123.1,721.8,-3853.2,1933.8,-2167.2,-1805.4,-2484.3,3332.1,3306.0,2459.7,-7.2,-5.7,-3136.8,1163.4,-0.9,1108.8,3618.9,804.0,0,282,0,66,0, 
0.1600,-117.6,1050.0,1009.8,1179.0,1862.1,-1641.3,2127.3,712.5,-4149.6,1935.6,-1710.3,-1561.2,-2490.0,3250.8,2970.9,2450.4,-7.2,-6.0,-3122.4,1172.7,-0.6,1101.6,3630.0,787.8,0,288,0,67,0, 
0.1633,-108.6,1056.6,1020.0,1185.3,1864.5,-1636.5,2127.0,720.6,-2667.6,1933.8,-2150.1,-1711.5,-2365.5,3308.1,4259.4,2442.3,-6.9,-6.0,-3122.7,1187.4,-0.9,1114.2,3602.1,811.8,0,294,0,68,0, 
0.1667,-104.7,1066.5,1017.0,1184.1,1862.1,-1623.9,2138.1,725.1,-1704.3,1932.0,-2823.9,-2014.2,-2360.1,3402.9,5371.2,2432.1,-6.6,-5.7,-3130.5,1181.4,-0.9,1098.0,3635.1,859.8,0,300,0,69,0, 
0.1700,-110.7,1073.7,1008.0,1174.5,1859.7,-1632.9,2128.8,720.0,-2371.2,1923.9,-2902.5,-2131.8,-2512.2,3404.1,4760.4,2420.4,-7.2,-5.7,-3136.8,1179.3,-1.2,1091.4,3628.8,830.7,0,306,0,70,0, 
0.1733,-107.7,1076.4,1015.5,1179.9,1859.1,-1636.8,2124.9,716.4,-3630.9,1917.3,-2268.0,-1843.2,-2498.4,3292.2,3285.9,2444.4,-6.9,-6.0,-3126.0,1178.7,-0.6,1101.0,3618.3,821.4,0,312,0,71,0, 
0.1767,-107.4,1072.5,1019.4,1179.3,1853.4,-1634.4,2127.0,718.8,-4075.5,1916.4,-1749.3,-1690.8,-2435.1,3236.4,2972.7,2438.1,-6.9,-6.0,-3120.6,1181.7,-0.6,1091.7,3616.5,824.4,0,318,0,72,0, 
0.1800,-104.7,1075.2,1029.6,1192.8,1863.0,-1618.5,2133.9,726.9,-2741.7,1942.8,-2076.9,-1824.3,-2406.6,3306.6,4276.2,2440.8,-6.9,-5.7,-3111.9,1194.3,-0.9,1107.0,3622.8,860.1,0,324,0,73,0, 
0.1833,-109.8,1061.4,1016.4,1180.2,1856.7,-1625.1,2130.9,724.8,-1630.2,1933.5,-2887.2,-2276.4,-2471.7,3418.2,5381.4,2440.5,-6.9,-6.0,-3125.7,1186.2,-1.2,1094.7,3646.8,851.1,0,330,0,74,0, 
0.1867,-96.0,1085.7,1028.4,1190.4,1857.9,-1620.6,2133.3,731.7,-2371.2,1926.3,-2870.4,-2234.4,-2470.8,3411.3,4790.4,2439.9,-6.6,-5.7,-3114.9,1186.5,-0.9,1102.5,3609.6,884.4,0,336,0,75,0, 
0.1900,-111.3,1085.1,1025.4,1185.3,1854.9,-1607.4,2139.6,720.6,-3630.9,1931.4,-2241.9,-2022.0,-2492.7,3280.8,3281.4,2452.2,-7.2,-5.7,-3116.4,1178.1,-0.6,1096.8,3634.8,908.4,0,342,0,76,0, 
0.1933,-106.2,1080.3,1026.6,1194.3,1869.6,-1607.4,2143.5,726.0,-4149.6,1932.3,-1736.1,-1752.9,-2490.0,3237.9,2972.4,2441.4,-6.9,-5.7,-3116.1,1197.9,-0.6,1103.7,3621.0,905.7,0,348,0,77,0, 
0.1967,-96.9,1087.5,1026.6,1190.7,1867.2,-1622.4,2135.4,724.8,-2667.6,1930.5,-2174.4,-1896.6,-2425.5,3316.8,4276.8,2455.5,-6.9,-5.7,-3131.4,1194.6,-0.6,1101.9,3620.7,824.7,0,354,0,78,0, 
0.2000,-96.9,1085.1,1032.3,1192.8,1864.8,-1620.9,2133.3,730.8,-1630.2,1927.5,-2869.8,-2106.9,-2394.9,3441.6,5428.2,2454.9,-7.2,-5.7,-3134.7,1196.7,-0.9,1111.5,3614.4,810.3,0,360,0,79,0, 
0.2033,-99.3,1080.9,1037.4,1196.7,1869.9,-1608.3,2134.2,732.0,-2223.0,1918.8,-2929.2,-2231.1,-2434.5,3451.5,4831.8,2445.9,-6.9,-5.7,-3125.1,1209.9,-0.9,1120.2,3635.1,827.4,0,366,0,80,0, 
0.2067,-103.5,1075.2,1033.8,1193.7,1869.6,-1608.3,2143.5,726.9,-3705.0,1930.2,-2244.3,-1881.6,-2469.0,3327.6,3343.5,2463.9,-7.2,-5.7,-3120.3,1200.6,-0.3,1117.2,3633.3,869.4,0,372,0,81,0, 
0.2100,-97.5,1083.0,1038.3,1188.6,1861.8,-1617.9,2127.9,727.5,-4075.5,1936.8,-1695.3,-1562.7,-2530.5,3244.5,2998.8,2436.9,-6.6,-6.3,-3113.4,1187.7,-0.9,1100.1,3603.9,812.7,0,378,0,82,0, 
0.2133,-89.7,1088.7,1046.4,1203.9,1881.3,-1611.3,2139.3,741.3,-2667.6,1952.1,-1987.8,-1725.3,-2457.3,3321.3,4290.0,2428.5,-6.9,-5.7,-3098.1,1205.1,-0.9,1125.3,3613.5,832.8,0,384,0,83,0, 
0.2167,-98.4,1090.2,1050.9,1203.3,1870.2,-1608.6,2135.1,745.5,-1630.2,1959.3,-2638.5,-2118.0,-2414.7,3432.6,5415.3,2427.6,-6.6,-5.7,-3094.5,1203.9,-0.9,1116.9,3616.8,827.4,0,390,0,84,0, 
0.2200,-97.8,1081.8,1042.2,1200.9,1869.6,-1601.7,2140.8,744.9,-2148.9,1957.5,-2707.8,-2101.8,-2384.1,3441.6,4821.0,2445.0,-6.9,-6.0,-3107.4,1193.4,-0.6,1125.3,3627.6,834.6,0,396,0,85,0, 
0.2233,-97.2,1082.4,1035.9,1194.9,1860.3,-1608.0,2141.4,730.5,-3779.1,1943.7,-1983.9,-1827.3,-2512.8,3311.1,3296.1,2430.3,-6.6,-5.7,-3119.1,1183.5,-0.9,1107.6,3642.0,837.3,0,402,0,86,0, 
0.2267,-94.8,1113.3,1050.3,1200.6,1875.0,-1601.4,2142.0,735.6,-4075.5,1938.3,-1456.8,-1593.3,-2491.5,3222.9,2959.2,2418.9,-7.2,-6.0,-3105.9,1193.1,-0.9,1111.8,3611.4,878.4,0,408,0,87,0, 
0.2300,-98.7,1079.1,1042.8,1202.7,1881.9,-1587.9,2145.3,741.6,-2815.8,1932.6,-1810.5,-1680.3,-2459.1,3324.6,4263.6,2439.9,-7.2,-6.3,-3112.8,1199.1,-0.6,1105.5,3623.7,888.9,0,414,0,88,0, 
0.2333,-109.2,1077.9,1044.3,1203.6,1875.0,-1604.4,2138.7,741.6,-1482.0,1944.3,-2373.6,-1965.9,-2398.5,3438.9,5406.6,2444.7,-6.6,-6.0,-3108.9,1208.4,-0.9,1117.8,3637.2,863.1,0,420,0,89,0, 
0.2367,-107.1,1063.2,1031.7,1196.7,1867.8,-1592.4,2140.8,734.1,-2297.1,1926.6,-2271.9,-2049.9,-2384.4,3445.2,4828.8,2456.4,-6.9,-5.7,-3119.7,1206.6,-0.6,1118.1,3645.9,883.2,0,426,0,90,0, 
0.2400,-101.1,1066.2,1036.8,1196.4,1877.4,-1582.2,2136.9,736.2,-3705.0,1937.7,-1564.2,-1734.9,-2426.1,3312.9,3320.4,2438.7,-6.9,-5.7,-3110.1,1214.4,-0.6,1116.9,3632.1,910.5,0,432,0,91,0, 
0.2433,-95.1,1066.5,1034.1,1194.0,1863.9,-1596.0,2124.9,733.2,-4001.4,1939.5,-1305.3,-1562.1,-2442.6,3237.0,2984.1,2436.0,-6.9,-5.7,-3100.5,1206.9,-0.9,1111.2,3627.9,852.6,0,438,0,92,0, 
0.2467,-99.6,1072.5,1035.3,1188.6,1858.2,-1599.9,2130.3,738.0,-2667.6,1935.6,-1645.5,-1667.4,-2411.1,3294.3,4283.1,2444.4,-7.2,-6.0,-3102.6,1201.8,-0.9,1110.0,3619.5,824.7,0,444,0,93,0, 
0.2500,-100.5,1078.8,1037.7,1195.5,1867.2,-1598.1,2132.4,745.8,-1482.0,1950.0,-2447.4,-1982.4,-2348.7,3417.3,5414.4,2439.9,-6.9,-5.7,-3107.4,1211.4,-0.6,1114.2,3609.3,825.0,0,450,0,94,0, 
0.2533,-97.2,1069.8,1037.7,1192.8,1862.1,-1605.6,2131.5,742.8,-2297.1,1946.1,-2366.7,-2029.5,-2402.1,3439.5,4813.8,2433.0,-6.9,-5.4,-3098.1,1199.4,-0.9,1118.1,3615.6,808.5,0,456,0,95,0, 
0.2567,-96.9,1073.7,1036.2,1193.7,1864.2,-1594.8,2139.0,737.4,-3779.1,1953.9,-1740.0,-1725.3,-2544.3,3321.3,3304.2,2437.2,-6.9,-5.7,-3090.3,1200.6,-0.6,1113.9,3622.8,819.3,0,462,0,96,0, 
0.2600,-99.3,1080.6,1035.6,1192.8,1859.7,-1603.5,2133.6,732.9,-4075.5,1937.4,-1431.0,-1481.7,-2469.3,3255.6,2993.1,2435.4,-6.9,-6.0,-3093.0,1202.4,-0.3,1114.2,3612.9,832.8,0,468,0,97,0, 
0.2633,-94.5,1083.6,1035.3,1191.9,1862.1,-1595.1,2134.2,739.2,-2593.5,1942.2,-1926.9,-1611.9,-2411.4,3302.7,4289.7,2435.4,-6.9,-5.4,-3097.8,1192.5,-0.6,1102.5,3609.0,855.9,0,474,0,98,0, 
0.2667,-97.8,1089.3,1039.2,1193.4,1872.3,-1598.4,2138.1,745.2,-1556.1,1939.5,-2541.0,-1923.3,-2385.0,3430.2,5412.9,2429.1,-6.9,-5.7,-3099.9,1198.5,-0.9,1112.7,3636.3,862.5,0,480,0,99,0, 
0.2700,-94.2,1101.3,1037.1,1190.7,1858.8,-1599.3,2140.8,737.7,-2223.0,1938.0,-2664.6,-1959.0,-2492.4,3430.5,4796.4,2441.1,-6.9,-6.0,-3107.4,1194.6,-0.6,1084.8,3624.3,857.4,0,486,0,100,0, 
0.2733,-96.3,1106.7,1035.6,1185.6,1849.8,-1602.6,2128.8,727.5,-3779.1,1927.2,-1946.4,-1767.0,-2550.6,3301.5,3299.1,2436.9,-7.2,-5.7,-3112.2,1185.3,-0.9,1101.0,3599.4,851.1,0,492,0,101,0, 
0.2767,-92.1,1110.9,1027.5,1182.0,1848.6,-1590.9,2139.6,726.3,-4001.4,1926.3,-1588.2,-1557.6,-2553.6,3240.0,2973.9,2427.9,-7.2,-5.4,-3120.9,1185.3,-0.6,1092.3,3611.1,880.8,0,498,0,102,0, 
0.2800,-97.5,1105.2,1030.2,1179.3,1847.1,-1600.5,2130.6,728.7,-2593.5,1916.1,-1961.1,-1690.2,-2406.0,3293.4,4280.1,2431.2,-6.6,-6.3,-3121.2,1182.0,-1.2,1098.6,3612.9,847.8,0,504,0,103,0, 
0.2833,-89.7,1089.0,1023.6,1173.9,1844.7,-1606.5,2128.2,729.9,-1704.3,1900.5,-2517.0,-2049.6,-2363.7,3449.1,5430.9,2424.9,-7.2,-5.7,-3135.9,1185.3,-0.9,1104.3,3605.7,831.6,0,510,0,104,0, 
0.2867,-94.8,1062.0,1024.8,1182.0,1854.9,-1603.5,2134.2,736.2,-2223.0,1942.8,-2388.0,-2061.3,-2390.7,3435.9,4828.8,2440.5,-6.9,-5.7,-3122.1,1203.0,-0.6,1115.1,3613.5,843.3,0,516,0,105,0, 
0.2900,-96.9,1071.0,1030.2,1192.8,1857.9,-1595.7,2132.7,738.0,-3779.1,1957.8,-1671.9,-1719.3,-2463.3,3316.5,3318.9,2427.6,-7.2,-5.7,-3106.5,1206.3,-0.9,1126.8,3615.6,854.4,0,522,0,106,0, 
0.2933,-94.5,1058.1,1018.2,1181.1,1850.7,-1608.9,2135.7,728.1,-3779.1,1944.9,-1196.1,-1527.9,-2438.7,3240.0,3006.0,2444.1,-6.9,-6.0,-3115.8,1191.0,-0.6,1106.7,3621.0,841.8,0,528,0,107,0, 
0.2967,-91.8,1052.7,1015.5,1183.2,1852.5,-1601.4,2138.4,733.5,-2741.7,1944.3,-1605.6,-1642.5,-2365.5,3319.2,4300.2,2438.7,-6.9,-5.7,-3118.8,1194.0,-1.2,1114.5,3624.0,853.8,0,534,0,108,0, 
0.3000,-99.3,1054.5,1018.8,1185.9,1852.5,-1590.6,2138.1,740.4,-1556.1,1951.8,-2404.8,-1985.7,-2404.2,3421.5,5408.4,2427.3,-7.2,-6.0,-3123.9,1191.3,-0.3,1107.9,3623.1,858.3,0,540,0,109,0, 
0.3033,-94.8,1068.3,1024.5,1198.2,1871.7,-1598.7,2137.5,744.9,-2148.9,1942.5,-2297.7,-1989.3,-2396.4,3445.2,4830.9,2429.1,-6.6,-5.7,-3106.8,1201.5,-0.9,1117.2,3615.3,836.4,0,546,0,110,0, 
0.3067,-87.9,1074.6,1033.8,1206.9,1876.2,-1590.6,2146.2,742.8,-3705.0,1951.2,-1686.6,-1684.5,-2421.3,3346.5,3354.6,2441.4,-6.6,-5.7,-3093.3,1215.0,-0.6,1125.6,3644.1,836.4,0,552,0,111,0, 
0.3100,-93.3,1087.8,1039.2,1204.2,1872.6,-1589.7,2146.8,740.1,-4001.4,1952.4,-1175.4,-1425.6,-2490.0,3256.8,3010.5,2446.8,-6.9,-5.7,-3085.5,1205.7,-0.6,1129.2,3639.6,849.6,0,558,0,112,0, 
0.3133,-82.8,1108.5,1050.9,1214.4,1874.1,-1587.3,2147.4,749.1,-2519.4,1963.5,-1542.0,-1632.0,-2454.9,3322.2,4306.8,2432.1,-6.9,-5.4,-3088.8,1200.0,-0.9,1125.6,3628.2,852.9,0,564,0,113,0, 
0.3167,-81.6,1115.1,1046.4,1208.7,1867.2,-1589.7,2149.5,752.7,-1630.2,1945.5,-2269.2,-1943.7,-2380.2,3444.9,5448.6,2446.8,-6.6,-6.3,-3093.9,1196.1,-0.9,1106.4,3627.6,859.8,0,570,0,114,0, 
0.3200,-82.5,1110.9,1048.8,1210.8,1865.1,-1579.8,2151.9,756.0,-2223.0,1934.1,-2280.9,-2020.8,-2393.7,3462.9,4854.3,2438.1,-6.6,-5.4,-3093.9,1197.6,-0.6,1101.0,3622.5,919.2,0,576,0,115,0, 
0.3233,-88.2,1108.5,1048.2,1208.1,1869.0,-1582.8,2142.0,751.8,-3927.3,1930.2,-1602.0,-1598.4,-2460.0,3324.6,3325.8,2420.7,-6.6,-5.7,-3096.3,1206.3,-0.6,1107.0,3591.3,913.5,0,582,0,116,0, 
0.3267,-90.9,1105.5,1039.8,1208.1,1872.6,-1578.0,2137.8,750.6,-3927.3,1943.4,-1199.4,-1360.8,-2520.9,3249.9,2997.3,2412.6,-6.6,-5.7,-3111.0,1215.9,-0.6,1119.0,3595.8,893.1,0,588,0,117,0, 
0.3300,-93.9,1101.6,1033.2,1203.6,1869.9,-1602.6,2128.8,745.2,-2741.7,1933.8,-1533.3,-1544.4,-2523.9,3328.5,4295.1,2421.9,-6.6,-5.7,-3121.8,1214.1,-0.6,1121.7,3602.7,826.5,0,594,0,118,0, 
0.3333,-100.2,1088.7,1018.2,1186.8,1856.4,-1615.2,2129.7,740.7,-1556.1,1919.7,-2324.4,-1894.5,-2426.7,3446.1,5419.2,2421.0,-6.9,-6.0,-3141.3,1188.0,-0.6,1108.5,3602.7,794.1,0,600,0,119,0, 
0.3367,-95.4,1083.9,1019.4,1190.1,1858.8,-1612.8,2126.7,744.0,-2371.2,1937.1,-2356.5,-1964.1,-2409.9,3441.6,4821.0,2413.5,-6.6,-5.7,-3122.4,1194.3,-0.9,1102.5,3587.4,840.0,0,606,0,120,0, 
0.3400,-94.2,1077.3,1026.6,1194.0,1856.1,-1605.3,2127.0,739.5,-3630.9,1946.1,-1725.3,-1646.7,-2445.0,3323.7,3324.6,2412.9,-6.9,-5.7,-3103.2,1203.0,-0.9,1118.7,3606.9,867.0,0,612,0,121,0, 
0.3433,-88.2,1098.0,1032.0,1189.5,1849.2,-1611.9,2125.8,735.9,-4149.6,1935.9,-1257.9,-1356.9,-2452.2,3241.5,3006.0,2417.1,-6.9,-6.3,-3098.7,1188.3,-0.9,1109.4,3597.9,801.0,0,618,0,122,0, 
0.3467,-96.0,1088.7,1028.4,1181.1,1832.1,-1614.3,2118.3,728.1,-2519.4,1938.0,-1576.2,-1408.8,-2419.5,3284.4,4283.4,2407.8,-6.9,-5.7,-3115.5,1172.7,-0.9,1089.6,3576.0,811.2,0,624,0,123,0, 
0.3500,-91.5,1085.4,1025.4,1181.4,1837.5,-1615.8,2124.3,730.5,-1630.2,1929.6,-2252.1,-1766.7,-2421.3,3419.1,5389.8,2411.7,-6.9,-6.0,-3129.0,1179.0,-0.3,1090.2,3601.2,812.7,0,630,0,124,0, 
0.3533,-100.5,1083.6,1029.0,1189.5,1845.6,-1605.6,2124.9,733.8,-2223.0,1933.8,-2318.7,-1740.3,-2460.9,3399.9,4777.2,2414.1,-6.6,-5.7,-3120.9,1187.1,-0.9,1103.1,3598.5,823.5,0,636,0,125,0, 
0.3567,-102.6,1084.5,1028.7,1193.7,1849.2,-1600.5,2137.8,734.1,-3630.9,1947.9,-1686.0,-1485.6,-2534.4,3284.7,3278.4,2433.3,-6.9,-6.3,-3111.0,1183.2,-1.2,1109.1,3630.3,828.6,0,642,0,126,0, 
0.3600,-89.1,1082.7,1035.6,1203.6,1860.9,-1588.5,2139.9,743.4,-3927.3,1951.2,-1372.5,-1293.0,-2452.5,3256.5,3000.9,2422.8,-7.2,-6.0,-3108.9,1190.7,-0.9,1119.0,3610.5,854.7,0,648,0,127,0, 
0.3633,-89.1,1072.2,1029.3,1205.4,1866.6,-1578.9,2139.6,747.6,-2667.6,1946.1,-1681.2,-1351.2,-2381.7,3341.1,4304.1,2424.0,-7.2,-5.4,-3123.6,1197.9,-0.6,1116.9,3604.5,879.3,0,654,0,128,0, 
0.3667,-91.2,1084.5,1042.2,1206.3,1869.6,-1578.6,2146.2,753.6,-1407.9,1955.4,-2509.5,-1808.7,-2349.0,3447.6,5432.1,2424.0,-6.9,-6.3,-3118.8,1202.4,-0.9,1122.0,3607.5,898.8,0,660,0,129,0, 
0.3700,-84.0,1098.6,1041.9,1209.6,1878.9,-1577.7,2154.3,756.0,-2148.9,1950.9,-2476.5,-1760.4,-2396.4,3450.6,4823.4,2431.8,-6.9,-5.7,-3114.3,1210.2,-0.6,1113.0,3624.3,912.0,0,666,0,130,0, 
0.3733,-80.1,1101.9,1037.4,1201.5,1864.2,-1595.4,2142.6,750.9,-3705.0,1949.7,-1715.7,-1518.3,-2480.7,3330.0,3315.9,2436.6,-7.2,-5.7,-3111.0,1204.8,-0.6,1128.0,3609.3,840.0,0,672,0,131,0, 
0.3767,-85.2,1095.3,1032.9,1198.2,1859.7,-1590.3,2141.1,743.1,-3927.3,1940.4,-1448.7,-1371.0,-2504.7,3263.1,3000.3,2444.4,-7.2,-6.0,-3119.1,1197.9,-0.9,1125.0,3620.4,834.3,0,678,0,132,0, 
0.3800,-89.1,1100.4,1044.0,1205.4,1866.9,-1587.6,2144.4,750.3,-2741.7,1939.8,-1807.5,-1527.0,-2422.8,3325.8,4293.9,2431.8,-6.9,-5.7,-3118.8,1200.3,-0.6,1134.0,3621.0,850.8,0,684,0,133,0, 
0.3833,-86.7,1116.6,1044.6,1200.3,1869.6,-1591.8,2141.4,748.5,-1630.2,1941.9,-2491.5,-1832.4,-2463.0,3457.2,5418.9,2425.2,-6.3,-6.3,-3117.0,1189.5,-0.6,1123.8,3619.5,841.5,0,690,0,134,0, 
0.3867,-76.2,1127.7,1055.4,1206.9,1875.9,-1586.1,2149.8,757.8,-2148.9,1955.1,-2568.0,-1957.2,-2472.3,3456.0,4826.4,2436.0,-6.9,-5.7,-3111.3,1196.7,-0.9,1128.3,3616.2,819.3,0,696,0,135,0, 
0.3900,-94.5,1103.4,1054.2,1214.1,1886.1,-1578.3,2152.2,751.2,-3705.0,1967.4,-1787.4,-1630.5,-2465.4,3323.7,3322.8,2452.2,-6.9,-5.7,-3104.7,1212.9,-0.6,1135.8,3623.1,846.3,0,702,0,136,0, 
0.3933,-83.4,1105.2,1046.1,1207.8,1878.9,-1570.8,2148.3,748.8,-4001.4,1947.3,-1328.1,-1408.2,-2537.7,3257.1,2979.0,2425.2,-6.9,-5.7,-3121.2,1203.6,-0.6,1119.9,3613.2,863.7,0,708,0,137,0, 
0.3967,-87.9,1102.8,1040.7,1200.9,1874.4,-1572.3,2151.6,747.6,-2667.6,1935.3,-1597.5,-1554.9,-2459.1,3311.1,4283.4,2431.8,-6.6,-6.0,-3133.2,1196.7,-0.6,1104.3,3625.5,869.1,0,714,0,138,0, 
0.4000,-91.5,1077.9,1031.4,1197.3,1873.5,-1568.7,2154.6,753.3,-1556.1,1930.2,-2347.2,-1865.4,-2380.8,3441.0,5394.9,2428.8,-6.9,-6.0,-3152.7,1196.1,-0.6,1115.1,3617.4,875.1,0,720,0,139,0, 
0.4033,-97.2,1068.6,1023.0,1191.0,1860.6,-1594.5,2150.7,748.2,-2297.1,1928.7,-2332.8,-1878.6,-2403.6,3447.0,4807.2,2444.1,-6.6,-5.4,-3161.7,1186.2,-0.6,1104.0,3621.6,832.8,0,726,0,140,0, 
0.4067,-98.7,1064.7,1026.6,1189.5,1853.4,-1594.2,2149.8,743.4,-3705.0,1935.6,-1714.5,-1679.4,-2473.5,3343.8,3313.2,2438.7,-7.2,-6.0,-3156.3,1185.9,-0.3,1098.0,3616.5,804.3,0,732,0,141,0, 
0.4100,-101.1,1061.1,1019.4,1181.4,1848.6,-1580.4,2156.1,737.1,-4001.4,1928.7,-1193.4,-1365.6,-2550.3,3249.6,2981.4,2415.3,-6.9,-6.3,-3171.3,1175.4,-0.9,1095.9,3625.8,846.0,0,738,0,142,0, 
0.4133,-84.6,1081.5,1018.2,1180.2,1845.6,-1581.0,2140.8,744.9,-2667.6,1921.5,-1548.3,-1566.6,-2371.2,3324.9,4279.2,2408.7,-7.2,-5.7,-3183.0,1155.9,-0.6,1076.4,3595.5,889.8,0,744,0,143,0, 
0.4167,-96.0,1078.2,1020.0,1182.3,1847.7,-1582.8,2138.4,750.6,-1704.3,1909.2,-2225.4,-1865.1,-2343.9,3374.7,5352.9,2387.4,-6.6,-6.0,-3174.3,1168.2,-0.9,1076.4,3570.9,887.4,0,750,0,144,0, 
0.4200,-108.6,1080.6,1024.2,1188.0,1854.0,-1579.5,2149.5,751.2,-2148.9,1914.9,-2214.9,-1956.9,-2492.4,3390.6,4729.5,2430.3,-6.9,-5.4,-3162.6,1184.7,-0.9,1094.1,3609.6,837.9,0,756,0,145,0, 
0.4233,-99.9,1086.0,1039.2,1193.4,1853.4,-1581.9,2150.7,747.3,-3779.1,1938.6,-1439.1,-1613.1,-2540.1,3292.8,3247.2,2415.0,-7.5,-5.7,-3136.5,1194.9,-0.6,1098.0,3615.3,806.4,0,762,0,146,0, 
0.4267,-101.1,1089.6,1051.8,1207.8,1871.7,-1569.9,2153.1,750.0,-4075.5,1957.5,-1089.0,-1455.6,-2536.5,3246.9,2942.7,2430.6,-6.6,-5.4,-3111.3,1209.9,-0.6,1117.2,3604.8,826.8,0,768,0,147,0, 
0.4300,-99.9,1099.8,1049.7,1203.6,1865.7,-1572.0,2154.0,747.0,-2667.6,1945.5,-1436.7,-1460.4,-2482.5,3334.5,4260.0,2424.6,-6.9,-6.0,-3134.1,1203.3,-0.9,1108.2,3596.7,839.7,0,774,0,148,0, 
0.4333,-95.1,1088.7,1050.0,1204.5,1869.6,-1566.9,2158.8,759.0,-1556.1,1956.6,-2115.6,-1798.8,-2376.6,3457.5,5411.4,2438.7,-6.6,-6.3,-3133.2,1210.2,-0.9,1127.7,3608.7,827.1,0,780,0,149,0, 
0.4367,-89.1,1081.8,1042.8,1203.9,1869.6,-1559.1,2162.1,756.0,-2148.9,1957.5,-2007.0,-1826.1,-2360.4,3464.1,4803.9,2439.3,-7.2,-5.1,-3141.3,1216.8,-0.9,1134.0,3624.3,846.0,0,786,0,150,0, 
0.4400,-86.7,1084.2,1047.6,1203.6,1867.8,-1559.4,2164.8,750.0,-3705.0,1967.4,-1335.9,-1469.7,-2450.7,3336.6,3294.3,2446.8,-6.6,-5.7,-3138.6,1209.0,-0.3,1131.0,3634.2,854.7,0,792,0,151,0, 
0.4433,-87.0,1087.5,1035.9,1190.7,1868.7,-1554.6,2165.7,743.7,-3853.2,1940.4,-1018.8,-1294.8,-2476.2,3259.8,2983.5,2444.7,-7.5,-5.7,-3156.6,1195.8,-0.6,1109.7,3639.9,885.0,0,798,0,152,0, 
0.4467,-93.9,1102.5,1044.3,1188.9,1862.7,-1563.3,2153.7,747.6,-2667.6,1953.9,-1297.5,-1397.1,-2392.8,3289.2,4261.2,2448.3,-6.9,-5.7,-3151.5,1190.7,-0.6,1112.4,3604.2,875.4,0,804,0,153,0, 
0.4500,-90.0,1097.1,1053.6,1197.3,1872.0,-1562.1,2153.1,754.5,-1630.2,1950.6,-2174.1,-1763.7,-2367.9,3440.1,5376.3,2418.9,-6.6,-5.7,-3145.5,1209.0,-0.6,1127.4,3595.2,865.8,0,810,0,154,0, 
0.4533,-95.7,1103.1,1048.5,1196.4,1862.7,-1567.5,2148.9,754.2,-2223.0,1957.2,-2047.2,-1845.6,-2467.8,3430.2,4752.0,2411.4,-6.9,-5.7,-3154.2,1211.4,-0.9,1120.2,3623.1,864.3,0,816,0,155,0, 
0.4567,-90.9,1097.4,1034.1,1191.6,1863.0,-1562.7,2150.1,748.2,-3779.1,1928.4,-1498.8,-1584.9,-2500.8,3321.3,3279.6,2421.3,-6.9,-6.3,-3160.8,1203.9,-0.9,1110.0,3600.6,870.3,0,822,0,156,0, 
0.4600,-97.8,1080.0,1031.4,1185.0,1857.9,-1570.5,2153.7,740.4,-4001.4,1920.9,-1071.3,-1257.9,-2514.9,3248.4,2958.0,2439.6,-6.9,-6.0,-3157.5,1191.0,-0.3,1107.9,3619.2,891.0,0,828,0,157,0, 
0.4633,-101.4,1067.7,1028.1,1179.3,1852.8,-1573.8,2136.3,735.0,-2593.5,1922.7,-1529.4,-1449.3,-2372.1,3329.1,4275.3,2410.8,-6.9,-5.7,-3161.7,1182.3,-0.6,1101.9,3585.9,866.4,0,834,0,158,0, 
0.4667,-105.0,1058.7,1023.6,1180.2,1858.2,-1578.9,2146.2,738.0,-1556.1,1936.8,-2096.4,-1730.4,-2396.4,3440.1,5400.0,2418.3,-6.9,-6.0,-3162.3,1184.7,-0.9,1103.7,3616.5,846.3,0,840,0,159,0, 
0.4700,-88.8,1094.7,1049.7,1196.1,1860.9,-1575.6,2153.4,744.9,-2074.8,1954.2,-2158.5,-1772.1,-2477.7,3451.5,4793.7,2421.0,-7.2,-5.7,-3145.5,1188.0,-0.6,1124.1,3621.9,812.4,0,846,0,160,0, 
0.4733,-92.7,1108.8,1050.9,1191.3,1856.4,-1582.8,2147.7,738.6,-3630.9,1957.2,-1421.1,-1425.0,-2477.1,3316.5,3307.8,2422.5,-7.2,-5.4,-3136.8,1187.7,-0.6,1110.0,3609.0,809.7,0,852,0,161,0, 
0.4767,-93.9,1096.5,1035.9,1181.1,1850.4,-1582.8,2144.1,729.9,-3853.2,1950.0,-1033.2,-1161.6,-2505.3,3233.1,2991.3,2422.5,-6.9,-5.4,-3154.8,1185.6,-0.9,1107.3,3603.3,831.0,0,858,0,162,0, 
0.4800,-96.6,1098.3,1045.8,1185.3,1853.7,-1578.9,2148.3,739.5,-2667.6,1950.9,-1338.3,-1311.6,-2495.4,3305.4,4278.6,2424.6,-6.9,-6.0,-3146.1,1197.3,-0.9,1131.0,3603.9,837.0,0,864,0,163,0, 
0.4833,-99.0,1089.9,1035.3,1177.8,1841.4,-1583.4,2150.1,736.2,-1630.2,1936.8,-2031.6,-1626.9,-2451.9,3445.2,5405.1,2432.4,-6.9,-6.0,-3159.9,1191.6,-0.9,1112.7,3605.4,812.1,0,870,0,164,0, 
0.4867,-99.3,1068.6,1029.9,1182.0,1850.4,-1582.5,2147.4,738.6,-2074.8,1955.4,-2057.1,-1658.4,-2406.9,3455.4,4822.2,2423.1,-7.2,-5.7,-3148.5,1197.0,-0.6,1126.8,3601.5,839.4,0,876,0,165,0, 
0.4900,-99.3,1081.2,1026.9,1179.6,1847.4,-1588.8,2142.3,728.4,-3705.0,1947.0,-1282.2,-1239.3,-2478.9,3343.2,3327.9,2429.1,-7.2,-6.3,-3151.2,1196.7,-0.6,1116.9,3590.4,848.7,0,882,0,166,0, 
0.4933,-93.6,1094.7,1032.6,1177.2,1847.4,-1590.0,2146.2,729.9,-4075.5,1950.3,-973.8,-1031.1,-2421.9,3251.4,3011.4,2443.8,-6.3,-6.0,-3159.0,1186.2,-0.9,1110.0,3596.4,828.3,0,888,0,167,0, 
0.4967,-90.9,1081.8,1031.1,1174.5,1852.2,-1584.9,2143.2,731.1,-2593.5,1941.9,-1323.9,-1186.2,-2369.1,3339.0,4326.9,2423.7,-6.6,-6.0,-3160.8,1185.6,-0.6,1104.9,3603.3,857.4,0,894,0,168,0, 
0.5000,-94.8,1083.9,1022.4,1172.4,1852.5,-1571.1,2145.9,735.0,-1704.3,1933.8,-2043.9,-1567.8,-2373.6,3440.4,5421.0,2428.5,-6.6,-5.1,-3175.2,1186.5,-0.9,1099.2,3627.9,879.0,0,900,0,169,0, 
0.5033,-99.0,1083.9,1021.5,1166.4,1852.5,-1569.6,2140.5,734.7,-2223.0,1936.2,-2035.2,-1614.9,-2415.6,3439.5,4782.3,2412.9,-6.6,-5.7,-3179.1,1182.3,-0.9,1098.3,3589.8,890.4,0,906,0,170,0, 
0.5067,-98.4,1067.7,1018.8,1171.5,1854.9,-1570.5,2149.2,731.1,-3630.9,1938.3,-1420.8,-1290.9,-2463.9,3310.2,3294.9,2432.4,-6.9,-5.1,-3177.3,1180.2,-0.6,1101.0,3612.3,867.0,0,912,0,171,0, 
0.5100,-112.8,1065.0,1026.9,1168.2,1854.6,-1584.9,2136.0,727.5,-3927.3,1943.1,-956.4,-1089.6,-2453.4,3234.3,2990.4,2428.8,-6.6,-5.7,-3173.4,1184.4,-0.9,1104.6,3582.9,823.2,0,918,0,172,0, 
0.5133,-103.8,1089.3,1035.3,1175.7,1859.1,-1584.9,2135.4,737.1,-2593.5,1956.9,-1437.6,-1185.0,-2499.6,3302.7,4275.0,2400.3,-6.6,-6.0,-3171.0,1192.2,-0.3,1120.8,3579.0,816.6,0,924,0,173,0, 
0.5167,-101.1,1096.5,1030.2,1169.4,1857.9,-1580.1,2139.0,737.4,-1630.2,1927.8,-2028.0,-1510.8,-2416.2,3423.9,5398.8,2414.4,-6.6,-5.7,-3189.3,1190.7,-1.2,1122.9,3580.5,822.3,0,930,0,174,0, 
0.5200,-96.9,1075.2,1023.9,1171.8,1856.1,-1569.9,2144.1,737.1,-2148.9,1930.5,-2034.9,-1522.8,-2399.7,3455.4,4816.8,2408.7,-6.9,-5.7,-3190.5,1188.6,-0.9,1110.9,3590.7,842.1,0,936,0,175,0, 
0.5233,-99.6,1072.8,1026.9,1167.9,1848.0,-1576.2,2139.6,730.2,-3705.0,1933.2,-1429.2,-1227.9,-2486.7,3315.0,3310.2,2410.5,-7.2,-6.0,-3183.0,1180.8,-0.6,1102.8,3589.2,829.5,0,942,0,176,0, 
0.5267,-105.9,1080.9,1026.6,1167.6,1839.3,-1588.8,2137.5,724.2,-4001.4,1927.8,-936.9,-940.2,-2518.8,3240.3,2990.4,2411.1,-6.9,-6.3,-3181.2,1173.0,-0.3,1091.4,3587.7,815.4,0,948,0,177,0, 
0.5300,-99.6,1089.3,1029.0,1170.3,1842.6,-1583.7,2140.5,734.1,-2519.4,1926.3,-1413.3,-1018.8,-2455.5,3318.3,4299.6,2425.5,-6.6,-5.7,-3189.0,1175.1,-0.9,1094.4,3583.8,824.4,0,954,0,178,0, 
0.5333,-107.4,1086.3,1021.2,1164.6,1841.7,-1588.5,2136.9,731.4,-1630.2,1929.6,-2108.7,-1426.5,-2498.1,3426.6,5394.6,2412.6,-6.6,-6.0,-3196.8,1174.5,-0.9,1092.9,3599.4,833.1,0,960,0,179,0, 
0.5367,-100.2,1102.5,1030.5,1165.8,1842.0,-1587.3,2144.4,741.6,-2371.2,1925.4,-2266.5,-1487.4,-2523.6,3447.6,4787.7,2427.9,-7.2,-5.7,-3197.7,1183.2,-1.2,1099.8,3600.6,812.7,0,966,0,180,0, 
0.5400,-87.3,1118.7,1036.5,1172.7,1849.8,-1575.9,2153.4,745.8,-3630.9,1946.4,-1543.2,-1173.6,-2476.5,3318.0,3303.6,2428.5,-6.9,-6.0,-3182.4,1186.5,-0.6,1102.8,3606.0,819.9,0,972,0,181,0, 
0.5433,-95.4,1090.5,1046.1,1184.1,1875.9,-1556.1,2162.1,745.2,-3853.2,1969.2,-1113.0,-986.4,-2393.7,3230.1,2981.1,2422.8,-7.2,-5.7,-3156.3,1207.8,-0.9,1120.5,3612.9,859.2,0,978,0,182,0, 
0.5467,-91.8,1083.9,1050.9,1187.1,1877.7,-1550.7,2164.5,746.7,-2519.4,1962.3,-1397.1,-1109.4,-2321.7,3325.8,4301.7,2444.4,-6.9,-6.0,-3151.2,1214.4,-0.6,1119.9,3618.6,897.9,0,984,0,183,0, 
0.5500,-87.0,1095.9,1057.8,1191.9,1885.8,-1549.8,2170.2,757.2,-1482.0,1968.6,-2082.3,-1414.5,-2322.6,3458.1,5432.1,2453.1,-6.6,-6.3,-3158.1,1217.4,-0.9,1125.9,3636.6,922.5,0,990,0,184,0, 
0.5533,-84.9,1094.7,1056.6,1191.3,1874.4,-1557.9,2166.6,755.1,-2223.0,1961.4,-2064.6,-1436.7,-2398.2,3455.4,4816.8,2453.7,-6.6,-5.7,-3164.7,1219.2,-0.6,1122.0,3627.0,890.4,0,996,0,185,0, 
0.5567,-91.2,1096.8,1054.8,1186.5,1867.5,-1565.7,2159.1,749.4,-3705.0,1949.4,-1406.4,-1081.2,-2482.5,3335.4,3309.3,2453.4,-7.2,-5.7,-3158.7,1215.6,-0.9,1119.0,3619.2,868.2,0,1002,0,186,0, 
0.5600,-105.6,1099.8,1045.2,1181.1,1861.8,-1559.4,2150.4,740.1,-4075.5,1950.9,-993.9,-988.5,-2571.9,3233.4,2968.8,2442.6,-6.9,-5.7,-3173.4,1208.4,-1.2,1110.9,3597.0,862.8,0,1008,0,187,0, 
0.5633,-93.9,1106.1,1042.2,1181.1,1872.9,-1556.1,2156.4,748.5,-2667.6,1955.7,-1395.6,-1031.4,-2426.7,3304.2,4279.2,2437.8,-6.9,-6.0,-3171.9,1198.5,-0.9,1116.6,3598.2,855.0,0,1014,0,188,0, 
0.5667,-89.1,1080.9,1043.7,1189.8,1868.1,-1562.1,2150.4,753.9,-1556.1,1968.0,-1992.6,-1356.9,-2346.9,3447.0,5423.1,2442.9,-6.9,-6.0,-3170.1,1205.7,-0.6,1130.1,3597.9,824.7,0,1020,0,189,0, 
0.5700,-92.7,1083.3,1046.4,1187.7,1861.5,-1569.0,2156.1,755.4,-2297.1,1962.3,-2096.7,-1380.0,-2389.2,3437.4,4815.0,2439.3,-6.6,-6.0,-3166.5,1205.7,-0.9,1126.5,3619.8,813.3,0,1026,0,190,0, 
0.5733,-91.5,1081.5,1041.9,1181.4,1852.2,-1569.9,2156.7,747.3,-3705.0,1954.5,-1472.4,-1086.0,-2482.8,3313.8,3299.4,2443.2,-6.6,-5.7,-3175.2,1214.7,-0.9,1127.7,3609.9,824.7,0,1032,0,191,0, 
0.5767,-91.5,1078.5,1041.3,1185.3,1860.3,-1569.6,2158.2,749.7,-3927.3,1957.2,-1088.7,-847.2,-2451.9,3251.7,2995.8,2434.8,-6.6,-5.4,-3172.2,1218.3,-0.9,1130.1,3596.4,840.0,0,1038,0,192,0, 
0.5800,-94.8,1078.2,1045.8,1181.7,1857.9,-1568.4,2154.6,750.9,-2593.5,1949.4,-1450.2,-971.4,-2397.6,3326.7,4306.5,2444.1,-6.9,-5.4,-3172.8,1208.4,-0.9,1112.7,3588.9,858.3,0,1044,0,193,0, 
0.5833,-90.3,1094.1,1052.1,1184.7,1858.8,-1566.3,2161.2,756.9,-1778.4,1952.4,-2168.4,-1240.5,-2370.6,3452.7,5423.1,2448.9,-7.2,-6.0,-3179.4,1212.0,-0.6,1113.9,3585.6,841.2,0,1050,0,194,0, 
0.5867,-92.7,1104.9,1054.5,1184.7,1857.3,-1563.0,2160.6,756.3,-2223.0,1958.7,-2102.7,-1346.7,-2401.2,3444.0,4791.3,2423.7,-6.9,-5.7,-3184.5,1218.0,-0.9,1113.9,3603.9,819.0,0,1056,0,195,0, 
0.5900,-82.8,1111.8,1054.2,1193.1,1863.6,-1567.2,2166.9,755.1,-3779.1,1962.0,-1492.8,-1052.1,-2473.5,3344.1,3315.0,2431.5,-6.9,-5.7,-3184.2,1215.9,-0.6,1125.6,3610.8,827.7,0,1062,0,196,0, 
0.5933,-81.3,1120.2,1058.7,1190.4,1855.2,-1550.1,2171.7,752.4,-3853.2,1955.1,-908.4,-769.5,-2422.5,3259.5,3009.3,2436.3,-6.9,-5.7,-3178.5,1219.5,-0.9,1109.7,3630.6,896.4,0,1068,0,197,0, 
0.5967,-75.9,1128.3,1057.5,1188.9,1860.9,-1537.5,2179.8,755.1,-2519.4,1939.5,-1315.5,-935.4,-2419.2,3312.9,4299.6,2440.8,-6.9,-6.0,-3175.8,1222.5,-0.9,1109.4,3621.0,943.2,0,1074,0,198,0, 
0.6000,-71.4,1140.0,1065.6,1188.0,1864.8,-1532.1,2178.0,762.6,-1407.9,1938.9,-1938.0,-1221.0,-2358.9,3419.7,5417.1,2425.2,-6.3,-5.4,-3166.8,1224.3,-0.9,1111.5,3627.6,927.3,0,1080,0,199,0, 
0.6033,-73.2,1114.2,1060.2,1191.0,1870.2,-1548.6,2166.3,763.2,-2074.8,1972.8,-1887.3,-1286.1,-2410.8,3461.1,4817.7,2433.9,-6.9,-5.4,-3170.1,1224.0,-0.9,1147.8,3613.5,858.3,0,1086,0,200,0, 
0.6067,-83.4,1101.3,1051.2,1180.2,1857.6,-1546.5,2161.8,750.3,-3630.9,1965.0,-1143.3,-966.6,-2481.6,3338.4,3324.3,2436.6,-6.9,-5.7,-3172.8,1217.1,-0.9,1128.9,3613.2,834.3,0,1092,0,201,0, 
0.6100,-88.5,1094.7,1048.8,1174.2,1853.1,-1553.1,2161.8,744.6,-3853.2,1961.1,-817.5,-765.9,-2466.0,3270.3,3025.8,2462.1,-6.9,-5.7,-3183.3,1215.3,-0.6,1128.9,3597.0,828.3,0,1098,0,202,0, 
0.6133,-87.6,1089.6,1047.9,1176.9,1857.3,-1556.1,2160.6,749.4,-2593.5,1968.6,-1209.9,-934.5,-2393.4,3362.7,4344.0,2454.0,-6.9,-5.7,-3190.5,1215.6,-0.6,1126.5,3610.2,809.7,0,1104,0,203,0, 
0.6167,-83.7,1090.8,1046.4,1175.7,1860.6,-1559.4,2159.1,756.0,-1482.0,1967.7,-1995.3,-1355.7,-2380.2,3481.5,5469.0,2432.4,-6.9,-5.4,-3189.0,1216.2,-0.3,1132.8,3609.6,818.1,0,1110,0,204,0, 
0.6200,-80.4,1096.2,1051.5,1178.7,1861.2,-1554.3,2163.3,755.1,-2074.8,1960.8,-1995.6,-1354.5,-2440.2,3467.4,4832.4,2447.4,-6.9,-5.7,-3186.9,1220.1,-0.9,1129.2,3605.1,827.7,0,1116,0,205,0, 
0.6233,-90.0,1088.4,1040.1,1171.2,1856.4,-1557.0,2157.3,744.6,-3630.9,1948.5,-1391.7,-1135.5,-2501.7,3335.7,3312.9,2437.8,-6.9,-5.7,-3199.2,1209.9,-0.6,1114.2,3606.6,814.8,0,1122,0,206,0, 
0.6267,-83.1,1103.1,1048.5,1173.0,1865.7,-1554.6,2161.5,746.4,-3853.2,1929.6,-1024.2,-895.8,-2460.6,3268.5,3029.1,2430.9,-6.9,-5.7,-3204.3,1213.2,-1.2,1119.0,3607.2,837.9,0,1128,0,207,0, 
0.6300,-89.4,1092.9,1046.4,1177.2,1867.2,-1544.7,2172.0,752.7,-2445.3,1942.8,-1375.8,-962.4,-2369.1,3339.3,4330.5,2443.8,-6.9,-6.0,-3207.6,1217.7,-0.6,1118.4,3624.0,869.7,0,1134,0,208,0, 
0.6333,-91.5,1080.0,1043.7,1178.4,1863.6,-1542.9,2169.0,753.6,-1704.3,1958.7,-2006.7,-1237.8,-2400.0,3456.3,5422.5,2443.8,-7.2,-5.4,-3208.2,1217.1,-1.5,1117.5,3612.0,877.5,0,1140,0,209,0, 
0.6367,-76.8,1098.6,1053.0,1185.9,1872.9,-1526.7,2173.8,765.3,-2148.9,1977.6,-2067.9,-1280.1,-2391.0,3477.6,4818.3,2430.6,-6.6,-5.7,-3197.1,1231.8,-0.6,1120.2,3603.0,931.8,0,1146,0,210,0, 
0.6400,-82.2,1097.4,1048.8,1179.6,1857.9,-1543.8,2166.3,755.4,-3705.0,1967.4,-1424.7,-948.3,-2449.8,3338.1,3309.6,2426.4,-6.9,-5.7,-3196.8,1212.0,-0.6,1115.1,3592.8,911.4,0,1152,0,211,0, 
0.6433,-89.1,1098.0,1046.1,1177.5,1849.2,-1552.2,2168.1,752.7,-4001.4,1961.7,-971.1,-723.9,-2445.6,3240.9,2985.0,2429.1,-6.9,-6.0,-3215.7,1208.4,-0.6,1110.0,3609.6,848.4,0,1158,0,212,0, 
0.6467,-83.7,1105.2,1047.6,1178.1,1846.8,-1556.7,2163.6,759.0,-2815.8,1947.3,-1481.1,-943.5,-2408.1,3309.0,4284.3,2435.7,-6.9,-5.7,-3233.4,1204.8,-0.9,1112.4,3590.1,832.8,0,1164,0,213,0, 
0.6500,-82.2,1110.6,1044.3,1171.5,1845.6,-1554.0,2167.2,762.6,-1630.2,1935.9,-2106.9,-1297.2,-2390.7,3433.2,5383.8,2427.6,-6.9,-5.4,-3240.6,1197.9,-0.3,1099.8,3617.1,837.9,0,1170,0,214,0, 
0.6533,-82.8,1102.5,1046.4,1173.0,1848.0,-1558.8,2163.9,761.4,-2223.0,1944.6,-2133.9,-1337.4,-2414.7,3437.1,4777.2,2425.2,-6.6,-6.0,-3231.0,1199.4,-0.6,1107.9,3601.2,816.0,0,1176,0,215,0, 
0.6567,-86.4,1096.2,1049.1,1178.7,1855.2,-1549.5,2165.7,756.0,-3630.9,1941.6,-1440.3,-1014.0,-2482.2,3326.7,3275.1,2424.6,-6.9,-5.4,-3216.3,1219.5,-1.2,1109.7,3598.5,845.4,0,1182,0,216,0, 
0.6600,-84.9,1102.2,1057.5,1188.6,1866.3,-1549.5,2162.4,760.2,-4149.6,1959.6,-1119.3,-826.2,-2423.7,3255.3,2973.3,2412.3,-7.2,-5.7,-3196.2,1235.7,-0.6,1130.1,3607.8,851.1,0,1188,0,217,0, 
0.6633,-89.4,1085.1,1040.7,1174.5,1855.5,-1552.2,2169.6,750.0,-2815.8,1941.3,-1526.4,-965.1,-2376.6,3339.9,4284.6,2439.6,-7.2,-6.0,-3222.6,1217.1,-0.6,1112.7,3632.1,850.8,0,1194,0,218,0, 
0.6667,-85.8,1104.6,1054.8,1180.5,1857.0,-1557.3,2158.8,761.1,-1704.3,1964.4,-2164.5,-1191.9,-2385.0,3439.5,5379.9,2415.9,-7.2,-6.0,-3218.1,1214.7,-0.6,1109.7,3573.6,835.5,0,1200,0,219,0, 
0.6700,-85.2,1121.4,1065.3,1195.2,1869.6,-1542.6,2166.6,769.8,-2148.9,1970.1,-2115.0,-1189.2,-2376.9,3418.8,4759.5,2432.4,-6.9,-6.0,-3203.7,1222.2,-0.9,1122.3,3578.4,841.5,0,1206,0,220,0, 
0.6733,-76.5,1115.4,1062.9,1185.9,1862.4,-1542.0,2168.7,762.9,-3705.0,1956.6,-1467.9,-1013.4,-2451.6,3317.1,3261.0,2420.4,-6.6,-6.0,-3215.1,1214.4,-0.3,1117.8,3594.0,860.7,0,1212,0,221,0, 
0.6767,-94.5,1103.4,1052.4,1184.4,1864.2,-1525.2,2170.2,758.1,-4075.5,1955.1,-1068.6,-770.4,-2536.2,3231.9,2949.0,2424.9,-6.6,-5.4,-3224.7,1217.4,-0.9,1113.9,3597.6,901.2,0,1218,0,222,0, 
0.6800,-90.9,1111.2,1060.5,1189.8,1874.7,-1521.0,2180.7,768.0,-2519.4,1959.0,-1484.4,-995.7,-2420.7,3329.7,4279.2,2442.3,-6.9,-5.7,-3219.0,1230.6,-0.3,1107.6,3600.6,903.3,0,1224,0,223,0, 
0.6833,-85.5,1119.0,1062.3,1185.0,1869.0,-1542.6,2172.9,768.9,-1482.0,1961.7,-2250.9,-1326.3,-2395.2,3452.4,5418.3,2445.0,-6.6,-6.0,-3210.0,1222.2,-0.6,1129.2,3613.2,860.1,0,1230,0,224,0, 
0.6867,-82.8,1113.6,1061.1,1182.9,1868.7,-1533.6,2178.3,773.1,-2148.9,1968.9,-2304.9,-1421.7,-2475.3,3450.9,4791.0,2432.1,-7.2,-5.7,-3196.8,1219.5,-0.3,1130.7,3616.2,863.4,0,1236,0,225,0, 
0.6900,-85.5,1104.6,1052.1,1179.0,1859.4,-1548.3,2170.2,763.2,-3556.8,1952.4,-1752.3,-1111.8,-2451.3,3342.0,3312.0,2430.0,-6.6,-6.3,-3204.3,1205.7,-0.6,1127.1,3609.0,837.3,0,1242,0,226,0, 
0.6933,-84.3,1109.1,1051.2,1179.3,1863.0,-1542.3,2180.1,765.3,-3927.3,1969.5,-1104.3,-882.3,-2436.3,3273.9,3032.4,2437.8,-6.9,-5.7,-3222.0,1207.5,-0.9,1121.7,3613.2,831.0,0,1248,0,227,0, 
0.6967,-87.0,1112.4,1044.6,1172.4,1858.2,-1535.4,2180.4,766.2,-2519.4,1937.1,-1646.4,-1109.4,-2412.6,3337.2,4323.3,2429.7,-6.9,-6.0,-3229.2,1209.3,-0.9,1118.4,3623.1,855.3,0,1254,0,228,0, 
0.7000,-80.7,1108.2,1052.4,1180.2,1866.9,-1533.3,2182.2,776.1,-1407.9,1952.1,-2249.1,-1469.4,-2340.9,3464.7,5453.4,2434.5,-6.9,-6.0,-3210.6,1211.1,-1.2,1117.5,3593.4,867.3,0,1260,0,229,0, 
0.7033,-72.6,1104.9,1054.5,1179.3,1866.0,-1548.9,2181.6,776.4,-2074.8,1965.9,-2335.2,-1415.4,-2384.1,3476.1,4845.9,2447.4,-6.6,-6.0,-3203.4,1214.7,-0.9,1120.8,3613.8,814.8,0,1266,0,230,0, 
0.7067,-78.3,1117.5,1049.7,1177.2,1863.3,-1544.1,2180.1,764.4,-3779.1,1950.3,-1592.4,-1124.7,-2470.5,3332.7,3338.4,2442.3,-7.2,-6.0,-3201.0,1202.7,-0.3,1110.9,3605.7,825.0,0,1272,0,231,0, 
0.7100,-82.5,1105.2,1039.5,1167.9,1863.3,-1541.1,2172.9,756.0,-3853.2,1941.6,-1212.9,-864.9,-2427.3,3247.8,3024.6,2427.0,-6.9,-5.7,-3221.4,1193.1,-0.9,1108.5,3605.1,849.6,0,1278,0,232,0, 
0.7133,-101.1,1079.7,1036.2,1163.4,1861.2,-1554.0,2166.0,754.2,-2519.4,1945.5,-1593.6,-1058.7,-2374.2,3315.0,4326.6,2444.4,-6.9,-5.7,-3220.5,1194.3,-0.3,1113.3,3595.2,837.9,0,1284,0,233,0, 
0.7167,-99.9,1078.8,1037.4,1167.6,1861.2,-1560.9,2164.5,757.2,-1482.0,1949.7,-2271.9,-1375.8,-2382.0,3454.8,5440.8,2429.7,-6.9,-6.3,-3230.7,1193.7,-0.9,1106.1,3600.0,810.3,0,1290,0,234,0, 
0.7200,-98.4,1082.1,1038.3,1177.5,1869.9,-1545.9,2174.7,763.2,-2148.9,1949.4,-2352.9,-1444.8,-2405.1,3455.7,4817.7,2441.7,-6.9,-5.7,-3231.0,1201.2,-0.9,1124.4,3606.0,833.1,0,1296,0,235,0, 
0.7233,-91.2,1095.0,1042.5,1176.6,1871.4,-1538.7,2178.6,759.9,-3556.8,1957.2,-1766.7,-1169.1,-2491.8,3334.2,3319.5,2458.8,-6.6,-6.0,-3228.9,1193.4,-0.6,1111.8,3612.3,858.9,0,1302,0,236,0, 
0.7267,-96.9,1098.3,1045.8,1174.8,1874.4,-1548.3,2172.9,759.0,-3853.2,1958.1,-1282.8,-968.7,-2489.1,3249.0,3015.3,2437.5,-6.6,-6.0,-3220.5,1192.2,-0.9,1109.4,3585.3,836.1,0,1308,0,237,0, 
0.7300,-86.7,1116.3,1053.0,1181.4,1869.3,-1545.0,2170.5,769.5,-2593.5,1957.8,-1621.5,-1119.3,-2457.0,3330.9,4309.5,2415.9,-7.2,-6.0,-3222.9,1200.0,-0.9,1111.5,3595.5,841.5,0,1314,0,238,0, 
0.7333,-91.8,1106.4,1040.1,1173.0,1861.2,-1544.7,2168.7,768.6,-1556.1,1943.1,-2339.7,-1458.3,-2404.2,3417.0,5408.1,2423.4,-7.2,-6.0,-3231.0,1196.4,-0.6,1093.5,3597.6,861.9,0,1320,0,239,0, 
0.7367,-95.4,1099.8,1033.8,1169.7,1861.5,-1543.2,2175.0,769.2,-2297.1,1937.7,-2313.9,-1529.1,-2453.4,3447.3,4780.2,2438.1,-7.2,-6.0,-3234.9,1199.4,-0.9,1104.9,3614.1,874.8,0,1326,0,240,0, 
0.7400,-90.6,1095.6,1040.1,1177.5,1864.8,-1536.6,2181.6,768.3,-3705.0,1947.9,-1580.1,-1267.8,-2427.0,3334.8,3302.1,2433.3,-6.6,-5.7,-3216.6,1203.0,-0.9,1114.2,3608.7,870.9,0,1332,0,241,0, 
0.7433,-91.2,1091.7,1035.3,1172.7,1872.6,-1540.5,2181.0,764.1,-3927.3,1957.8,-1134.9,-977.7,-2429.4,3248.7,2988.9,2421.6,-7.2,-6.0,-3221.4,1203.9,-0.9,1109.4,3604.8,855.0,0,1338,0,242,0, 
0.7467,-86.7,1092.0,1032.3,1175.4,1875.9,-1527.9,2183.1,769.8,-2519.4,1934.1,-1454.1,-1082.7,-2395.2,3325.8,4308.0,2427.0,-6.6,-5.7,-3236.4,1200.0,-0.9,1097.1,3596.7,857.7,0,1344,0,243,0, 
0.7500,-81.3,1098.3,1036.8,1177.2,1868.1,-1540.8,2178.0,768.9,-1482.0,1937.1,-2113.8,-1409.7,-2348.4,3414.6,5395.8,2425.2,-6.6,-5.7,-3234.6,1194.9,-0.6,1099.5,3582.6,855.0,0,1350,0,244,0, 
0.7533,-93.0,1090.2,1021.8,1173.0,1867.2,-1538.4,2180.4,764.7,-2148.9,1927.2,-2140.5,-1419.6,-2392.8,3414.6,4759.8,2430.3,-6.9,-5.4,-3245.4,1204.8,-0.9,1106.1,3605.1,858.0,0,1356,0,245,0, 
0.7567,-96.0,1074.0,1014.3,1167.9,1860.9,-1554.0,2177.4,754.5,-3705.0,1923.9,-1547.1,-1144.8,-2467.8,3333.6,3274.2,2449.8,-7.2,-5.7,-3255.3,1202.1,-0.6,1098.9,3618.6,845.7,0,1362,0,246,0, 
0.7600,-87.9,1094.4,1032.0,1175.4,1865.4,-1552.5,2173.2,758.4,-3927.3,1921.5,-1101.6,-883.2,-2485.5,3252.0,2998.2,2423.7,-6.9,-5.7,-3243.3,1204.5,-0.9,1099.2,3598.8,856.8,0,1368,0,247,0, 
0.7633,-90.9,1090.5,1030.8,1181.7,1869.0,-1554.3,2168.1,764.1,-2593.5,1940.1,-1427.1,-984.0,-2418.9,3313.2,4301.4,2406.6,-6.6,-6.0,-3236.7,1199.1,-0.3,1097.7,3579.9,826.2,0,1374,0,248,0, 
0.7667,-90.6,1101.6,1035.3,1184.1,1873.5,-1551.6,2172.6,771.3,-1407.9,1934.7,-1960.8,-1275.9,-2371.5,3428.7,5419.2,2415.9,-7.2,-6.0,-3235.8,1202.1,-0.9,1095.3,3594.9,802.8,0,1380,0,249,0, 
0.7700,-92.7,1100.7,1034.7,1182.6,1873.5,-1560.0,2166.6,770.1,-2148.9,1936.8,-2025.6,-1413.9,-2446.2,3420.6,4768.5,2415.9,-7.5,-5.7,-3228.9,1196.7,-1.2,1104.6,3580.8,788.1,0,1386,0,250,0, 
0.7733,-90.0,1104.0,1025.7,1173.6,1871.7,-1554.0,2170.5,763.8,-3556.8,1909.5,-1341.0,-1027.5,-2499.6,3326.4,3279.9,2427.6,-7.2,-6.0,-3231.6,1193.4,-0.6,1090.2,3600.6,803.4,0,1392,0,251,0, 
0.7767,-99.3,1088.4,1021.5,1176.0,1876.5,-1533.9,2176.8,763.2,-3927.3,1936.8,-920.1,-812.1,-2490.3,3247.8,3003.3,2433.3,-6.6,-5.4,-3238.5,1198.8,-0.6,1105.2,3618.0,839.1,0,1398,0,252,0, 
0.7800,-91.8,1098.6,1037.7,1181.1,1876.2,-1535.1,2178.0,765.9,-2593.5,1949.7,-1198.8,-1011.0,-2425.8,3325.2,4313.7,2426.4,-6.9,-6.0,-3244.2,1197.0,-0.6,1107.9,3612.3,850.5,0,1404,0,253,0, 
0.7833,-84.0,1117.5,1049.1,1192.2,1880.7,-1534.8,2189.4,774.6,-1556.1,1965.3,-2016.3,-1336.2,-2399.4,3439.8,5418.9,2424.3,-6.6,-5.7,-3224.7,1201.8,-0.9,1105.8,3628.2,852.6,0,1410,0,254,0, 
0.7867,-80.1,1118.4,1050.9,1186.8,1878.0,-1538.1,2180.1,770.7,-2148.9,1946.4,-2010.0,-1392.6,-2440.5,3446.4,4755.0,2424.9,-7.2,-5.7,-3221.4,1205.7,-0.6,1118.7,3609.6,850.8,0,1416,0,255,0, 
0.7900,-88.8,1103.1,1044.0,1182.0,1877.4,-1532.7,2182.5,759.9,-3705.0,1943.4,-1485.0,-1164.6,-2467.8,3291.6,3235.8,2424.6,-6.6,-5.1,-3231.9,1202.7,-0.6,1113.9,3624.6,874.5,0,1422,0,0,0, 
0.7933,-92.4,1092.0,1036.5,1174.2,1872.6,-1531.5,2182.8,753.3,-3853.2,1935.3,-1116.3,-904.2,-2456.4,3227.4,2982.6,2434.8,-6.9,-6.0,-3237.9,1196.1,-0.9,1098.9,3627.0,888.3,0,1428,0,1,0, 
0.7967,-89.4,1089.0,1039.5,1178.1,1877.7,-1521.6,2183.1,760.5,-2519.4,1942.2,-1336.8,-985.8,-2512.2,3309.6,4347.9,2431.2,-7.2,-5.4,-3239.1,1206.3,-0.9,1099.8,3612.3,919.5,0,1434,0,2,0, 
0.8000,-93.0,1097.4,1035.9,1174.8,1866.9,-1538.7,2171.7,758.7,-1407.9,1930.8,-1916.4,-1233.6,-2470.5,3440.1,5454.3,2413.8,-6.9,-6.0,-3244.2,1200.3,-0.6,1091.7,3611.1,900.3,0,1440,0,3,0, 
0.8033,-95.7,1094.7,1042.8,1179.3,1868.7,-1544.1,2175.3,761.1,-2371.2,1956.9,-2182.2,-1344.6,-2399.7,3412.5,4656.9,2436.0,-6.6,-6.0,-3234.3,1208.7,-0.9,1101.3,3614.7,857.1,0,1446,0,4,0, 
0.8067,-92.7,1085.7,1038.6,1181.7,1864.8,-1538.7,2182.5,757.5,-3927.3,1938.3,-2135.7,-1244.4,-2436.6,3310.8,3012.6,2439.3,-7.2,-5.7,-3229.5,1206.3,-0.9,1109.4,3638.1,838.5,0,1452,0,5,0, 
0.8100,-97.2,1083.6,1041.9,1184.4,1867.8,-1543.2,2179.5,755.1,-4001.4,1952.7,-1861.8,-1085.1,-2454.6,3239.7,2903.4,2441.1,-7.2,-6.3,-3231.6,1209.9,-0.6,1111.5,3630.3,846.0,0,1458,0,6,0, 
0.8133,-88.8,1089.3,1048.2,1183.2,1870.2,-1531.8,2190.0,763.8,-2223.0,1942.5,-1689.9,-1049.1,-2364.6,3340.5,4510.2,2455.2,-6.9,-5.7,-3236.1,1210.2,-0.6,1117.5,3649.2,838.8,0,1464,0,7,0, 
0.8167,-81.6,1089.0,1048.8,1188.9,1871.1,-1541.1,2182.5,768.6,-1259.7,1935.0,-1903.8,-1250.1,-2358.0,3476.7,5596.2,2446.5,-6.6,-5.4,-3237.0,1210.2,-0.9,1125.3,3635.1,819.9,0,1470,0,8,0, 
0.8200,-80.7,1085.1,1036.5,1189.2,1869.9,-1537.8,2182.8,764.7,-2371.2,1937.7,-2138.4,-1330.8,-2371.8,3453.6,4677.3,2439.0,-7.2,-5.7,-3241.5,1215.3,-0.6,1131.6,3636.0,818.1,0,1476,0,9,0, 
0.8233,-93.0,1086.3,1034.1,1185.0,1869.3,-1539.6,2189.1,754.2,-3927.3,1938.9,-1990.2,-1133.4,-2517.6,3300.6,2985.0,2457.3,-6.9,-6.0,-3241.5,1219.8,-0.3,1114.2,3636.0,842.7,0,1482,0,10,0, 
0.8267,-95.4,1088.1,1024.8,1177.2,1855.2,-1538.1,2181.6,745.2,-4075.5,1930.8,-1742.1,-972.3,-2506.5,3244.8,2878.8,2454.9,-7.2,-6.0,-3246.0,1206.3,-0.9,1109.4,3660.6,851.4,0,1488,0,11,0, 
0.8300,-87.9,1095.0,1032.6,1183.2,1866.0,-1545.6,2178.3,756.9,-2371.2,1943.1,-1523.1,-943.2,-2383.5,3352.5,4502.7,2434.8,-6.6,-6.3,-3237.6,1213.8,-1.2,1116.3,3618.9,834.9,0,1494,0,12,0, 
0.8333,-100.2,1092.9,1024.5,1181.1,1862.1,-1536.9,2181.3,757.2,-1333.8,1947.0,-1811.7,-1239.3,-2391.9,3435.6,5572.2,2435.4,-6.9,-5.7,-3242.1,1215.6,-0.9,1118.7,3636.9,861.0,0,1500,0,13,0, 
0.8367,-90.3,1102.8,1029.9,1181.7,1864.5,-1544.4,2187.6,756.9,-2223.0,1951.8,-1956.3,-1282.8,-2453.1,3410.1,4617.0,2410.8,-7.2,-5.7,-3240.3,1219.8,-0.6,1108.5,3642.3,866.4,0,1506,0,14,0, 
0.8400,-89.4,1097.7,1026.0,1183.5,1869.6,-1538.1,2178.0,753.9,-4001.4,1943.4,-1852.8,-1149.9,-2506.5,3294.3,2947.8,2408.7,-6.9,-6.0,-3243.3,1218.3,-1.2,1124.7,3611.1,875.4,0,1512,0,15,0, 
0.8433,-95.1,1079.7,1020.6,1182.3,1863.0,-1537.8,2179.2,746.1,-4001.4,1957.8,-1553.4,-850.2,-2473.5,3220.5,2846.4,2418.6,-7.2,-5.7,-3240.3,1209.6,-0.3,1129.2,3617.4,879.3,0,1518,0,16,0, 
0.8467,-84.3,1085.7,1026.6,1186.5,1870.8,-1524.9,2183.1,755.1,-2371.2,1944.9,-1403.4,-894.6,-2350.5,3303.3,4459.8,2417.7,-7.2,-6.0,-3235.8,1219.5,-0.6,1120.8,3618.9,927.0,0,1524,0,17,0, 
0.8500,-93.0,1076.4,1024.8,1182.3,1867.5,-1533.6,2171.7,755.7,-1333.8,1940.4,-1656.6,-1113.0,-2432.7,3422.4,5533.8,2428.8,-6.9,-6.0,-3241.5,1209.6,-0.9,1102.5,3618.3,917.4,0,1530,0,18,0, 
0.8533,-97.8,1081.5,1020.9,1174.5,1860.9,-1542.6,2170.2,749.4,-2371.2,1930.2,-1865.1,-1221.6,-2515.5,3410.4,4582.8,2442.0,-6.9,-5.4,-3248.7,1206.9,-0.6,1106.4,3627.3,861.0,0,1536,0,19,0, 
0.8567,-101.1,1085.7,1031.7,1186.5,1872.6,-1536.9,2175.9,744.6,-3853.2,1946.4,-1899.9,-1137.0,-2519.1,3279.3,2901.0,2436.6,-6.6,-6.0,-3239.4,1221.9,-0.9,1124.4,3625.5,867.3,0,1542,0,20,0, 
0.8600,-96.9,1072.2,1032.0,1181.4,1874.7,-1530.6,2185.2,745.5,-4075.5,1942.8,-1502.4,-995.4,-2483.1,3237.0,2798.1,2429.4,-6.9,-5.4,-3233.7,1210.5,-1.2,1114.5,3633.3,879.3,0,1548,0,21,0, 
0.8633,-90.0,1080.3,1032.6,1181.1,1864.5,-1549.2,2176.8,744.0,-2445.3,1960.8,-1342.2,-939.9,-2450.1,3324.6,4418.4,2433.3,-7.2,-6.3,-3246.6,1203.6,-0.3,1110.0,3635.4,815.1,0,1554,0,22,0, 
0.8667,-95.1,1066.8,1029.3,1175.1,1862.1,-1550.1,2179.8,748.2,-1482.0,1946.1,-1569.6,-1200.0,-2340.6,3456.6,5511.6,2430.9,-6.6,-5.7,-3249.6,1203.0,-0.9,1114.2,3661.2,825.6,0,1560,0,23,0, 
0.8700,-97.2,1065.9,1023.6,1176.9,1869.0,-1544.7,2185.2,744.6,-2297.1,1947.9,-1806.9,-1342.8,-2403.6,3437.7,4567.8,2438.1,-6.9,-5.7,-3274.8,1207.2,-1.2,1128.9,3670.8,848.7,0,1566,0,24,0, 
0.8733,-90.6,1086.3,1037.7,1184.4,1873.8,-1539.9,2183.4,747.9,-3927.3,1945.8,-1692.0,-1217.1,-2447.7,3289.8,2887.5,2449.5,-6.9,-5.7,-3266.1,1213.8,-0.6,1120.5,3626.4,875.1,0,1572,0,25,0, 
0.8767,-87.0,1090.2,1041.0,1185.3,1877.7,-1539.3,2187.6,750.6,-4001.4,1962.9,-1510.5,-1042.2,-2418.3,3223.8,2785.8,2427.3,-6.9,-5.7,-3255.3,1221.6,-0.9,1111.5,3638.7,878.7,0,1578,0,26,0, 
0.8800,-96.0,1082.4,1037.4,1183.5,1870.2,-1540.5,2193.3,751.8,-2593.5,1950.6,-1388.1,-1046.4,-2385.6,3321.9,4384.8,2435.7,-6.9,-5.7,-3263.7,1218.6,-0.9,1125.0,3655.8,861.3,0,1584,0,27,0, 
0.8833,-93.3,1088.4,1028.7,1170.3,1851.3,-1546.8,2190.0,747.3,-1556.1,1940.7,-1542.0,-1193.4,-2444.1,3442.2,5484.3,2443.2,-6.9,-6.0,-3279.6,1200.9,-1.2,1104.3,3654.0,844.5,0,1590,0,28,0, 
0.8867,-83.7,1113.3,1041.0,1185.6,1858.5,-1545.9,2181.9,754.5,-2519.4,1950.0,-1845.3,-1421.4,-2525.4,3421.8,4540.2,2425.5,-6.9,-6.0,-3274.8,1207.2,-0.9,1116.9,3617.4,838.2,0,1596,0,29,0, 
0.8900,-94.2,1101.9,1038.6,1184.1,1865.1,-1538.7,2184.9,747.9,-4001.4,1945.2,-1872.0,-1228.2,-2535.3,3292.5,2873.7,2427.3,-6.6,-5.4,-3272.1,1206.0,-0.6,1105.8,3622.2,869.4,0,1602,0,30,0, 
0.8933,-92.4,1099.2,1041.9,1187.1,1872.9,-1533.6,2183.7,749.7,-4075.5,1956.0,-1467.0,-1089.9,-2508.6,3243.6,2786.4,2431.8,-7.5,-5.7,-3266.7,1214.7,-0.9,1118.1,3610.5,883.5,0,1608,0,31,0, 
0.8967,-91.5,1075.8,1030.2,1178.1,1864.2,-1535.7,2184.0,748.5,-2519.4,1943.7,-1379.4,-1065.9,-2414.1,3358.8,4428.9,2450.1,-6.9,-5.7,-3274.8,1212.9,-0.3,1125.6,3633.9,853.5,0,1614,0,32,0, 
0.9000,-92.1,1071.6,1034.1,1183.5,1860.3,-1529.7,2188.8,752.4,-1333.8,1949.1,-1658.4,-1238.4,-2347.8,3479.4,5541.0,2445.0,-6.9,-6.0,-3264.9,1219.5,-0.3,1133.1,3643.2,872.4,0,1620,0,33,0, 
0.9033,-94.5,1078.8,1033.2,1180.8,1859.1,-1539.6,2183.7,745.2,-2445.3,1943.7,-1846.2,-1343.1,-2415.3,3457.8,4589.7,2452.5,-6.6,-5.7,-3266.7,1209.6,-0.3,1109.1,3641.7,870.9,0,1626,0,34,0, 
0.9067,-89.7,1098.3,1043.7,1191.6,1868.7,-1530.3,2182.2,748.2,-4149.6,1957.5,-1743.3,-1199.7,-2490.3,3275.7,2895.3,2435.4,-6.9,-5.7,-3254.4,1226.1,-0.9,1122.0,3639.9,869.4,0,1632,0,35,0, 
0.9100,-87.3,1084.2,1040.7,1193.4,1868.7,-1525.5,2186.1,751.5,-4149.6,1951.8,-1491.9,-931.8,-2451.6,3211.5,2792.4,2434.5,-6.6,-5.7,-3252.9,1229.1,-0.3,1117.5,3639.6,856.2,0,1638,0,36,0, 
0.9133,-94.2,1075.8,1033.8,1186.5,1866.0,-1527.6,2180.1,753.3,-2371.2,1938.9,-1436.4,-948.0,-2431.8,3322.5,4416.3,2437.8,-6.9,-5.7,-3258.6,1209.6,-0.9,1116.9,3631.5,872.4,0,1644,0,37,0, 
0.9167,-86.4,1091.4,1043.4,1189.5,1863.0,-1524.6,2182.5,759.0,-1556.1,1950.3,-1716.9,-1163.7,-2464.8,3439.5,5515.2,2428.8,-6.9,-5.1,-3256.2,1202.4,-0.9,1096.2,3651.0,891.6,0,1650,0,38,0, 
0.9200,-83.4,1102.2,1046.1,1193.7,1864.5,-1521.3,2189.7,760.5,-2297.1,1946.1,-2014.8,-1220.7,-2401.5,3426.9,4599.3,2442.3,-7.2,-6.0,-3264.0,1207.2,-0.6,1118.1,3649.2,873.6,0,1656,0,39,0, 
0.9233,-88.8,1081.8,1032.6,1182.0,1855.2,-1524.0,2187.3,747.3,-4001.4,1932.6,-1800.6,-1059.0,-2480.7,3288.9,2922.3,2452.8,-7.2,-5.7,-3285.0,1203.9,-0.9,1103.7,3643.2,857.1,0,1662,0,40,0, 
0.9267,-93.3,1069.8,1025.7,1181.7,1855.8,-1528.2,2180.4,742.2,-4075.5,1937.1,-1542.6,-924.3,-2468.4,3221.1,2833.8,2439.0,-7.2,-6.3,-3288.6,1205.4,-0.6,1110.0,3634.8,860.1,0,1668,0,41,0, 
0.9300,-95.4,1046.4,1020.9,1174.8,1852.2,-1536.3,2183.1,740.1,-2223.0,1934.1,-1211.4,-943.8,-2377.2,3328.5,4461.9,2435.1,-7.2,-5.1,-3296.1,1202.1,-0.9,1105.2,3651.9,890.1,0,1674,0,42,0, 
0.9333,-83.4,1059.9,1036.5,1185.9,1863.0,-1530.9,2183.1,750.0,-1333.8,1954.8,-1437.3,-1073.4,-2360.7,3479.1,5582.1,2439.9,-6.6,-5.7,-3273.0,1218.3,-0.9,1121.1,3642.0,887.1,0,1680,0,43,0, 
0.9367,-82.5,1070.4,1046.4,1190.7,1863.0,-1532.1,2180.7,750.0,-2371.2,1969.8,-1692.9,-1179.6,-2438.7,3459.9,4638.3,2446.5,-6.9,-5.4,-3262.2,1220.4,-0.6,1124.7,3639.3,854.4,0,1686,0,44,0, 
0.9400,-84.0,1083.0,1048.5,1191.0,1864.5,-1530.3,2187.9,752.4,-3927.3,1972.5,-1565.1,-1001.4,-2500.2,3321.9,2949.9,2451.6,-7.2,-6.0,-3265.5,1216.8,-1.2,1132.5,3654.6,847.2,0,1692,0,45,0, 
0.9433,-77.1,1099.2,1053.9,1188.0,1869.0,-1528.8,2188.8,750.0,-3927.3,1965.0,-1353.3,-764.4,-2455.8,3255.9,2880.0,2439.6,-6.6,-5.7,-3273.9,1211.1,-0.9,1116.0,3649.5,873.0,0,1698,0,46,0, 
0.9467,-70.8,1122.0,1059.0,1186.8,1863.6,-1528.8,2180.1,753.6,-2445.3,1959.0,-1238.7,-805.5,-2406.9,3315.0,4488.6,2420.1,-6.9,-6.0,-3270.9,1203.9,-0.6,1103.4,3621.0,881.7,0,1704,0,47,0, 
0.9500,-79.8,1119.9,1065.6,1196.4,1882.8,-1518.9,2184.3,765.0,-1333.8,1957.8,-1232.4,-957.9,-2358.9,3438.9,5592.6,2428.8,-6.9,-6.0,-3267.9,1219.2,-0.9,1114.2,3625.2,884.4,0,1710,0,48,0, 
0.9533,-88.2,1104.0,1057.8,1191.0,1877.7,-1518.0,2190.0,761.1,-2223.0,1958.4,-1505.1,-1030.2,-2408.4,3427.2,4653.0,2442.9,-7.2,-6.3,-3277.8,1221.9,-0.6,1122.0,3630.0,881.7,0,1716,0,49,0, 
0.9567,-97.5,1078.2,1036.8,1184.4,1873.8,-1516.2,2193.9,750.6,-3853.2,1938.3,-1427.1,-976.5,-2534.4,3298.8,2956.5,2432.7,-6.9,-6.0,-3304.5,1234.5,-0.9,1117.8,3657.9,902.7,0,1722,0,50,0, 
0.9600,-86.1,1082.4,1046.7,1189.2,1869.0,-1534.2,2179.8,753.0,-4075.5,1944.3,-1043.4,-719.4,-2479.5,3236.1,2890.5,2418.6,-6.6,-6.0,-3290.7,1224.6,-0.6,1122.3,3632.4,859.2,0,1728,0,51,0, 
0.9633,-86.1,1085.1,1052.1,1193.4,1876.2,-1522.2,2188.2,759.0,-2371.2,1953.3,-821.4,-597.3,-2373.9,3339.3,4525.8,2437.2,-6.9,-5.7,-3286.2,1224.3,-0.9,1119.6,3640.2,893.7,0,1734,0,52,0, 
0.9667,-76.5,1078.8,1059.9,1197.9,1878.0,-1521.0,2192.1,767.7,-1333.8,1966.5,-1111.2,-808.8,-2303.1,3486.0,5625.9,2427.9,-6.6,-5.7,-3261.9,1227.6,-0.9,1116.6,3630.0,888.6,0,1740,0,53,0, 
0.9700,-75.3,1077.9,1063.2,1203.9,1879.8,-1517.4,2201.4,767.7,-2297.1,1974.6,-1433.1,-931.2,-2382.3,3478.2,4696.2,2449.8,-6.9,-6.0,-3267.6,1232.7,-0.6,1140.6,3650.7,879.0,0,1746,0,54,0, 
0.9733,-66.9,1107.6,1066.2,1201.8,1874.4,-1518.6,2202.9,761.7,-4001.4,1980.3,-1391.7,-789.9,-2576.4,3336.0,2995.5,2453.1,-6.9,-5.7,-3267.6,1234.8,-0.3,1128.6,3657.6,860.4,0,1752,0,55,0, 
0.9767,-76.2,1095.9,1055.7,1191.6,1877.1,-1515.6,2196.3,753.9,-4075.5,1968.6,-1104.9,-506.4,-2457.6,3248.4,2905.5,2433.3,-6.6,-6.3,-3279.0,1236.3,-1.2,1120.8,3641.1,885.3,0,1758,0,56,0, 
0.9800,-72.0,1081.8,1056.0,1185.9,1872.0,-1527.6,2184.3,757.8,-2297.1,1959.0,-994.8,-471.6,-2335.8,3365.4,4542.0,2441.1,-6.6,-6.0,-3283.8,1235.7,-0.6,1138.2,3645.6,885.9,0,1764,0,57,0, 
0.9833,-75.3,1083.9,1058.7,1184.7,1865.7,-1525.5,2186.7,755.4,-1259.7,1955.1,-1224.0,-753.0,-2354.7,3478.8,5617.8,2454.0,-6.6,-5.4,-3278.4,1230.3,-1.2,1127.7,3655.8,864.6,0,1770,0,58,0, 
0.9867,-70.2,1090.2,1057.2,1183.8,1865.1,-1511.4,2189.7,753.6,-2297.1,1969.8,-1563.6,-878.7,-2398.8,3457.5,4663.8,2433.9,-7.2,-5.7,-3269.7,1226.1,-0.6,1133.7,3649.8,881.1,0,1776,0,59,0, 
0.9900,-75.0,1088.1,1058.7,1182.0,1855.8,-1530.9,2188.5,747.9,-4075.5,1970.4,-1572.3,-681.6,-2498.4,3299.7,2959.2,2437.5,-6.9,-6.0,-3265.2,1217.7,-0.6,1129.2,3646.8,861.9,0,1782,0,60,0, 
0.9933,-70.2,1093.5,1059.3,1178.7,1852.8,-1521.0,2187.0,749.7,-4075.5,1965.3,-1471.5,-604.2,-2468.7,3255.3,2894.4,2436.9,-6.9,-5.7,-3263.1,1206.9,-1.2,1124.4,3644.4,842.4,0,1788,0,61,0, 
0.9967,-56.4,1092.0,1070.7,1193.1,1870.8,-1510.2,2200.8,766.5,-2297.1,1971.0,-1300.8,-538.8,-2344.2,3384.0,4544.7,2458.2,-6.6,-5.7,-3245.4,1229.1,-0.6,1136.1,3649.5,870.6,0,1794,0,62,0, 
1.0000,-59.7,1088.1,1070.4,1189.2,1864.5,-1517.7,2195.4,765.9,-1333.8,1982.7,-1417.8,-827.7,-2290.2,3511.8,5637.3,2454.9,-6.9,-5.4,-3246.0,1221.0,-0.6,1134.6,3644.7,863.1,0,1800,0,63,0, 
1.0033,-73.2,1104.0,1076.4,1196.1,1869.0,-1509.6,2195.4,764.4,-2371.2,1986.6,-1790.1,-951.9,-2440.8,3465.6,4644.6,2447.1,-6.9,-5.7,-3242.7,1221.0,-0.9,1135.2,3649.2,879.0,0,1806,0,64,0, 
1.0067,-63.9,1114.2,1062.3,1186.8,1865.1,-1505.7,2200.5,758.4,-4075.5,1949.4,-1780.8,-748.8,-2486.7,3302.1,2955.6,2447.1,-6.9,-5.7,-3275.7,1221.3,-1.2,1115.4,3676.2,887.1,0,1812,0,65,0, 
1.0100,-58.5,1103.7,1064.7,1188.9,1858.8,-1510.5,2199.3,759.0,-3927.3,1943.4,-1448.1,-516.9,-2413.8,3222.6,2862.9,2458.2,-7.2,-6.0,-3282.0,1221.0,-0.9,1114.5,3642.3,876.3,0,1818,0,66,0, 
1.0133,-61.8,1096.5,1067.7,1186.5,1864.2,-1518.9,2200.5,761.4,-2371.2,1961.4,-1296.0,-576.6,-2318.4,3333.6,4492.5,2467.2,-7.2,-6.0,-3264.3,1221.6,-0.6,1115.4,3627.9,876.0,0,1824,0,67,0, 
1.0167,-57.6,1088.1,1068.6,1198.5,1878.9,-1499.4,2203.2,775.5,-1407.9,1977.3,-1575.6,-792.0,-2338.5,3456.3,5577.9,2437.2,-6.6,-5.7,-3261.0,1236.6,-0.6,1142.4,3637.5,908.1,0,1830,0,68,0, 
1.0200,-71.1,1085.4,1064.4,1188.9,1871.4,-1502.7,2198.7,769.8,-2297.1,1962.3,-1769.7,-958.5,-2425.8,3462.6,4621.5,2436.0,-6.9,-5.7,-3269.4,1228.5,-0.6,1128.6,3617.1,912.0,0,1836,0,69,0, 
1.0233,-66.3,1111.8,1068.3,1190.4,1855.5,-1515.3,2199.3,762.0,-3927.3,1954.2,-1707.6,-738.0,-2592.6,3307.8,2922.0,2441.1,-6.9,-5.7,-3274.5,1221.0,-0.9,1127.4,3642.3,877.5,0,1842,0,70,0, 
1.0267,-74.4,1106.4,1062.0,1185.3,1854.3,-1517.7,2190.6,753.9,-4001.4,1940.7,-1409.4,-583.5,-2538.0,3228.6,2841.0,2442.9,-6.9,-5.7,-3289.5,1214.7,-0.6,1119.6,3627.6,894.0,0,1848,0,71,0, 
1.0300,-76.5,1061.1,1045.5,1177.2,1855.2,-1513.8,2193.0,757.5,-2297.1,1941.0,-1196.7,-480.6,-2343.0,3350.4,4489.8,2435.4,-6.9,-6.0,-3299.1,1209.6,-0.9,1104.3,3631.5,903.3,0,1854,0,72,0, 
1.0333,-84.0,1056.3,1038.0,1169.7,1853.1,-1536.0,2185.5,749.7,-1407.9,1947.6,-1427.1,-787.8,-2321.1,3480.3,5592.0,2438.4,-6.6,-5.7,-3303.9,1199.4,0.0,1108.8,3624.6,855.3,0,1860,0,73,0, 
1.0367,-71.7,1065.0,1048.2,1182.9,1861.2,-1518.9,2193.3,755.4,-2445.3,1963.2,-1627.5,-859.2,-2350.8,3471.3,4660.5,2427.0,-7.2,-5.7,-3288.0,1216.2,-0.6,1113.0,3621.0,849.3,0,1866,0,74,0, 
1.0400,-81.3,1059.6,1045.5,1183.2,1856.4,-1533.3,2186.4,746.7,-3927.3,1964.1,-1658.7,-747.9,-2427.3,3319.2,2968.2,2431.8,-7.2,-6.0,-3283.8,1215.0,-0.3,1105.2,3624.9,834.6,0,1872,0,75,0, 
1.0433,-79.2,1062.3,1046.4,1182.9,1858.5,-1547.7,2186.1,745.5,-4001.4,1970.1,-1300.8,-559.5,-2423.4,3261.9,2890.8,2445.6,-6.6,-5.4,-3285.0,1211.4,-0.9,1114.5,3624.6,814.8,0,1878,0,76,0, 
1.0467,-77.4,1067.1,1036.8,1173.3,1845.3,-1545.3,2181.6,744.6,-2297.1,1951.5,-1196.1,-610.8,-2375.4,3357.9,4522.2,2445.9,-6.6,-6.3,-3311.4,1200.3,-0.9,1114.2,3625.8,814.2,0,1884,0,77,0, 
1.0500,-78.6,1090.8,1047.6,1171.2,1854.6,-1534.8,2193.9,756.9,-1259.7,1949.7,-1302.0,-832.2,-2362.5,3444.6,5609.7,2437.5,-6.9,-6.0,-3308.1,1203.0,-0.6,1109.7,3644.7,837.6,0,1890,0,78,0, 
1.0533,-75.3,1110.3,1052.7,1172.4,1852.5,-1535.1,2194.5,758.1,-2297.1,1953.9,-1505.1,-947.1,-2450.4,3430.2,4627.2,2433.9,-6.9,-5.7,-3309.0,1205.1,-1.2,1109.1,3617.4,860.7,0,1896,0,79,0, 
1.0567,-71.4,1116.9,1057.8,1173.9,1851.3,-1528.8,2197.2,755.4,-4075.5,1951.8,-1530.9,-825.3,-2566.5,3290.4,2954.4,2450.1,-6.9,-5.7,-3312.6,1212.6,-0.9,1110.6,3632.4,895.2,0,1902,0,80,0, 
1.0600,-66.0,1118.7,1057.5,1170.3,1851.6,-1521.6,2193.6,750.3,-3927.3,1935.6,-1279.2,-640.5,-2454.0,3220.8,2878.2,2453.7,-6.9,-6.0,-3301.5,1204.8,-0.9,1095.6,3634.2,910.2,0,1908,0,81,0, 
1.0633,-65.1,1082.7,1044.6,1168.5,1853.1,-1518.3,2197.5,752.1,-2371.2,1943.4,-1122.3,-687.0,-2369.4,3326.7,4518.3,2433.9,-6.9,-5.7,-3295.5,1206.0,-0.9,1100.4,3637.2,927.3,0,1914,0,82,0, 
1.0667,-66.6,1079.1,1052.4,1174.8,1856.4,-1519.2,2189.1,753.6,-1185.6,1944.9,-1310.7,-879.6,-2315.1,3460.8,5608.8,2442.3,-6.6,-5.7,-3285.9,1212.3,-0.3,1108.8,3619.8,912.0,0,1920,0,83,0, 
1.0700,-72.0,1056.9,1041.6,1169.4,1853.4,-1532.7,2192.1,749.7,-2371.2,1950.9,-1747.8,-974.4,-2391.6,3460.2,4651.5,2455.8,-6.9,-5.7,-3291.9,1215.9,-0.6,1113.9,3620.7,873.9,0,1926,0,84,0, 
1.0733,-72.0,1078.8,1053.3,1171.8,1853.4,-1539.0,2189.4,750.3,-4001.4,1976.7,-1666.8,-808.8,-2513.4,3315.3,2955.9,2461.2,-7.2,-6.0,-3279.0,1220.1,-0.9,1123.8,3631.2,841.5,0,1932,0,85,0, 
1.0767,-69.9,1095.3,1062.6,1179.9,1859.7,-1519.5,2196.0,754.2,-3927.3,1983.6,-1365.3,-569.7,-2495.7,3238.5,2877.9,2448.6,-6.6,-5.4,-3266.1,1227.3,-0.6,1140.0,3658.5,831.3,0,1938,0,86,0, 
1.0800,-71.7,1088.4,1055.1,1168.5,1857.3,-1524.6,2195.4,748.5,-2371.2,1956.0,-1205.7,-662.1,-2410.2,3352.8,4516.2,2455.5,-7.2,-6.0,-3281.4,1217.7,-0.9,1121.4,3640.5,849.9,0,1944,0,87,0, 
1.0833,-70.5,1074.9,1048.8,1164.6,1850.1,-1530.3,2191.8,749.7,-1259.7,1953.9,-1489.5,-915.6,-2343.0,3484.8,5633.7,2453.7,-7.2,-5.7,-3306.3,1213.8,-0.6,1113.0,3636.3,862.5,0,1950,0,88,0, 
1.0867,-55.2,1095.3,1055.1,1172.4,1855.2,-1523.1,2197.8,760.8,-2223.0,1972.8,-1674.6,-974.7,-2440.8,3450.6,4666.5,2454.0,-6.6,-5.7,-3310.2,1216.8,-0.6,1116.0,3637.5,864.0,0,1956,0,89,0, 
1.0900,-59.1,1099.8,1050.6,1167.0,1853.1,-1527.6,2196.0,752.1,-3927.3,1957.5,-1710.3,-931.5,-2456.4,3300.3,2958.6,2450.7,-6.6,-5.7,-3305.1,1204.2,-0.3,1117.2,3631.5,858.0,0,1962,0,90,0, 
1.0933,-63.0,1089.6,1050.9,1171.2,1860.3,-1521.0,2195.1,752.7,-3927.3,1964.7,-1396.8,-667.2,-2404.8,3231.9,2861.7,2447.1,-7.2,-5.7,-3301.2,1215.3,-0.9,1120.8,3629.1,861.0,0,1968,0,91,0, 
1.0967,-64.2,1089.0,1053.3,1179.0,1864.5,-1520.7,2198.1,758.1,-2445.3,1960.8,-1167.0,-643.5,-2375.7,3344.4,4502.4,2452.8,-6.9,-6.0,-3293.4,1222.2,-0.3,1122.6,3640.2,861.6,0,1974,0,92,0, 
1.1000,-62.7,1083.0,1049.7,1176.3,1860.6,-1521.0,2197.8,760.2,-1185.6,1948.8,-1370.1,-881.4,-2340.6,3469.2,5605.8,2463.9,-7.2,-5.7,-3289.5,1219.8,-0.3,1128.0,3639.6,842.1,0,1980,0,93,0, 
1.1033,-79.5,1086.6,1043.1,1170.9,1859.1,-1525.2,2196.9,756.9,-2371.2,1944.3,-1671.3,-989.7,-2388.6,3443.4,4624.2,2452.5,-6.9,-5.7,-3302.4,1209.6,-0.9,1125.3,3645.3,862.8,0,1986,0,94,0, 
1.1067,-79.8,1076.1,1036.2,1166.4,1857.3,-1521.3,2195.1,748.2,-4075.5,1946.1,-1575.9,-830.1,-2506.8,3291.9,2913.9,2453.7,-6.9,-5.7,-3314.4,1208.4,-1.2,1120.5,3650.1,887.7,0,1992,0,95,0, 
1.1100,-77.7,1089.9,1048.2,1173.0,1859.4,-1507.8,2201.1,756.0,-4075.5,1954.2,-1290.6,-648.9,-2479.5,3227.4,2841.6,2464.2,-7.2,-6.0,-3308.1,1209.0,-0.6,1110.3,3648.3,914.1,0,1998,0,96,0, 
1.1133,-64.2,1093.8,1057.8,1176.0,1869.9,-1523.1,2194.5,765.3,-2445.3,1951.2,-1194.0,-778.2,-2364.0,3351.0,4495.2,2457.0,-6.9,-6.0,-3301.5,1210.5,-0.9,1124.1,3617.4,865.5,0,2004,0,97,0, 
1.1167,-52.2,1113.6,1068.0,1178.4,1863.0,-1532.1,2195.7,772.8,-1333.8,1950.6,-1418.4,-969.0,-2332.5,3474.0,5587.5,2451.9,-6.9,-5.1,-3299.4,1210.5,-0.6,1113.0,3629.1,837.6,0,2010,0,98,0, 
1.1200,-49.8,1118.1,1071.9,1180.8,1865.4,-1520.4,2195.7,769.2,-2445.3,1965.3,-1682.4,-1052.7,-2406.0,3389.4,4566.6,2445.6,-7.2,-6.0,-3299.4,1213.8,-1.2,1113.0,3633.3,876.9,0,2016,0,99,0, 
1.1233,-66.0,1101.6,1061.4,1184.7,1877.4,-1502.7,2208.3,766.5,-4149.6,1945.5,-1591.5,-930.3,-2514.3,3240.0,2849.1,2460.0,-7.5,-5.7,-3311.1,1231.5,-1.2,1121.7,3656.7,893.4,0,2022,0,100,0, 
1.1267,-77.4,1084.5,1055.1,1182.6,1886.1,-1489.5,2207.1,760.5,-4149.6,1960.8,-1257.9,-724.5,-2525.1,3207.3,2781.3,2443.5,-6.9,-5.4,-3310.2,1239.9,-0.9,1129.5,3626.7,915.3,0,2028,0,101,0, 
1.1300,-76.8,1080.0,1044.9,1175.4,1868.1,-1495.8,2210.7,759.9,-2371.2,1946.4,-1136.7,-806.1,-2408.4,3323.4,4428.0,2454.0,-7.2,-6.0,-3314.1,1219.5,-0.9,1094.1,3646.8,922.5,0,2034,0,102,0, 
1.1333,-56.7,1103.7,1060.2,1181.7,1868.4,-1499.7,2213.7,770.1,-1407.9,1947.3,-1368.9,-973.5,-2354.4,3463.8,5538.0,2470.8,-6.6,-5.7,-3310.2,1216.5,-0.9,1105.8,3663.9,901.5,0,2040,0,103,0, 
1.1367,-55.8,1107.0,1053.9,1176.6,1867.2,-1518.3,2198.1,761.7,-2297.1,1927.8,-1571.4,-1073.1,-2377.5,3445.2,4570.5,2442.3,-7.2,-5.7,-3321.3,1223.1,-0.9,1112.1,3622.8,845.4,0,2046,0,104,0, 
1.1400,-59.1,1077.9,1037.1,1172.1,1868.1,-1520.4,2192.7,758.4,-4001.4,1942.5,-1547.1,-1027.2,-2526.9,3286.5,2862.9,2446.2,-6.9,-5.7,-3326.1,1213.8,-0.9,1110.0,3615.6,825.6,0,2052,0,105,0, 
1.1433,-43.8,1101.9,1044.3,1184.7,1873.2,-1514.4,2200.2,762.6,-4075.5,1953.3,-1294.5,-799.2,-2491.8,3231.3,2778.3,2447.7,-6.9,-5.7,-3318.9,1217.7,-1.5,1126.8,3638.7,854.7,0,2058,0,106,0, 
1.1467,-46.2,1090.5,1044.6,1180.5,1868.1,-1503.6,2206.2,770.4,-2445.3,1958.7,-1214.4,-828.9,-2334.3,3332.7,4426.5,2469.0,-6.6,-5.7,-3303.9,1206.3,-1.2,1108.8,3637.2,867.3,0,2064,0,107,0, 
1.1500,-30.3,1095.3,1061.4,1194.3,1884.6,-1508.7,2213.1,785.1,-1333.8,1981.5,-1305.9,-957.3,-2290.5,3483.0,5537.1,2471.4,-6.9,-6.0,-3281.4,1218.0,-0.6,1129.2,3645.9,864.9,0,2070,0,108,0, 
1.1533,-32.7,1100.1,1055.4,1184.7,1873.8,-1513.5,2210.4,772.8,-2371.2,1963.5,-1544.4,-1125.0,-2345.7,3452.4,4556.4,2455.8,-6.6,-6.3,-3292.8,1219.2,-0.9,1119.0,3654.6,875.4,0,2076,0,109,0, 
1.1567,-40.2,1098.6,1050.6,1180.8,1862.7,-1515.3,2204.7,765.9,-4149.6,1965.3,-1520.1,-1010.4,-2434.5,3315.9,2867.1,2477.4,-6.9,-6.3,-3307.5,1205.1,-0.3,1103.7,3644.7,863.1,0,2082,0,110,0, 
1.1600,-35.4,1103.1,1054.2,1182.6,1868.4,-1509.3,2205.6,766.8,-4149.6,1973.7,-1279.8,-815.1,-2386.8,3246.6,2808.9,2469.0,-7.2,-6.0,-3314.1,1208.7,-0.6,1107.9,3663.3,866.1,0,2088,0,111,0, 
1.1633,-30.6,1100.7,1056.9,1182.3,1868.4,-1508.1,2202.9,769.8,-2371.2,1964.7,-1253.1,-866.1,-2324.7,3335.4,4429.8,2451.6,-6.9,-6.0,-3308.1,1212.6,-0.6,1120.2,3645.6,867.0,0,2094,0,112,0, 
1.1667,-37.5,1092.3,1052.7,1179.3,1872.6,-1505.7,2204.1,775.8,-1333.8,1959.3,-1477.5,-1138.8,-2337.3,3456.6,5512.5,2464.5,-6.6,-6.0,-3326.7,1224.6,-0.9,1133.4,3637.2,871.8,0,2100,0,113,0, 
1.1700,-39.3,1105.2,1051.8,1180.5,1871.7,-1506.9,2207.7,774.6,-2297.1,1960.2,-1640.4,-1178.4,-2453.7,3435.3,4541.4,2461.5,-7.2,-6.3,-3318.0,1229.1,-1.2,1127.1,3637.5,896.1,0,2106,0,114,0, 
1.1733,-38.7,1116.3,1055.1,1180.5,1868.1,-1498.8,2208.3,770.1,-4075.5,1945.5,-1656.0,-1062.3,-2489.1,3283.8,2853.9,2457.6,-6.9,-5.7,-3315.9,1214.7,-0.6,1115.4,3654.0,876.0,0,2112,0,115,0, 
1.1767,-45.6,1109.1,1044.0,1175.1,1863.3,-1510.2,2202.3,766.2,-4075.5,1932.3,-1422.0,-904.5,-2513.1,3237.9,2798.4,2458.8,-6.9,-5.7,-3320.1,1210.2,-0.9,1114.5,3631.2,868.8,0,2118,0,116,0, 
1.1800,-41.1,1120.2,1057.5,1179.6,1862.1,-1505.7,2206.8,773.7,-2371.2,1958.1,-1245.0,-803.4,-2482.5,3328.5,4431.3,2446.5,-6.9,-5.7,-3303.3,1213.5,-0.6,1113.6,3625.8,867.3,0,2124,0,117,0, 
1.1833,-43.2,1116.3,1055.7,1182.6,1862.7,-1498.5,2209.8,782.1,-1333.8,1952.4,-1450.8,-1050.0,-2347.2,3460.8,5546.1,2454.3,-7.2,-6.0,-3302.7,1227.9,-0.9,1128.3,3645.0,864.0,0,2130,0,118,0, 
1.1867,-37.2,1104.6,1052.1,1179.6,1856.7,-1507.2,2214.0,777.0,-2223.0,1946.1,-1654.2,-1161.6,-2414.4,3453.6,4588.8,2469.9,-6.9,-6.0,-3311.1,1223.7,-0.6,1127.1,3651.3,841.2,0,2136,0,119,0, 
1.1900,-45.0,1107.6,1056.0,1179.6,1854.6,-1508.7,2210.1,767.1,-4075.5,1953.0,-1642.5,-990.6,-2428.5,3299.1,2910.9,2460.3,-6.9,-6.0,-3321.0,1221.3,-0.9,1130.1,3639.0,840.3,0,2142,0,120,0, 
1.1933,-43.2,1107.6,1059.9,1182.9,1869.9,-1502.1,2217.0,771.3,-3927.3,1960.8,-1360.8,-807.3,-2415.6,3235.8,2817.6,2463.0,-7.2,-5.4,-3315.3,1221.9,-0.9,1121.4,3650.7,882.6,0,2148,0,121,0, 
1.1967,-52.8,1110.9,1063.2,1184.4,1865.4,-1498.8,2210.7,773.4,-2297.1,1957.2,-1169.1,-822.3,-2393.4,3321.6,4452.3,2453.1,-6.9,-5.7,-3311.4,1229.4,-0.9,1133.7,3641.7,894.9,0,2154,0,122,0, 
1.2000,-56.1,1107.6,1058.4,1178.4,1854.9,-1503.9,2208.6,773.1,-1333.8,1942.2,-1349.1,-1046.1,-2424.9,3459.6,5534.4,2462.4,-6.6,-5.7,-3317.7,1216.5,-0.9,1116.6,3639.3,896.4,0,2160,0,123,0, 
1.2033,-67.5,1074.6,1049.1,1171.8,1845.3,-1509.3,2205.6,766.5,-2297.1,1936.8,-1585.5,-1175.1,-2346.0,3439.8,4608.6,2445.3,-6.6,-6.0,-3309.0,1219.5,-0.3,1101.0,3635.7,880.2,0,2166,0,124,0, 
1.2067,-67.5,1068.9,1033.8,1165.2,1848.3,-1506.0,2211.6,756.6,-3927.3,1934.7,-1586.7,-923.7,-2460.3,3289.2,2923.5,2459.4,-7.2,-5.7,-3327.0,1211.1,-0.6,1100.4,3661.2,910.5,0,2172,0,125,0, 
1.2100,-67.5,1071.0,1040.4,1170.6,1855.8,-1500.9,2207.7,764.4,-4001.4,1944.0,-1422.0,-786.3,-2418.6,3228.6,2843.4,2440.8,-6.9,-5.7,-3327.6,1211.1,-1.2,1092.3,3615.0,920.4,0,2178,0,126,0, 
1.2133,-57.3,1083.3,1048.2,1174.5,1847.7,-1508.7,2204.7,766.8,-2297.1,1944.3,-1138.5,-748.5,-2346.6,3345.3,4473.0,2443.5,-7.2,-6.3,-3313.8,1200.3,-1.2,1087.5,3604.8,865.2,0,2184,0,127,0, 
1.2167,-61.8,1090.5,1052.7,1171.8,1845.6,-1525.5,2198.1,768.9,-1333.8,1950.3,-1500.6,-1091.7,-2316.3,3451.2,5563.8,2436.6,-6.9,-6.0,-3314.1,1194.6,-0.6,1098.6,3607.5,802.2,0,2190,0,128,0, 
1.2200,-60.0,1094.7,1050.6,1177.2,1857.3,-1517.7,2202.3,777.3,-2297.1,1959.6,-1710.0,-1101.0,-2394.9,3447.6,4607.1,2445.0,-6.6,-6.3,-3320.1,1226.7,-0.6,1120.8,3632.4,832.8,0,2196,0,129,0, 
1.2233,-65.1,1097.7,1047.0,1173.3,1849.8,-1510.8,2201.7,770.1,-4001.4,1944.6,-1599.0,-913.2,-2497.5,3311.1,2919.9,2458.5,-6.9,-5.4,-3316.8,1212.3,-0.3,1107.9,3630.0,851.1,0,2202,0,130,0, 
1.2267,-48.9,1125.3,1058.1,1178.1,1851.9,-1508.7,2196.6,775.2,-4149.6,1955.4,-1395.0,-732.3,-2535.3,3236.1,2823.6,2435.4,-6.9,-5.4,-3305.4,1212.3,-0.6,1106.4,3604.5,873.0,0,2208,0,131,0, 
1.2300,-50.1,1119.6,1064.4,1184.7,1858.8,-1510.2,2200.2,774.6,-2519.4,1959.9,-1335.6,-840.3,-2460.0,3304.2,4459.8,2434.5,-7.2,-6.3,-3294.6,1219.2,-0.9,1115.1,3630.9,877.5,0,2214,0,132,0, 
1.2333,-46.8,1125.9,1062.0,1184.1,1860.0,-1512.0,2201.1,781.2,-1333.8,1935.6,-1416.0,-1003.5,-2406.6,3464.1,5574.0,2466.3,-7.2,-6.0,-3294.0,1209.9,-0.9,1113.0,3627.0,850.8,0,2220,0,133,0, 
1.2367,-53.7,1110.3,1054.8,1176.0,1855.5,-1517.7,2198.4,773.1,-2297.1,1935.6,-1755.0,-1194.0,-2424.0,3457.2,4622.4,2454.3,-7.2,-6.0,-3311.4,1208.4,-0.6,1120.5,3622.8,849.9,0,2226,0,134,0, 
1.2400,-60.0,1102.5,1044.9,1176.9,1849.8,-1512.3,2201.1,765.0,-3927.3,1952.7,-1712.4,-1017.3,-2537.1,3304.2,2927.7,2447.4,-6.9,-6.0,-3314.1,1209.6,-1.2,1104.3,3614.4,882.9,0,2232,0,135,0, 
1.2433,-55.8,1097.1,1043.4,1181.7,1855.2,-1506.9,2200.8,767.7,-4149.6,1934.4,-1440.0,-792.3,-2430.3,3258.9,2870.1,2445.6,-7.2,-6.0,-3307.5,1217.1,-0.9,1102.8,3635.1,865.8,0,2238,0,136,0, 
1.2467,-60.9,1077.3,1042.8,1182.0,1853.7,-1512.9,2200.8,771.9,-2223.0,1946.4,-1199.1,-682.2,-2305.8,3369.6,4519.5,2451.9,-6.6,-6.0,-3317.7,1211.4,-0.9,1110.3,3631.8,839.7,0,2244,0,137,0, 
1.2500,-57.0,1075.2,1050.0,1183.8,1858.8,-1499.7,2206.5,778.5,-1259.7,1963.2,-1463.1,-898.5,-2274.6,3494.4,5617.5,2451.9,-6.9,-5.7,-3310.8,1221.9,-1.2,1119.6,3616.8,847.8,0,2250,0,138,0, 
1.2533,-58.2,1074.3,1044.3,1177.8,1853.7,-1508.7,2205.6,771.9,-2297.1,1949.4,-1729.8,-1095.9,-2397.6,3458.4,4640.7,2463.6,-7.2,-5.4,-3321.9,1218.6,-1.5,1113.6,3618.9,856.5,0,2256,0,139,0, 
1.2567,-72.3,1070.1,1031.7,1164.0,1846.8,-1509.9,2200.2,756.0,-3927.3,1927.5,-1740.6,-1053.0,-2485.8,3310.5,2946.0,2465.4,-6.9,-6.0,-3341.4,1198.8,-0.6,1103.1,3620.1,885.6,0,2262,0,140,0, 
1.2600,-67.2,1095.9,1047.3,1174.2,1852.2,-1512.3,2194.8,760.8,-4001.4,1943.4,-1395.6,-758.1,-2434.2,3236.4,2878.8,2438.4,-6.3,-6.0,-3330.0,1199.7,-0.9,1102.5,3611.1,865.8,0,2268,0,141,0, 
1.2633,-62.7,1105.5,1059.0,1182.0,1864.2,-1502.4,2197.2,771.6,-2223.0,1941.0,-1278.3,-773.7,-2320.2,3320.1,4510.2,2428.5,-6.6,-5.7,-3309.9,1215.3,-0.6,1108.8,3618.6,872.7,0,2274,0,142,0, 
1.2667,-66.0,1088.7,1049.7,1180.5,1861.8,-1506.3,2198.4,771.9,-1259.7,1933.8,-1540.8,-1067.4,-2331.6,3447.6,5581.5,2442.0,-6.6,-6.0,-3319.8,1211.1,-0.9,1092.6,3625.8,866.7,0,2280,0,143,0, 
1.2700,-73.5,1085.7,1043.7,1174.8,1854.6,-1514.1,2201.4,770.4,-2297.1,1940.1,-1710.3,-1095.6,-2429.4,3451.8,4631.7,2455.2,-6.9,-6.0,-3331.5,1197.9,-0.6,1102.2,3616.2,849.3,0,2286,0,144,0, 
1.2733,-58.2,1107.9,1052.4,1173.0,1861.2,-1512.6,2196.9,767.7,-3927.3,1945.2,-1641.3,-893.1,-2445.3,3307.5,2964.0,2424.9,-6.9,-6.0,-3327.0,1205.7,-0.6,1101.3,3612.9,842.7,0,2292,0,145,0, 
1.2767,-64.2,1106.1,1053.0,1168.8,1855.2,-1503.0,2201.1,765.6,-4001.4,1933.8,-1338.9,-643.2,-2493.6,3205.5,2869.8,2433.3,-6.9,-5.4,-3315.3,1210.2,-0.6,1102.8,3643.5,863.7,0,2298,0,146,0, 
1.2800,-67.8,1097.7,1047.9,1161.3,1840.2,-1522.2,2179.8,760.8,-2223.0,1927.2,-1222.8,-654.6,-2436.9,3317.7,4501.8,2416.8,-7.2,-6.0,-3321.9,1206.0,-0.9,1095.6,3582.0,834.9,0,2304,0,147,0, 
1.2833,-75.9,1099.5,1043.7,1157.4,1842.0,-1520.1,2185.8,762.6,-1259.7,1923.3,-1428.0,-918.9,-2467.8,3453.0,5590.8,2436.0,-7.5,-5.7,-3333.3,1207.8,-0.3,1085.1,3593.7,837.3,0,2310,0,148,0, 
1.2867,-72.3,1101.3,1045.8,1163.4,1838.1,-1521.6,2183.4,758.1,-2223.0,1924.8,-1678.8,-1074.3,-2465.7,3444.0,4626.6,2432.1,-6.6,-6.3,-3321.6,1206.0,-0.6,1081.8,3585.0,849.3,0,2316,0,149,0, 
1.2900,-73.2,1092.6,1043.7,1167.9,1855.5,-1501.8,2195.1,758.4,-4001.4,1925.1,-1585.5,-879.9,-2553.9,3281.1,2934.0,2435.7,-6.9,-5.7,-3320.4,1220.7,-1.2,1094.4,3608.4,918.3,0,2322,0,150,0, 
1.2933,-62.7,1081.2,1031.7,1160.4,1846.2,-1507.5,2184.0,754.2,-4001.4,1913.1,-1377.9,-729.0,-2495.1,3228.6,2856.9,2443.8,-6.9,-6.0,-3341.1,1209.3,-0.9,1075.5,3585.0,889.2,0,2328,0,151,0, 
1.2967,-62.4,1080.6,1043.1,1167.0,1854.3,-1506.3,2202.3,770.1,-2371.2,1935.9,-1305.3,-714.9,-2349.9,3334.5,4499.1,2454.9,-6.9,-5.7,-3340.2,1222.2,-0.9,1097.1,3641.4,851.1,0,2334,0,152,0, 
1.3000,-69.0,1053.6,1036.5,1159.8,1838.7,-1524.6,2192.7,756.0,-1333.8,1947.6,-1596.0,-962.1,-2311.8,3464.7,5601.9,2441.7,-6.9,-5.7,-3339.0,1208.4,-0.9,1098.6,3618.3,806.1,0,2340,0,153,0, 
1.3033,-69.9,1072.5,1048.8,1173.3,1855.2,-1513.5,2196.3,765.3,-2297.1,1948.2,-1920.0,-1037.4,-2383.8,3432.3,4619.7,2435.1,-7.2,-5.7,-3330.0,1224.3,-0.3,1095.6,3609.3,815.7,0,2346,0,154,0, 
1.3067,-63.9,1073.1,1044.3,1169.1,1853.7,-1512.6,2195.1,761.4,-3927.3,1947.3,-1865.1,-924.3,-2458.5,3316.8,2952.0,2428.8,-6.6,-5.7,-3333.3,1221.0,-0.9,1091.1,3595.2,849.3,0,2352,0,155,0, 
1.3100,-73.8,1071.6,1039.2,1162.8,1850.1,-1518.0,2194.5,754.5,-3927.3,1939.8,-1514.7,-783.6,-2411.1,3230.1,2879.1,2436.3,-7.2,-5.7,-3343.2,1218.0,-0.9,1099.2,3594.3,866.4,0,2358,0,156,0, 
1.3133,-70.2,1065.0,1043.7,1161.3,1842.6,-1514.4,2194.5,759.0,-2297.1,1938.0,-1313.4,-776.7,-2346.0,3349.8,4534.5,2457.0,-6.9,-5.7,-3345.0,1212.9,-0.9,1083.6,3606.9,848.7,0,2364,0,157,0, 
1.3167,-63.9,1087.2,1049.7,1170.6,1850.7,-1503.9,2208.3,771.0,-1259.7,1947.9,-1455.6,-1024.2,-2319.9,3468.0,5605.2,2441.4,-7.2,-5.7,-3351.9,1218.6,-0.6,1102.2,3621.6,857.7,0,2370,0,158,0, 
1.3200,-66.6,1085.1,1046.1,1169.7,1843.8,-1505.7,2209.5,769.2,-2297.1,1945.8,-1798.2,-1135.2,-2408.1,3449.1,4648.2,2439.9,-6.9,-6.0,-3350.4,1226.1,-1.2,1098.0,3626.7,865.8,0,2376,0,159,0, 
1.3233,-55.2,1116.9,1066.2,1181.4,1858.5,-1510.8,2205.9,771.6,-4001.4,1972.8,-1621.2,-846.6,-2478.9,3284.4,2953.5,2444.4,-6.6,-6.0,-3325.5,1234.2,-0.9,1106.7,3612.6,839.4,0,2382,0,160,0, 
1.3267,-56.4,1117.5,1057.8,1172.7,1855.8,-1504.8,2202.3,766.8,-3927.3,1930.8,-1413.9,-737.1,-2483.4,3243.6,2902.2,2445.6,-6.9,-5.4,-3345.6,1227.0,-0.6,1104.9,3599.1,864.3,0,2388,0,161,0, 
1.3300,-56.4,1117.2,1055.1,1168.5,1845.3,-1509.0,2199.0,768.9,-2297.1,1921.5,-1347.0,-831.6,-2387.1,3346.5,4534.5,2442.3,-6.9,-5.7,-3355.8,1217.7,-0.6,1094.7,3618.6,855.9,0,2394,0,162,0, 
1.3333,-51.3,1107.3,1061.7,1170.6,1857.0,-1499.4,2206.2,779.7,-1259.7,1938.9,-1662.9,-1091.4,-2328.0,3445.2,5622.6,2441.7,-6.9,-6.0,-3357.6,1228.5,-0.9,1111.2,3617.7,864.3,0,2400,0,163,0, 
1.3367,-63.6,1087.5,1054.5,1168.8,1858.2,-1513.5,2196.3,767.7,-2371.2,1961.7,-1931.4,-1215.9,-2415.3,3428.7,4627.2,2446.2,-6.9,-6.0,-3354.3,1234.5,-0.9,1124.4,3609.6,834.3,0,2406,0,164,0, 
1.3400,-60.3,1087.8,1056.6,1172.7,1857.6,-1499.7,2200.5,768.3,-4001.4,1962.0,-1755.6,-929.7,-2455.8,3319.2,2971.8,2454.0,-6.9,-6.0,-3352.8,1243.8,-0.6,1131.0,3603.6,858.6,0,2412,0,165,0, 
1.3433,-60.3,1088.1,1049.4,1164.9,1855.8,-1502.1,2209.8,763.5,-3853.2,1955.7,-1555.5,-767.4,-2444.4,3242.7,2903.7,2466.3,-6.9,-5.7,-3359.1,1236.3,-0.9,1113.6,3622.5,870.3,0,2418,0,166,0, 
1.3467,-60.0,1094.4,1046.1,1159.2,1856.1,-1503.0,2206.8,767.4,-2297.1,1945.5,-1485.0,-758.4,-2448.0,3348.6,4513.8,2457.6,-6.9,-5.7,-3361.2,1230.9,-0.9,1106.1,3639.6,883.2,0,2424,0,167,0, 
1.3500,-52.8,1097.1,1044.9,1162.2,1860.6,-1492.2,2214.0,771.9,-1259.7,1944.0,-1833.3,-1002.9,-2414.1,3471.0,5583.3,2464.2,-6.6,-6.0,-3360.9,1232.4,-0.9,1089.3,3625.8,920.4,0,2430,0,168,0, 
1.3533,-56.1,1090.5,1049.4,1164.6,1862.7,-1500.0,2209.8,770.7,-2223.0,1963.8,-2128.5,-1174.8,-2383.5,3443.1,4627.5,2455.2,-6.9,-6.0,-3353.1,1227.9,-0.9,1124.1,3615.6,873.9,0,2436,0,169,0, 
1.3567,-57.6,1086.0,1055.4,1166.1,1863.0,-1501.2,2205.6,763.8,-4001.4,1965.0,-2130.6,-999.3,-2427.0,3313.5,2947.5,2456.1,-6.3,-6.0,-3343.5,1239.9,-0.9,1121.1,3615.0,850.8,0,2442,0,170,0, 
1.3600,-58.5,1093.2,1063.5,1175.4,1863.9,-1490.4,2209.2,768.0,-3927.3,1973.7,-1760.7,-700.5,-2443.8,3257.7,2860.2,2452.8,-6.6,-5.7,-3323.1,1245.6,-0.6,1123.8,3621.9,864.9,0,2448,0,171,0, 
1.3633,-60.3,1097.4,1061.7,1174.2,1860.3,-1492.5,2205.0,770.1,-2445.3,1950.3,-1670.4,-757.8,-2405.1,3336.9,4482.0,2462.4,-6.9,-5.7,-3328.5,1238.7,-0.6,1114.2,3616.8,879.0,0,2454,0,172,0, 
1.3667,-54.9,1094.7,1055.7,1171.5,1863.3,-1490.1,2211.9,776.7,-1259.7,1941.6,-2063.1,-1137.9,-2333.4,3492.6,5592.6,2443.2,-6.3,-6.0,-3329.7,1234.5,-0.9,1119.9,3618.9,894.0,0,2460,0,173,0, 
1.3700,-59.7,1093.5,1058.4,1163.7,1857.6,-1487.4,2211.0,768.9,-2223.0,1944.6,-2298.3,-1238.7,-2384.4,3457.2,4623.3,2454.3,-6.9,-6.0,-3331.5,1235.1,-0.9,1099.8,3618.9,873.0,0,2466,0,174,0, 
1.3733,-60.3,1082.4,1053.9,1160.1,1849.8,-1502.1,2197.2,759.0,-4001.4,1933.2,-2282.4,-1102.5,-2423.4,3312.3,2946.9,2455.2,-6.9,-6.0,-3338.7,1222.8,-0.9,1081.2,3589.2,832.5,0,2472,0,175,0, 
1.3767,-57.6,1086.6,1057.5,1168.8,1857.9,-1500.3,2200.8,762.0,-4001.4,1951.5,-1979.7,-860.1,-2449.8,3242.4,2863.5,2445.0,-6.6,-5.7,-3338.4,1230.3,-1.2,1102.5,3612.3,830.4,0,2478,0,176,0, 
1.3800,-51.0,1107.9,1071.0,1173.0,1857.6,-1496.7,2212.2,775.8,-2297.1,1965.6,-1999.5,-860.4,-2363.4,3346.8,4504.2,2455.8,-6.6,-6.0,-3320.1,1236.9,-0.6,1096.5,3615.9,834.3,0,2484,0,177,0, 
1.3833,-45.9,1118.1,1081.8,1178.1,1869.6,-1490.4,2203.2,783.0,-1111.5,1975.5,-2263.2,-1132.8,-2283.0,3455.1,5565.6,2435.7,-6.9,-5.7,-3317.4,1250.7,-0.9,1108.5,3592.5,828.6,0,2490,0,178,0, 
1.3867,-54.0,1111.5,1069.8,1170.9,1870.2,-1497.9,2206.8,777.0,-2371.2,1947.6,-2525.4,-1222.8,-2382.6,3424.5,4592.1,2446.2,-6.9,-6.0,-3318.9,1246.8,-1.5,1118.1,3608.7,855.3,0,2496,0,179,0, 
1.3900,-52.8,1105.2,1069.2,1166.7,1871.7,-1493.4,2207.7,772.8,-3927.3,1959.0,-2304.9,-902.4,-2544.6,3295.8,2909.1,2445.6,-6.9,-5.7,-3333.3,1239.6,-0.9,1122.0,3595.5,869.1,0,2502,0,180,0, 
1.3933,-50.1,1111.8,1070.1,1174.2,1872.3,-1481.4,2208.9,774.0,-4001.4,1957.5,-1987.5,-629.7,-2483.7,3239.1,2847.0,2453.4,-6.6,-5.7,-3335.1,1243.5,-0.6,1118.1,3601.5,868.8,0,2508,0,181,0, 
1.3967,-53.1,1100.7,1065.0,1171.5,1873.5,-1481.1,2209.2,772.5,-2297.1,1938.9,-1801.5,-651.3,-2421.9,3345.6,4472.4,2469.9,-7.2,-6.0,-3352.5,1242.3,-0.3,1113.6,3609.3,854.7,0,2514,0,182,0, 
1.4000,-54.3,1075.2,1054.8,1166.4,1867.2,-1486.8,2209.8,771.6,-1259.7,1947.0,-2126.4,-926.7,-2318.1,3491.7,5558.4,2471.7,-6.6,-6.0,-3355.8,1241.7,-0.6,1112.7,3625.2,849.9,0,2520,0,183,0, 
1.4033,-53.1,1084.5,1054.8,1159.5,1859.7,-1497.3,2201.7,766.2,-2371.2,1946.4,-2421.6,-1033.8,-2367.6,3447.6,4571.1,2451.6,-6.6,-5.7,-3351.6,1234.8,-0.9,1111.2,3597.9,858.6,0,2526,0,184,0, 
1.4067,-45.9,1106.1,1066.2,1177.5,1873.2,-1474.5,2211.9,771.3,-4001.4,1948.2,-2424.3,-865.5,-2451.9,3304.5,2881.8,2454.9,-6.6,-6.3,-3346.2,1252.8,-0.6,1115.1,3597.6,914.1,0,2532,0,185,0, 
1.4100,-40.5,1114.8,1066.8,1170.0,1865.7,-1479.3,2210.1,767.1,-4149.6,1939.8,-2099.7,-637.2,-2449.2,3232.5,2793.9,2464.2,-7.2,-5.7,-3348.6,1242.0,-0.6,1087.2,3599.7,930.9,0,2538,0,186,0, 
1.4133,-34.5,1121.4,1068.9,1178.4,1873.8,-1469.7,2207.1,778.2,-2297.1,1955.1,-2162.1,-720.0,-2435.4,3332.7,4399.8,2429.7,-7.2,-6.0,-3347.1,1245.6,-0.3,1097.7,3591.0,945.3,0,2544,0,187,0, 
1.4167,-56.1,1099.8,1062.3,1175.7,1866.0,-1493.7,2206.2,784.5,-1482.0,1961.4,-2492.4,-1088.7,-2323.5,3454.8,5474.1,2448.3,-7.2,-5.7,-3350.7,1236.0,-0.6,1111.8,3612.6,875.1,0,2550,0,188,0, 
1.4200,-64.5,1081.8,1061.7,1175.4,1871.4,-1483.2,2210.7,779.7,-2445.3,1955.1,-2744.7,-1212.9,-2341.8,3432.9,4474.2,2439.3,-6.6,-5.7,-3360.3,1246.8,-0.9,1125.3,3618.9,866.7,0,2556,0,189,0, 
1.4233,-64.8,1092.6,1065.9,1169.4,1866.6,-1496.1,2203.2,768.6,-4075.5,1947.0,-2635.8,-1054.5,-2450.4,3292.2,2789.1,2436.6,-6.9,-6.0,-3368.7,1244.1,-0.6,1106.7,3602.1,854.1,0,2562,0,190,0, 
1.4267,-61.5,1089.3,1069.2,1174.2,1868.1,-1501.5,2200.8,771.3,-4149.6,1968.3,-2341.8,-733.8,-2470.8,3239.4,2724.9,2438.4,-7.2,-6.0,-3363.0,1248.9,-0.6,1117.8,3594.6,837.0,0,2568,0,191,0, 
1.4300,-56.4,1115.7,1077.3,1176.6,1866.6,-1505.7,2201.7,774.9,-2445.3,1973.7,-2321.7,-750.3,-2382.3,3327.6,4344.9,2444.7,-6.9,-5.7,-3364.2,1244.4,-0.9,1117.2,3607.5,826.5,0,2574,0,192,0, 
1.4333,-43.8,1132.2,1084.5,1172.1,1857.6,-1498.2,2200.2,778.5,-1407.9,1952.1,-2700.6,-1172.1,-2331.9,3456.0,5408.4,2449.2,-6.9,-5.7,-3366.3,1242.0,-0.9,1115.4,3608.1,825.0,0,2580,0,193,0, 
1.4367,-48.6,1124.1,1079.4,1178.1,1863.9,-1490.1,2207.7,779.7,-2445.3,1959.3,-2985.3,-1312.2,-2347.5,3422.1,4471.5,2453.1,-6.9,-5.1,-3363.6,1248.6,-0.6,1102.8,3607.8,840.3,0,2586,0,194,0, 
1.4400,-56.4,1097.4,1061.1,1169.4,1854.3,-1480.2,2214.6,770.7,-4075.5,1953.9,-3003.9,-1162.8,-2471.4,3288.9,2780.1,2457.6,-6.9,-6.0,-3381.0,1237.2,-1.2,1101.6,3612.0,857.1,0,2592,0,195,0, 
1.4433,-67.8,1095.3,1051.2,1154.4,1839.0,-1487.4,2214.3,768.3,-4149.6,1944.0,-2847.3,-1083.9,-2440.8,3217.5,2691.0,2462.1,-6.6,-5.7,-3390.0,1202.7,-0.9,1102.5,3617.4,848.1,0,2598,0,196,0, 
1.4467,-56.1,1097.4,1055.7,1158.6,1844.4,-1480.5,2210.4,772.2,-2445.3,1941.9,-2902.8,-1201.5,-2418.0,3327.6,4328.4,2463.0,-7.2,-5.4,-3381.0,1226.1,-0.6,1098.3,3608.4,853.8,0,2604,0,197,0, 
1.4500,-54.6,1090.2,1070.4,1174.5,1866.9,-1463.4,2222.4,783.0,-1482.0,1965.6,-3215.7,-1492.5,-2378.4,3458.7,5403.6,2454.6,-6.9,-5.7,-3349.2,1272.9,-0.6,1116.6,3637.5,873.9,0,2610,0,198,0, 
1.4533,-53.4,1091.1,1074.3,1179.3,1876.5,-1472.4,2215.2,780.6,-2371.2,1953.9,-3562.2,-1651.5,-2381.1,3438.3,4457.4,2456.4,-6.3,-6.0,-3354.3,1278.3,-0.3,1118.7,3611.4,884.4,0,2616,0,199,0, 
1.4567,-58.5,1093.2,1059.3,1168.5,1863.9,-1473.0,2209.2,771.3,-4149.6,1934.1,-3541.2,-1474.5,-2469.0,3294.0,2768.7,2445.3,-7.2,-5.7,-3378.3,1270.8,-0.9,1097.7,3621.0,903.3,0,2622,0,200,0, 
1.4600,-53.7,1092.3,1062.0,1169.7,1860.9,-1469.1,2216.1,771.3,-4075.5,1935.3,-3204.0,-1270.8,-2456.7,3232.2,2704.8,2444.1,-6.9,-5.7,-3378.6,1278.0,-0.6,1104.9,3594.0,879.3,0,2628,0,201,0, 
1.4633,-60.3,1096.5,1062.0,1164.9,1861.2,-1455.3,2211.3,772.2,-2519.4,1934.7,-3290.4,-1488.3,-2365.8,3335.4,4353.0,2439.6,-6.6,-6.3,-3385.2,1263.3,-0.9,1091.4,3591.0,889.8,0,2634,0,202,0, 
1.4667,-54.6,1095.3,1068.0,1164.3,1861.5,-1478.1,2202.9,776.4,-1407.9,1937.1,-3632.1,-1762.8,-2296.8,3465.3,5432.7,2430.6,-6.9,-6.0,-3384.3,1261.5,-0.9,1086.3,3597.3,838.5,0,2640,0,203,0, 
1.4700,-57.9,1096.5,1067.4,1168.5,1861.5,-1478.1,2205.6,768.0,-2445.3,1958.4,-3957.3,-1861.5,-2375.1,3429.0,4453.8,2442.3,-7.2,-6.0,-3366.0,1268.4,-0.6,1099.8,3618.9,828.3,0,2646,0,204,0, 
1.4733,-54.3,1098.9,1072.8,1170.0,1873.5,-1477.8,2204.1,765.9,-4149.6,1943.1,-3919.2,-1679.7,-2429.7,3288.0,2781.3,2439.0,-6.6,-6.0,-3375.3,1272.6,-0.9,1105.2,3613.8,852.0,0,2652,0,205,0, 
1.4767,-46.5,1113.6,1069.5,1166.7,1866.9,-1482.6,2207.4,759.9,-4149.6,1932.0,-3764.4,-1454.7,-2450.1,3224.7,2708.4,2430.9,-6.9,-6.0,-3379.8,1271.7,-0.6,1095.3,3606.6,849.9,0,2658,0,206,0, 
1.4800,-41.1,1134.0,1077.3,1176.3,1874.7,-1478.1,2214.6,777.6,-2445.3,1945.8,-3672.9,-1527.9,-2438.1,3306.3,4325.4,2437.8,-7.2,-5.7,-3367.8,1272.6,-0.3,1095.3,3611.1,847.5,0,2664,0,207,0, 
1.4833,-47.7,1123.8,1070.7,1170.6,1874.1,-1472.4,2211.3,776.1,-1482.0,1924.5,-4116.3,-1830.3,-2339.7,3449.1,5418.6,2432.4,-7.2,-6.3,-3375.6,1269.6,-0.6,1099.8,3612.6,872.1,0,2670,0,208,0, 
1.4867,-53.1,1112.7,1069.8,1168.2,1866.9,-1477.2,2212.8,775.8,-2519.4,1944.6,-4364.1,-1890.3,-2369.1,3398.1,4429.5,2436.9,-7.2,-5.7,-3386.7,1267.8,-0.9,1104.6,3611.4,858.0,0,2676,0,209,0, 
1.4900,-53.7,1118.1,1067.1,1175.7,1870.5,-1462.5,2217.6,778.2,-4075.5,1944.3,-4359.0,-1738.5,-2514.9,3259.2,2727.9,2444.1,-6.9,-6.0,-3389.7,1273.2,-0.6,1111.8,3592.5,876.3,0,2682,0,210,0, 
1.4933,-59.4,1101.9,1053.3,1164.9,1850.7,-1479.6,2216.4,769.8,-4149.6,1934.7,-4123.5,-1503.6,-2466.9,3204.6,2638.8,2447.7,-7.2,-5.7,-3407.4,1260.3,-0.3,1108.5,3623.4,861.0,0,2688,0,211,0, 
1.4967,-63.6,1101.6,1054.8,1162.2,1860.3,-1472.1,2216.4,771.0,-2519.4,1942.8,-4230.9,-1581.6,-2365.5,3309.6,4257.0,2457.9,-7.2,-6.0,-3414.3,1256.7,-1.2,1108.5,3627.9,891.3,0,2694,0,212,0, 
1.5000,-64.2,1095.3,1040.4,1143.0,1840.8,-1483.2,2216.4,765.6,-1482.0,1920.3,-4740.6,-1804.8,-2387.1,3432.0,5303.7,2484.9,-6.6,-5.4,-3421.8,1244.7,-0.9,1077.0,3642.0,902.4,0,2700,0,213,0, 
1.5033,-66.0,1087.8,1033.8,1139.1,1834.8,-1476.9,2206.5,764.7,-2667.6,1925.7,-5234.4,-1949.1,-2447.4,3412.2,4308.3,2457.3,-6.3,-5.7,-3429.0,1240.5,-0.6,1083.3,3596.7,895.2,0,2706,0,214,0, 
1.5067,-54.3,1098.0,1048.8,1157.4,1844.1,-1469.1,2212.8,768.6,-4223.7,1961.1,-5326.5,-1717.2,-2459.4,3276.0,2651.7,2442.6,-6.9,-5.4,-3410.4,1253.7,-0.6,1118.4,3612.3,887.4,0,2712,0,215,0, 
1.5100,-54.3,1086.6,1048.5,1158.3,1846.5,-1473.9,2209.8,766.5,-4297.8,1956.6,-5157.3,-1572.9,-2394.3,3232.2,2586.6,2443.2,-6.6,-5.7,-3406.5,1247.7,-0.6,1109.1,3607.2,855.9,0,2718,0,216,0, 
1.5133,-56.7,1092.0,1047.9,1152.3,1850.1,-1484.7,2203.2,762.9,-2519.4,1964.1,-5301.3,-1640.4,-2362.8,3315.3,4224.9,2445.9,-6.9,-5.7,-3402.0,1237.2,-0.3,1105.5,3599.7,827.7,0,2724,0,217,0, 
1.5167,-57.0,1095.6,1044.3,1156.8,1857.3,-1481.4,2211.9,769.2,-1630.2,1958.1,-5692.5,-1910.4,-2356.8,3447.9,5304.9,2451.6,-7.2,-6.0,-3406.2,1245.9,-0.6,1116.3,3618.0,819.6,0,2730,0,218,0, 
1.5200,-60.9,1093.2,1041.6,1153.8,1842.0,-1491.6,2209.8,762.0,-2593.5,1969.2,-6240.3,-2091.0,-2453.7,3400.5,4308.6,2445.0,-6.9,-5.7,-3413.1,1248.6,-0.6,1123.2,3617.1,837.3,0,2736,0,219,0, 
1.5233,-55.2,1106.1,1039.8,1154.4,1847.1,-1476.9,2218.8,762.0,-4371.9,1948.8,-6365.7,-1880.4,-2504.1,3258.9,2623.8,2456.4,-6.9,-5.4,-3406.5,1259.1,-0.6,1122.9,3630.3,861.9,0,2742,0,220,0, 
1.5267,-69.0,1086.0,1034.7,1152.9,1843.8,-1479.9,2220.0,761.1,-4149.6,1939.8,-6198.0,-1604.7,-2408.1,3194.1,2577.9,2439.9,-6.9,-6.3,-3400.2,1260.3,-0.9,1120.5,3648.6,868.2,0,2748,0,221,0, 
1.5300,-62.1,1077.6,1038.0,1156.8,1849.8,-1485.3,2215.5,769.8,-2519.4,1949.4,-6240.0,-1734.0,-2333.1,3324.3,4233.0,2446.8,-6.6,-5.4,-3391.2,1263.0,-0.6,1128.3,3621.9,852.3,0,2754,0,222,0, 
1.5333,-51.9,1090.8,1041.9,1162.8,1858.8,-1474.8,2224.2,782.1,-1556.1,1952.7,-6728.4,-2081.7,-2383.8,3460.8,5310.3,2454.9,-7.2,-5.7,-3389.7,1263.3,-0.9,1137.0,3629.7,863.4,0,2760,0,223,0, 
1.5367,-61.5,1088.7,1032.3,1155.0,1848.6,-1480.5,2220.6,769.8,-2519.4,1951.5,-7041.6,-2186.1,-2413.5,3425.4,4348.5,2458.5,-7.5,-6.0,-3401.4,1260.9,-1.2,1121.7,3621.3,864.6,0,2766,0,224,0, 
1.5400,-62.1,1104.9,1036.5,1161.3,1854.6,-1493.7,2214.9,767.7,-4297.8,1953.9,-7071.0,-2023.8,-2500.8,3258.3,2648.4,2460.0,-7.2,-6.0,-3398.4,1259.7,-0.6,1110.9,3622.2,858.9,0,2772,0,225,0, 
1.5433,-57.0,1114.8,1041.6,1162.8,1865.1,-1474.8,2217.9,771.9,-4297.8,1959.0,-6776.4,-1862.4,-2457.9,3174.9,2574.3,2445.0,-6.6,-5.7,-3401.4,1254.3,-0.9,1112.4,3609.0,871.2,0,2778,0,226,0, 
1.5467,-62.4,1094.7,1030.8,1155.6,1848.6,-1471.2,2217.0,768.6,-2519.4,1941.6,-6775.2,-1824.6,-2357.7,3281.4,4214.4,2450.4,-6.6,-5.7,-3406.8,1231.2,-0.9,1092.6,3632.7,892.5,0,2784,0,227,0, 
1.5500,-66.0,1097.4,1040.7,1162.8,1853.7,-1483.5,2215.8,771.3,-1556.1,1949.4,-7147.2,-2151.9,-2366.4,3427.2,5298.9,2457.0,-6.9,-6.3,-3393.9,1248.3,-0.3,1110.9,3626.7,872.4,0,2790,0,228,0, 
1.5533,-66.6,1087.2,1028.7,1158.6,1846.8,-1475.4,2215.8,765.0,-2445.3,1947.9,-7358.1,-2410.8,-2378.4,3403.8,4334.7,2451.0,-6.9,-5.7,-3390.6,1245.0,-0.9,1106.7,3616.8,913.5,0,2796,0,229,0, 
1.5567,-73.5,1072.5,1018.2,1148.7,1838.7,-1474.2,2216.4,754.8,-4149.6,1941.9,-7281.3,-2326.5,-2458.2,3252.9,2654.7,2440.2,-6.9,-5.7,-3397.2,1236.6,-0.9,1090.5,3623.4,923.1,0,2802,0,230,0, 
1.5600,-68.7,1080.9,1015.5,1141.5,1826.4,-1500.6,2202.3,748.2,-4223.7,1929.3,-7046.7,-2072.1,-2435.7,3188.1,2601.6,2436.0,-7.2,-5.7,-3408.0,1224.0,-0.3,1079.4,3599.1,845.1,0,2808,0,231,0, 
1.5633,-69.0,1077.6,1019.4,1148.7,1823.7,-1494.9,2202.3,753.9,-2667.6,1927.2,-7005.3,-2097.9,-2373.3,3288.3,4230.9,2452.8,-7.2,-5.7,-3402.9,1233.3,-0.6,1102.5,3593.7,823.2,0,2814,0,232,0, 
1.5667,-64.5,1076.4,1017.0,1151.4,1837.5,-1488.9,2211.0,760.5,-1556.1,1928.7,-7264.8,-2361.9,-2356.5,3401.1,5282.7,2456.7,-6.9,-5.4,-3413.4,1240.2,-1.2,1105.5,3620.7,855.3,0,2820,0,233,0, 
1.5700,-81.3,1074.0,1013.7,1146.6,1829.1,-1488.0,2207.4,753.3,-2667.6,1931.1,-7579.5,-2510.7,-2464.8,3378.0,4306.5,2461.2,-6.6,-6.3,-3425.1,1231.5,-0.9,1077.6,3619.5,856.5,0,2826,0,234,0, 
1.5733,-72.0,1074.9,1014.0,1152.6,1834.5,-1494.0,2202.0,755.4,-4297.8,1941.0,-7470.9,-2331.9,-2562.3,3270.0,2646.3,2445.3,-7.2,-5.7,-3426.3,1239.0,-1.2,1106.7,3611.1,827.1,0,2832,0,235,0, 
1.5767,-60.6,1088.1,1032.3,1162.5,1848.9,-1484.1,2210.7,760.8,-4223.7,1947.9,-7083.6,-2011.5,-2540.4,3198.6,2599.8,2448.6,-7.2,-5.7,-3396.6,1246.2,-0.9,1110.9,3628.5,835.8,0,2838,0,236,0, 
1.5800,-66.0,1085.4,1033.5,1167.6,1858.5,-1479.9,2211.3,766.8,-2519.4,1965.6,-7072.5,-2138.4,-2425.5,3312.0,4250.7,2457.6,-6.9,-5.4,-3393.0,1239.0,-0.6,1110.3,3636.3,855.0,0,2844,0,237,0, 
1.5833,-66.9,1092.3,1040.1,1168.5,1852.5,-1490.1,2212.8,769.8,-1259.7,1968.0,-7265.7,-2424.3,-2325.9,3438.3,5347.8,2460.0,-6.9,-5.7,-3388.5,1245.0,-0.6,1121.7,3632.1,850.8,0,2850,0,238,0, 
1.5867,-62.1,1100.1,1044.0,1170.0,1854.3,-1489.5,2210.4,765.3,-2371.2,1949.1,-7520.7,-2580.6,-2397.0,3426.6,4384.2,2472.3,-6.9,-6.0,-3390.3,1253.1,-1.2,1114.2,3622.8,843.9,0,2856,0,239,0, 
1.5900,-67.2,1080.0,1044.3,1173.0,1855.8,-1481.7,2214.9,759.0,-4149.6,1957.5,-7258.5,-2357.7,-2421.3,3296.4,2725.2,2470.2,-6.9,-6.0,-3393.3,1272.0,-0.9,1125.3,3634.2,863.1,0,2862,0,240,0, 
1.5933,-68.4,1065.6,1037.4,1171.5,1856.4,-1485.3,2216.4,754.8,-4075.5,1965.0,-6954.0,-2139.9,-2400.9,3236.7,2665.8,2477.4,-6.9,-5.7,-3387.6,1267.2,-0.6,1130.1,3648.0,858.9,0,2868,0,241,0, 
1.5967,-66.9,1068.3,1029.6,1161.9,1851.3,-1491.3,2214.6,749.7,-2445.3,1956.9,-6697.8,-2187.3,-2340.9,3337.5,4306.2,2479.2,-6.6,-5.7,-3398.1,1255.2,-0.9,1126.2,3655.2,861.9,0,2874,0,242,0, 
1.6000,-51.6,1099.2,1045.2,1164.6,1853.7,-1482.0,2219.1,763.8,-1482.0,1956.0,-6906.0,-2446.2,-2348.4,3436.5,5357.7,2475.3,-6.9,-6.0,-3396.3,1253.7,-1.2,1115.1,3663.3,870.0,0,2880,0,243,0, 
1.6033,-55.8,1098.0,1042.8,1162.8,1853.7,-1487.1,2217.0,760.5,-2371.2,1950.3,-6992.7,-2549.1,-2378.1,3412.2,4377.0,2474.1,-6.9,-6.0,-3400.2,1258.5,-0.6,1122.3,3634.5,858.6,0,2886,0,244,0, 
1.6067,-64.8,1087.2,1044.3,1167.0,1860.9,-1486.5,2218.5,756.6,-4149.6,1959.0,-6839.7,-2403.3,-2432.7,3284.7,2708.4,2470.2,-6.9,-5.7,-3401.7,1264.5,-0.9,1120.5,3646.5,868.5,0,2892,0,245,0, 
1.6100,-60.0,1071.9,1032.9,1158.3,1855.8,-1488.3,2214.9,751.5,-4223.7,1959.6,-6457.5,-2250.3,-2437.8,3233.7,2652.6,2464.5,-6.9,-5.4,-3413.1,1252.2,-0.6,1103.4,3637.8,897.9,0,2898,0,246,0, 
1.6133,-54.6,1083.6,1044.9,1166.4,1863.6,-1474.2,2220.9,763.2,-2519.4,1956.0,-6291.9,-2272.5,-2409.0,3315.6,4275.6,2464.5,-6.9,-5.7,-3410.4,1264.8,-0.9,1101.9,3635.4,945.0,0,2904,0,247,0, 
1.6167,-61.8,1089.3,1043.4,1160.4,1856.1,-1470.3,2223.9,761.7,-1556.1,1949.7,-6565.2,-2549.1,-2393.4,3438.3,5316.6,2468.1,-6.9,-6.0,-3418.2,1264.5,-0.6,1092.9,3646.5,949.2,0,2910,0,248,0, 
1.6200,-56.7,1092.6,1049.7,1165.8,1851.3,-1492.2,2214.3,762.0,-2593.5,1937.4,-6611.7,-2652.0,-2391.9,3416.1,4348.5,2464.2,-6.6,-5.7,-3419.7,1257.0,-0.9,1101.6,3657.0,882.6,0,2916,0,249,0, 
1.6233,-57.6,1086.0,1047.0,1162.8,1842.6,-1503.6,2207.7,751.5,-4149.6,1939.8,-6360.9,-2444.4,-2448.0,3282.0,2677.2,2460.3,-6.6,-5.7,-3405.6,1252.8,-0.6,1111.8,3639.0,827.7,0,2922,0,250,0, 
1.6267,-60.9,1086.0,1048.5,1165.2,1852.8,-1490.7,2214.9,753.9,-4149.6,1941.9,-6028.8,-2250.6,-2462.1,3201.9,2608.2,2461.5,-6.6,-5.7,-3407.1,1254.3,-0.9,1115.4,3631.8,834.9,0,2928,0,251,0, 
1.6300,-69.6,1073.7,1040.7,1159.8,1847.7,-1486.8,2215.8,755.4,-2519.4,1939.8,-5927.7,-2323.5,-2403.6,3317.4,4229.4,2450.7,-6.6,-6.0,-3414.0,1246.2,-0.9,1115.1,3634.2,826.8,0,2934,0,252,0, 
1.6333,-63.9,1086.6,1044.0,1157.4,1846.2,-1495.8,2214.3,759.6,-1704.3,1931.4,-6224.7,-2633.4,-2417.1,3439.8,5291.1,2455.2,-6.9,-5.7,-3415.8,1243.2,-1.2,1101.3,3643.5,809.1,0,2940,0,253,0, 
1.6367,-59.1,1105.2,1050.0,1160.7,1842.3,-1496.1,2210.1,764.1,-2593.5,1933.5,-6359.4,-2699.1,-2444.4,3407.4,4315.5,2433.6,-6.9,-6.0,-3419.4,1245.6,-0.6,1113.9,3616.5,829.8,0,2946,0,254,0, 
1.6400,-64.2,1092.0,1046.4,1164.9,1847.7,-1489.8,2214.3,762.3,-4297.8,1935.6,-6283.2,-2612.7,-2457.9,3252.0,2634.0,2444.4,-7.5,-6.0,-3417.9,1246.8,-0.9,1107.9,3625.2,855.6,0,2952,0,255,0, 
1.6433,-62.1,1089.6,1053.3,1172.7,1858.5,-1473.9,2218.5,769.2,-4297.8,1947.0,-5968.2,-2388.6,-2452.8,3182.4,2570.7,2443.5,-6.6,-5.4,-3399.9,1256.7,-0.9,1111.8,3619.5,888.6,0,2958,0,0,0, 
1.6467,-62.1,1092.9,1047.6,1171.2,1856.7,-1479.9,2216.1,767.1,-2741.7,1922.7,-5863.8,-2497.5,-2415.6,3277.8,4184.7,2442.6,-6.6,-5.7,-3401.1,1251.6,-0.9,1097.7,3622.2,888.3,0,2964,0,1,0, 
1.6500,-68.4,1070.4,1038.3,1165.2,1851.9,-1473.9,2219.4,766.2,-1556.1,1925.4,-6039.0,-2778.6,-2346.9,3413.4,5260.5,2446.2,-6.9,-5.7,-3410.4,1262.1,-0.6,1103.1,3646.2,895.2,0,2970,0,2,0, 
1.6533,-81.0,1066.8,1030.2,1158.6,1839.3,-1493.1,2207.1,755.4,-2445.3,1934.7,-6320.1,-2893.2,-2409.9,3383.4,4261.8,2447.7,-7.2,-6.0,-3406.5,1237.2,-0.9,1079.7,3641.7,856.5,0,2976,0,3,0, 
1.6567,-72.9,1074.9,1033.2,1164.0,1844.7,-1475.7,2217.3,754.8,-4223.7,1926.6,-5967.3,-2655.6,-2534.4,3250.2,2597.1,2449.8,-6.6,-5.4,-3402.6,1237.2,-0.3,1095.6,3655.5,879.6,0,2982,0,4,0, 
1.6600,-68.7,1098.0,1041.6,1166.7,1845.0,-1494.9,2203.5,747.9,-4223.7,1932.0,-5562.3,-2523.3,-2479.5,3183.9,2537.1,2437.2,-6.6,-6.3,-3401.1,1227.0,-0.9,1082.7,3608.7,840.0,0,2988,0,5,0, 
1.6633,-67.2,1104.6,1050.9,1166.1,1839.6,-1501.5,2200.8,753.3,-2593.5,1919.7,-5483.1,-2586.6,-2387.1,3282.3,4162.5,2427.9,-6.6,-6.0,-3409.5,1233.9,-1.2,1093.5,3606.0,844.2,0,2994,0,6,0, 
1.6667,-74.1,1084.8,1043.1,1161.9,1843.8,-1494.3,2204.7,757.5,-1556.1,1927.5,-5769.3,-2887.2,-2347.8,3399.9,5222.7,2436.6,-6.3,-5.7,-3415.5,1240.5,-0.9,1099.5,3620.1,852.9,0,3000,0,7,0, 
1.6700,-79.8,1076.7,1038.6,1153.8,1823.4,-1501.5,2203.8,750.9,-2667.6,1928.1,-5913.3,-2941.8,-2444.7,3393.6,4239.9,2441.7,-6.9,-6.0,-3402.0,1240.5,-0.9,1092.3,3620.1,825.9,0,3006,0,8,0, 
1.6733,-63.9,1089.6,1040.7,1155.3,1824.3,-1502.7,2211.3,750.9,-4371.9,1923.6,-5760.3,-2704.5,-2501.1,3273.0,2572.8,2447.1,-7.2,-5.7,-3405.0,1225.2,-0.9,1099.8,3633.3,846.6,0,3012,0,9,0, 
1.6767,-73.5,1066.2,1032.6,1156.5,1830.9,-1488.3,2213.7,747.3,-4297.8,1925.1,-5388.0,-2579.4,-2455.5,3193.5,2529.3,2466.3,-7.2,-5.7,-3415.8,1235.4,-0.9,1092.3,3642.6,853.2,0,3018,0,10,0, 
1.6800,-65.1,1058.1,1033.8,1163.1,1838.4,-1494.0,2215.5,756.9,-2593.5,1935.9,-5222.1,-2556.0,-2346.6,3326.1,4181.7,2466.0,-6.9,-6.0,-3412.5,1241.1,-0.9,1099.2,3625.5,843.0,0,3024,0,11,0, 
1.6833,-71.7,1060.8,1033.5,1160.7,1833.3,-1491.6,2211.3,759.0,-1556.1,1923.3,-5457.3,-2776.8,-2331.9,3424.8,5239.5,2457.9,-7.2,-5.7,-3421.2,1233.0,-0.9,1104.9,3630.0,848.7,0,3030,0,12,0, 
1.6867,-74.4,1059.0,1020.0,1150.5,1821.3,-1496.7,2211.0,748.5,-2667.6,1925.7,-5639.4,-2901.3,-2432.1,3394.2,4256.4,2461.5,-6.6,-6.0,-3432.3,1223.1,-0.6,1103.4,3648.6,859.8,0,3036,0,13,0, 
1.6900,-76.8,1086.6,1031.7,1153.2,1824.0,-1497.3,2205.9,746.7,-4149.6,1929.0,-5383.2,-2625.0,-2582.4,3225.6,2547.3,2436.9,-6.9,-5.7,-3424.8,1228.5,-0.9,1097.7,3633.0,878.4,0,3042,0,14,0, 
1.6933,-70.8,1094.7,1047.0,1164.0,1835.7,-1491.9,2203.5,747.3,-4297.8,1921.5,-5113.2,-2443.2,-2484.6,3180.9,2511.0,2445.0,-7.2,-5.4,-3405.0,1228.2,-0.9,1094.7,3621.6,873.9,0,3048,0,15,0, 
1.6967,-75.3,1090.8,1045.8,1161.3,1833.6,-1499.4,2200.8,750.6,-2519.4,1936.2,-5017.5,-2505.0,-2415.3,3304.8,4162.5,2447.7,-6.6,-5.7,-3408.3,1224.0,-0.9,1092.0,3613.2,857.4,0,3054,0,16,0, 
1.7000,-79.8,1070.7,1031.1,1150.5,1817.1,-1500.6,2201.1,742.8,-1630.2,1914.3,-5288.1,-2774.1,-2368.8,3439.5,5240.7,2462.1,-6.9,-6.6,-3429.3,1211.4,-0.6,1081.5,3613.8,857.1,0,3060,0,17,0, 
1.7033,-75.3,1087.8,1053.0,1172.4,1842.0,-1481.7,2210.7,757.2,-2667.6,1948.8,-5507.4,-2946.6,-2431.8,3416.1,4263.9,2444.7,-6.9,-5.1,-3403.5,1234.2,-0.9,1109.7,3639.9,852.6,0,3066,0,18,0, 
1.7067,-66.9,1102.8,1051.8,1172.7,1847.7,-1470.9,2220.9,755.4,-4223.7,1955.7,-5271.9,-2739.3,-2478.9,3263.4,2600.1,2454.3,-7.5,-6.0,-3397.2,1241.4,-0.9,1111.8,3666.6,854.7,0,3072,0,19,0, 
1.7100,-69.3,1097.4,1044.0,1166.1,1832.4,-1473.0,2217.9,748.2,-4297.8,1947.6,-4852.8,-2533.5,-2428.8,3181.2,2549.4,2461.8,-6.9,-5.4,-3405.3,1245.0,-0.9,1095.0,3650.4,852.3,0,3078,0,20,0, 
1.7133,-66.6,1082.1,1033.2,1155.0,1820.1,-1471.2,2215.2,748.2,-2593.5,1904.4,-4801.2,-2592.3,-2395.8,3284.1,4171.8,2449.8,-6.9,-6.0,-3426.9,1209.0,-0.6,1098.6,3639.3,856.5,0,3084,0,21,0, 
1.7167,-67.5,1087.8,1038.0,1156.5,1815.6,-1478.7,2204.1,758.7,-1482.0,1923.9,-5017.2,-2922.0,-2360.1,3403.8,5239.8,2445.0,-6.9,-6.0,-3433.5,1218.3,-0.6,1097.1,3612.6,848.4,0,3090,0,22,0, 
1.7200,-61.5,1085.1,1038.6,1160.7,1823.4,-1469.7,2217.0,765.3,-2445.3,1932.3,-5330.1,-3032.4,-2417.4,3400.5,4265.7,2457.3,-7.2,-5.7,-3433.2,1209.9,-0.6,1091.4,3638.4,854.4,0,3096,0,23,0, 
1.7233,-67.8,1077.6,1046.7,1163.4,1825.8,-1477.5,2208.6,756.0,-4075.5,1944.0,-5197.2,-2826.0,-2442.9,3259.2,2585.4,2451.6,-6.9,-6.0,-3412.5,1232.4,-0.9,1113.0,3627.0,841.5,0,3102,0,24,0, 
1.7267,-64.2,1085.1,1056.3,1173.6,1839.6,-1463.1,2214.0,755.4,-4149.6,1950.0,-4804.5,-2564.1,-2439.3,3180.0,2514.0,2451.3,-6.9,-5.1,-3399.6,1266.9,-0.9,1118.7,3640.8,881.7,0,3108,0,25,0, 
1.7300,-64.8,1084.5,1057.8,1182.6,1853.4,-1445.4,2226.9,764.1,-2519.4,1954.2,-4757.7,-2698.2,-2385.6,3286.8,4159.5,2458.5,-7.5,-5.4,-3411.6,1277.1,-0.6,1127.7,3641.1,928.8,0,3114,0,26,0, 
1.7333,-73.2,1075.5,1049.7,1176.3,1851.6,-1448.1,2219.1,762.6,-1630.2,1942.2,-4994.7,-2920.2,-2354.4,3417.6,5214.9,2452.8,-6.9,-5.1,-3413.1,1270.8,-0.6,1120.5,3638.7,876.0,0,3120,0,27,0, 
1.7367,-69.9,1085.4,1052.7,1181.1,1848.9,-1451.4,2223.6,764.1,-2593.5,1950.0,-5228.4,-3056.7,-2424.6,3391.5,4239.6,2473.5,-6.9,-6.0,-3402.9,1269.3,-1.2,1124.1,3654.6,831.9,0,3126,0,28,0, 
1.7400,-61.5,1100.4,1059.0,1182.9,1847.7,-1457.4,2221.5,759.6,-4223.7,1957.8,-5078.1,-2904.6,-2486.7,3252.9,2552.4,2464.2,-6.6,-5.1,-3394.2,1264.5,-0.9,1122.9,3644.7,832.2,0,3132,0,29,0, 
1.7433,-61.8,1089.6,1044.6,1175.1,1838.7,-1450.5,2222.4,748.5,-4297.8,1929.9,-4800.6,-2667.0,-2549.7,3196.5,2484.3,2474.7,-6.9,-6.0,-3427.2,1256.4,-0.9,1109.1,3645.6,857.1,0,3138,0,30,0, 
1.7467,-62.4,1091.4,1045.8,1174.2,1845.0,-1444.8,2220.9,753.9,-2593.5,1921.5,-4867.2,-2761.5,-2375.4,3311.1,4161.0,2470.5,-6.9,-6.3,-3422.1,1256.7,-0.6,1106.1,3657.0,881.7,0,3144,0,31,0, 
1.7500,-66.3,1092.6,1047.0,1174.2,1835.4,-1462.5,2223.9,759.6,-1556.1,1921.8,-5058.3,-2985.9,-2403.3,3416.1,5207.7,2451.9,-7.2,-6.3,-3417.0,1246.2,-0.9,1088.7,3643.5,861.0,0,3150,0,32,0, 
1.7533,-66.3,1092.3,1052.1,1175.7,1846.5,-1450.5,2223.9,765.9,-2741.7,1925.1,-5341.8,-3068.4,-2483.4,3391.8,4205.7,2449.8,-6.9,-5.7,-3422.1,1246.8,-0.6,1107.0,3635.1,862.5,0,3156,0,33,0, 
1.7567,-57.6,1100.7,1060.5,1187.7,1860.0,-1450.8,2227.2,769.8,-4149.6,1939.2,-5255.7,-2932.2,-2451.9,3261.3,2540.7,2454.0,-7.5,-6.0,-3416.7,1261.5,-0.9,1113.0,3650.7,879.3,0,3162,0,34,0, 
1.7600,-59.1,1094.4,1059.0,1187.7,1853.1,-1440.9,2224.8,772.8,-4223.7,1933.2,-4931.1,-2721.6,-2400.6,3195.0,2490.3,2443.8,-6.9,-5.7,-3419.7,1259.1,-0.9,1121.7,3635.4,886.2,0,3168,0,35,0, 
1.7633,-67.8,1078.8,1041.6,1173.0,1847.1,-1446.0,2225.1,768.0,-2519.4,1929.0,-4755.0,-2727.6,-2403.0,3279.9,4116.9,2452.5,-7.2,-6.3,-3443.4,1248.3,-0.6,1098.6,3635.1,909.9,0,3174,0,36,0, 
1.7667,-71.1,1074.6,1038.9,1174.2,1845.9,-1444.2,2229.9,766.5,-1556.1,1922.7,-4970.7,-3010.8,-2394.0,3407.7,5157.9,2449.5,-6.6,-5.4,-3433.5,1245.3,-0.9,1092.3,3666.3,921.6,0,3180,0,37,0, 
1.7700,-52.8,1095.9,1051.8,1183.8,1860.6,-1428.9,2238.9,778.5,-2667.6,1953.9,-5127.0,-3103.2,-2319.0,3384.3,4194.6,2462.7,-6.9,-6.0,-3413.1,1259.4,-0.3,1105.2,3649.8,924.9,0,3186,0,38,0, 
1.7733,-47.7,1102.8,1050.3,1179.6,1851.6,-1445.1,2229.3,763.8,-4371.9,1924.5,-4949.1,-2922.0,-2474.1,3256.2,2517.9,2451.6,-6.9,-6.3,-3425.1,1247.1,-0.9,1104.3,3644.1,885.6,0,3192,0,39,0, 
1.7767,-55.2,1101.6,1047.3,1177.2,1846.8,-1461.6,2223.9,763.8,-4371.9,1914.9,-4688.4,-2743.5,-2512.5,3181.8,2477.7,2459.4,-7.2,-6.0,-3432.3,1245.0,-0.9,1099.5,3639.3,856.5,0,3198,0,40,0, 
1.7800,-55.2,1095.3,1038.9,1168.5,1838.4,-1469.4,2226.0,759.3,-2593.5,1911.0,-4660.5,-2854.2,-2387.7,3269.4,4105.2,2460.3,-6.9,-5.4,-3451.8,1236.0,-0.9,1098.9,3633.0,835.5,0,3204,0,41,0, 
1.7833,-59.7,1088.4,1050.6,1170.6,1843.5,-1465.2,2225.1,771.9,-1556.1,1936.5,-4758.0,-3086.1,-2370.3,3422.4,5183.4,2462.7,-6.9,-5.7,-3440.7,1248.3,-0.6,1101.6,3635.4,850.2,0,3210,0,42,0, 
1.7867,-61.2,1075.2,1049.1,1171.8,1840.2,-1460.4,2225.7,765.9,-2593.5,1940.1,-5056.2,-3210.9,-2406.3,3391.2,4210.5,2471.7,-6.9,-5.7,-3434.7,1250.4,-0.9,1121.7,3649.5,853.8,0,3216,0,43,0, 
1.7900,-59.1,1065.3,1041.3,1166.7,1833.9,-1459.8,2226.9,760.5,-4149.6,1928.4,-4927.2,-3084.9,-2442.0,3269.7,2542.2,2480.4,-6.9,-5.7,-3450.0,1239.6,-0.6,1106.7,3654.6,832.2,0,3222,0,44,0, 
1.7933,-53.1,1068.6,1036.5,1163.1,1834.5,-1456.5,2229.6,761.1,-4371.9,1923.6,-4601.7,-2796.9,-2406.6,3210.0,2490.0,2486.7,-6.9,-5.7,-3466.5,1236.3,-0.9,1108.8,3648.0,860.4,0,3228,0,45,0, 
1.7967,-57.3,1064.7,1035.6,1159.2,1833.3,-1452.6,2231.7,764.4,-2519.4,1926.6,-4731.3,-3001.8,-2403.0,3312.9,4120.2,2486.4,-6.9,-6.0,-3460.5,1236.3,-0.9,1092.6,3645.9,900.9,0,3234,0,46,0, 
1.8000,-57.3,1080.0,1050.0,1168.5,1836.9,-1449.9,2229.6,775.5,-1630.2,1943.7,-4862.1,-3210.9,-2371.8,3431.4,5180.4,2484.0,-6.9,-5.4,-3447.3,1245.0,-0.9,1106.1,3632.7,919.8,0,3240,0,47,0, 
1.8033,-59.1,1088.4,1047.9,1164.0,1830.6,-1457.7,2224.2,771.6,-2519.4,1934.4,-5096.7,-3310.5,-2416.5,3397.2,4187.4,2467.2,-6.9,-5.7,-3452.4,1242.9,-0.6,1104.3,3639.0,866.7,0,3246,0,48,0, 
1.8067,-52.5,1104.6,1051.2,1166.4,1830.3,-1446.9,2229.0,771.0,-4297.8,1913.7,-4955.1,-3067.2,-2501.4,3255.3,2513.4,2461.8,-6.6,-5.7,-3456.0,1237.5,-0.9,1087.8,3650.1,872.1,0,3252,0,49,0, 
1.8100,-57.0,1091.7,1049.7,1169.4,1832.1,-1434.6,2233.5,774.6,-4297.8,1922.7,-4703.1,-2921.4,-2471.7,3190.2,2465.7,2454.9,-6.6,-5.7,-3454.8,1244.7,-0.9,1101.0,3631.2,889.2,0,3258,0,50,0, 
1.8133,-52.8,1088.4,1051.5,1175.7,1835.1,-1434.3,2232.9,779.4,-2519.4,1924.5,-4577.1,-3011.4,-2403.0,3306.3,4119.0,2462.4,-6.9,-6.0,-3462.3,1246.8,-1.2,1098.6,3609.6,906.9,0,3264,0,51,0, 
1.8167,-60.0,1087.5,1050.9,1168.5,1832.1,-1445.1,2227.5,772.8,-1630.2,1918.5,-4797.3,-3227.4,-2370.3,3414.0,5168.7,2458.8,-6.6,-6.0,-3459.0,1244.4,-0.9,1089.0,3645.0,879.9,0,3270,0,52,0, 
1.8200,-69.0,1078.5,1038.9,1157.7,1818.9,-1474.2,2211.3,760.2,-2519.4,1928.4,-5060.1,-3343.8,-2478.0,3372.3,4173.9,2463.3,-6.9,-6.0,-3457.8,1239.3,-0.6,1108.5,3651.3,821.4,0,3276,0,53,0, 
1.8233,-63.0,1080.3,1032.9,1152.9,1822.2,-1467.9,2214.0,753.6,-4297.8,1919.4,-5019.0,-3129.9,-2446.8,3234.3,2504.1,2459.4,-6.3,-6.0,-3453.6,1235.7,-0.6,1089.6,3627.9,840.0,0,3282,0,54,0, 
1.8267,-63.0,1074.6,1037.4,1152.9,1821.6,-1456.8,2223.0,759.0,-4223.7,1939.2,-4791.6,-2946.6,-2491.8,3173.4,2452.2,2459.7,-6.9,-6.0,-3449.1,1242.3,-0.9,1095.9,3636.3,852.9,0,3288,0,55,0, 
1.8300,-65.1,1077.0,1038.3,1150.2,1818.3,-1456.5,2218.2,767.1,-2815.8,1921.2,-4785.6,-3125.1,-2370.9,3287.7,4085.1,2450.7,-6.9,-6.0,-3445.8,1237.8,-0.3,1094.4,3610.8,840.3,0,3294,0,56,0, 
1.8333,-65.7,1074.3,1042.5,1155.6,1818.3,-1459.5,2223.9,771.9,-1704.3,1921.5,-4971.3,-3336.6,-2364.0,3404.7,5143.8,2461.5,-7.2,-5.7,-3446.4,1236.9,-1.2,1097.4,3629.7,834.6,0,3300,0,57,0, 
1.8367,-62.4,1097.7,1050.3,1161.3,1821.9,-1458.6,2221.8,768.3,-2741.7,1928.4,-5144.4,-3451.2,-2408.4,3375.3,4141.2,2452.2,-7.2,-6.0,-3444.9,1245.0,-0.6,1098.0,3636.3,842.1,0,3306,0,58,0, 
1.8400,-63.0,1116.6,1050.9,1161.6,1814.4,-1449.9,2234.1,769.2,-4223.7,1917.0,-4986.9,-3352.8,-2521.8,3217.2,2467.8,2451.0,-6.9,-6.3,-3444.6,1244.7,-0.9,1095.0,3644.4,849.9,0,3312,0,59,0, 
1.8433,-54.9,1124.7,1060.2,1167.9,1825.8,-1449.0,2232.3,768.3,-4446.0,1914.0,-4719.6,-3056.7,-2452.5,3149.4,2425.5,2461.2,-6.6,-6.0,-3442.2,1259.4,-0.9,1103.1,3637.5,851.1,0,3318,0,60,0, 
1.8467,-65.1,1091.1,1050.9,1164.3,1824.6,-1458.9,2220.3,767.7,-2593.5,1913.7,-4581.0,-3143.1,-2389.5,3263.1,4061.4,2449.2,-6.6,-5.4,-3453.0,1230.6,-0.9,1100.4,3631.5,833.7,0,3324,0,61,0, 
1.8500,-63.6,1069.2,1040.1,1167.3,1823.4,-1456.8,2224.5,770.1,-1556.1,1939.8,-4834.8,-3442.8,-2412.9,3416.1,5126.1,2460.9,-6.6,-6.3,-3450.3,1246.5,-0.6,1109.7,3638.1,845.1,0,3330,0,62,0, 
1.8533,-61.2,1065.0,1040.7,1170.0,1825.2,-1439.7,2232.0,768.6,-2815.8,1923.6,-5050.2,-3560.1,-2350.2,3399.3,4148.7,2474.4,-7.2,-5.7,-3448.2,1247.4,-0.6,1091.4,3647.7,895.5,0,3336,0,63,0, 
1.8567,-62.7,1059.3,1039.8,1167.6,1827.6,-1444.2,2226.6,756.0,-4297.8,1929.0,-4907.4,-3318.9,-2399.1,3266.7,2484.0,2465.1,-7.2,-5.7,-3446.7,1251.3,-0.9,1090.2,3637.8,887.7,0,3342,0,64,0, 
1.8600,-64.2,1054.8,1032.3,1157.7,1822.2,-1448.1,2226.3,746.1,-4297.8,1930.5,-4582.2,-3151.5,-2421.0,3194.7,2438.1,2469.6,-6.9,-5.4,-3451.8,1242.6,-1.2,1087.8,3645.3,878.4,0,3348,0,65,0, 
1.8633,-60.6,1072.2,1032.0,1151.1,1812.0,-1449.0,2230.2,754.5,-2815.8,1924.8,-4493.7,-3250.2,-2421.3,3290.1,4069.2,2476.2,-6.9,-5.7,-3456.6,1245.9,-0.9,1102.2,3646.5,902.4,0,3354,0,66,0, 
1.8667,-60.6,1092.9,1042.2,1159.8,1821.3,-1447.8,2232.0,763.2,-1704.3,1916.4,-4688.7,-3527.1,-2374.5,3405.3,5126.4,2464.5,-7.2,-5.7,-3452.4,1246.8,-1.2,1088.7,3685.8,889.5,0,3360,0,67,0, 
1.8700,-57.6,1089.6,1045.8,1160.7,1829.4,-1441.5,2233.8,767.7,-2815.8,1922.1,-4872.3,-3645.6,-2405.1,3399.3,4123.2,2453.4,-7.2,-6.0,-3452.1,1244.4,-0.3,1103.7,3643.5,891.9,0,3366,0,68,0, 
1.8733,-58.8,1090.5,1042.2,1159.2,1831.2,-1436.4,2236.2,763.8,-4297.8,1922.7,-4842.0,-3445.8,-2472.0,3250.8,2443.5,2452.8,-6.9,-6.3,-3464.4,1239.9,-0.9,1089.0,3629.1,894.3,0,3372,0,69,0, 
1.8767,-57.0,1102.5,1044.9,1161.9,1824.3,-1442.4,2230.5,765.3,-4223.7,1931.1,-4469.7,-3251.1,-2495.7,3185.4,2395.2,2451.3,-7.2,-6.0,-3455.1,1240.8,-0.9,1090.2,3632.7,889.5,0,3378,0,70,0, 
1.8800,-75.0,1071.6,1023.6,1141.2,1800.9,-1463.4,2219.4,751.5,-2593.5,1913.1,-4427.4,-3343.2,-2416.5,3300.6,4036.5,2466.9,-7.5,-6.0,-3470.4,1218.6,-0.6,1066.5,3644.1,842.7,0,3384,0,71,0, 
1.8833,-67.2,1084.5,1033.2,1146.3,1810.8,-1457.1,2223.3,761.7,-1556.1,1927.8,-4720.2,-3636.3,-2331.9,3426.9,5105.7,2459.7,-7.2,-6.3,-3465.6,1227.9,-0.9,1084.5,3630.6,843.6,0,3390,0,72,0, 
1.8867,-49.8,1095.3,1037.7,1149.6,1807.2,-1449.3,2223.6,763.8,-2667.6,1916.4,-4793.4,-3646.8,-2349.9,3384.9,4095.3,2442.9,-6.6,-5.7,-3469.8,1237.5,-0.6,1090.2,3627.3,843.3,0,3396,0,73,0, 
1.8900,-68.4,1084.8,1032.3,1149.0,1794.6,-1457.1,2218.5,753.3,-4297.8,1925.4,-4610.4,-3456.3,-2508.6,3244.5,2432.4,2468.1,-6.9,-5.7,-3464.1,1239.3,-0.6,1096.2,3625.8,819.3,0,3402,0,74,0, 
1.8933,-68.1,1093.2,1036.8,1156.5,1802.1,-1455.3,2222.1,752.7,-4297.8,1923.3,-4286.1,-3253.8,-2466.9,3182.1,2409.3,2469.0,-6.9,-6.3,-3454.8,1242.0,-0.6,1097.7,3618.9,831.6,0,3408,0,75,0, 
1.8967,-66.6,1089.9,1035.3,1158.0,1811.7,-1447.2,2220.0,757.8,-2667.6,1920.9,-4254.6,-3345.3,-2393.4,3280.8,4044.9,2459.4,-6.9,-5.7,-3465.6,1241.1,-1.2,1104.9,3613.8,876.3,0,3414,0,76,0, 
1.9000,-61.8,1087.5,1041.0,1160.7,1816.2,-1444.5,2221.2,764.1,-1556.1,1924.2,-4483.2,-3621.6,-2379.3,3405.3,5097.6,2446.5,-7.2,-6.0,-3461.7,1245.9,-0.9,1098.6,3628.5,857.4,0,3420,0,77,0, 
1.9033,-68.1,1088.1,1043.7,1160.4,1817.1,-1448.7,2223.6,762.9,-2741.7,1929.0,-4635.0,-3628.8,-2419.8,3376.8,4112.4,2451.9,-6.6,-6.0,-3453.3,1246.5,-0.6,1116.6,3641.1,833.4,0,3426,0,78,0, 
1.9067,-56.1,1085.4,1044.6,1165.8,1820.7,-1444.5,2232.3,762.0,-4223.7,1931.7,-4502.4,-3545.1,-2490.0,3242.4,2466.0,2464.5,-7.2,-6.3,-3445.5,1242.0,-0.9,1113.0,3639.3,842.1,0,3432,0,79,0, 
1.9100,-63.6,1084.8,1030.5,1153.2,1804.8,-1447.2,2221.2,753.3,-4297.8,1915.2,-4122.0,-3345.3,-2439.6,3173.4,2437.8,2460.3,-6.6,-5.7,-3475.2,1230.6,-0.9,1100.4,3632.4,834.6,0,3438,0,80,0, 
1.9133,-61.5,1059.3,1023.9,1150.5,1808.4,-1444.8,2226.3,757.2,-2593.5,1929.0,-3996.0,-3408.9,-2345.1,3283.5,4076.1,2471.7,-6.9,-6.0,-3480.3,1233.9,-0.9,1089.6,3631.8,838.2,0,3444,0,81,0, 
1.9167,-58.8,1086.0,1040.4,1160.7,1812.9,-1435.2,2225.7,766.8,-1704.3,1952.7,-4199.7,-3658.2,-2343.3,3413.4,5103.6,2454.3,-6.6,-5.7,-3460.8,1234.8,-0.9,1096.8,3624.0,851.7,0,3450,0,82,0, 
1.9200,-64.2,1084.2,1032.9,1145.1,1801.2,-1456.8,2223.0,753.0,-2667.6,1924.2,-4420.5,-3781.2,-2437.8,3374.1,4094.4,2448.6,-6.6,-5.7,-3478.5,1218.3,-0.6,1075.2,3630.3,822.3,0,3456,0,83,0, 
1.9233,-64.8,1078.5,1027.5,1140.0,1797.9,-1455.3,2225.4,744.0,-4446.0,1920.0,-4400.4,-3619.8,-2510.1,3219.6,2409.0,2441.4,-6.6,-6.0,-3492.3,1222.5,-1.2,1083.3,3636.6,825.6,0,3462,0,84,0, 
1.9267,-65.7,1077.0,1040.7,1154.4,1816.2,-1432.5,2231.4,751.5,-4371.9,1931.4,-4154.7,-3409.5,-2450.7,3169.5,2391.0,2463.3,-6.9,-5.7,-3472.5,1247.4,-0.9,1099.5,3633.9,884.1,0,3468,0,85,0, 
1.9300,-70.2,1075.5,1038.9,1149.3,1817.4,-1424.7,2234.7,753.3,-2593.5,1930.8,-4074.3,-3575.7,-2417.4,3292.2,4048.8,2467.5,-6.6,-6.0,-3477.6,1248.6,-0.9,1090.5,3645.9,909.9,0,3474,0,86,0, 
1.9333,-66.9,1081.8,1035.0,1149.3,1811.4,-1442.1,2226.9,756.9,-1704.3,1916.7,-4250.1,-3782.4,-2395.2,3434.7,5125.2,2439.3,-7.2,-6.3,-3485.7,1241.7,-0.6,1092.9,3624.6,893.4,0,3480,0,87,0, 
1.9367,-60.3,1082.1,1039.5,1152.0,1815.0,-1422.6,2237.1,760.8,-2667.6,1908.6,-4590.9,-3926.4,-2349.9,3393.9,4116.9,2463.3,-6.9,-5.7,-3485.1,1249.5,-0.9,1105.2,3648.0,940.5,0,3486,0,88,0, 
1.9400,-57.3,1084.2,1049.7,1160.1,1822.5,-1431.6,2227.8,757.8,-4371.9,1928.1,-4469.1,-3778.2,-2465.1,3216.9,2409.6,2455.2,-6.3,-5.7,-3472.8,1241.1,-0.6,1093.8,3625.8,905.4,0,3492,0,89,0, 
1.9433,-51.3,1080.9,1043.4,1153.8,1823.4,-1449.3,2223.6,752.4,-4446.0,1919.1,-4053.6,-3615.6,-2456.4,3174.6,2378.7,2456.4,-7.2,-5.7,-3481.8,1243.5,-0.6,1092.9,3624.3,858.0,0,3498,0,90,0, 
1.9467,-48.6,1096.2,1052.7,1160.4,1827.6,-1443.3,2226.9,764.7,-2667.6,1924.2,-4012.8,-3738.0,-2411.7,3259.8,4029.0,2458.5,-6.9,-5.7,-3481.5,1242.9,-0.6,1099.5,3633.6,829.2,0,3504,0,91,0, 
1.9500,-63.0,1083.0,1040.4,1154.1,1824.6,-1448.1,2227.8,763.2,-1556.1,1910.4,-4379.4,-4024.2,-2421.0,3390.0,5063.1,2457.9,-7.2,-5.7,-3492.3,1236.3,-0.6,1105.2,3636.0,803.7,0,3510,0,92,0, 
1.9533,-69.6,1082.1,1050.3,1154.1,1825.5,-1451.4,2228.7,763.2,-2815.8,1929.0,-4534.2,-4018.2,-2494.8,3356.1,4041.0,2464.2,-7.2,-6.0,-3478.5,1243.2,-0.6,1111.8,3633.6,819.0,0,3516,0,93,0, 
1.9567,-70.8,1071.9,1042.5,1144.2,1813.8,-1456.5,2225.4,751.8,-4371.9,1909.5,-4391.1,-3798.0,-2461.2,3231.3,2382.0,2461.8,-6.6,-5.7,-3489.9,1226.7,-0.9,1084.8,3637.2,832.8,0,3522,0,94,0, 
1.9600,-66.0,1064.1,1053.0,1152.6,1819.5,-1437.9,2235.6,758.1,-4297.8,1922.4,-4094.7,-3645.9,-2387.1,3186.3,2387.1,2452.8,-6.9,-6.0,-3471.0,1233.0,-1.2,1098.6,3647.7,855.3,0,3528,0,95,0, 
1.9633,-63.6,1052.4,1050.0,1154.4,1823.4,-1448.4,2233.2,764.1,-2593.5,1927.2,-3995.4,-3725.7,-2316.9,3296.1,4049.1,2461.5,-6.6,-6.0,-3477.3,1237.2,-0.9,1086.0,3633.0,833.7,0,3534,0,96,0, 
1.9667,-56.4,1069.5,1058.1,1159.5,1831.5,-1441.2,2233.2,770.1,-1704.3,1936.8,-4283.7,-3997.2,-2298.3,3430.8,5109.0,2455.2,-7.2,-6.0,-3477.3,1247.4,-0.6,1097.1,3635.7,849.6,0,3540,0,97,0, 
1.9700,-68.4,1071.9,1048.2,1149.0,1823.1,-1426.2,2234.1,757.2,-2741.7,1929.3,-4473.6,-4152.6,-2376.9,3381.0,4085.4,2452.8,-6.6,-6.0,-3486.6,1235.7,-1.2,1079.7,3641.1,888.0,0,3546,0,98,0, 
1.9733,-69.0,1077.6,1052.4,1156.5,1825.5,-1434.9,2227.8,753.6,-4297.8,1930.5,-4354.8,-3972.6,-2457.9,3255.3,2421.6,2457.0,-7.2,-6.0,-3480.9,1226.1,-0.3,1078.2,3622.5,896.1,0,3552,0,99,0, 
1.9767,-65.7,1080.6,1056.6,1153.2,1819.2,-1439.7,2225.7,749.4,-4297.8,1928.7,-4074.9,-3796.8,-2420.1,3187.2,2417.7,2457.0,-7.2,-5.7,-3475.8,1221.3,-0.9,1082.1,3626.7,873.9,0,3558,0,100,0, 
1.9800,-61.8,1085.1,1060.5,1153.5,1820.4,-1446.3,2225.4,755.1,-2741.7,1928.7,-3985.8,-3818.1,-2385.9,3308.1,4080.6,2459.7,-6.6,-5.7,-3476.7,1229.1,-0.6,1095.0,3631.5,852.0,0,3564,0,101,0, 
1.9833,-63.0,1084.5,1056.0,1154.4,1839.3,-1418.7,2236.8,761.1,-1630.2,1928.1,-4263.9,-4081.2,-2371.5,3423.6,5143.5,2470.8,-6.6,-5.4,-3488.4,1238.4,-0.6,1086.6,3675.0,905.4,0,3570,0,102,0, 
1.9867,-65.4,1112.4,1060.5,1151.1,1834.2,-1423.2,2238.6,759.6,-2593.5,1914.9,-4456.2,-4199.7,-2443.5,3364.2,4123.8,2483.7,-6.9,-6.3,-3492.9,1237.2,-0.9,1082.1,3689.7,890.4,0,3576,0,103,0, 
1.9900,-54.3,1128.6,1065.3,1157.4,1823.1,-1428.6,2232.6,761.1,-4223.7,1919.7,-4304.4,-4000.8,-2519.1,3226.2,2460.0,2462.7,-6.6,-6.0,-3490.8,1240.8,-0.6,1092.9,3634.8,856.2,0,3582,0,104,0, 
1.9933,-62.4,1128.3,1069.2,1158.6,1827.0,-1435.8,2227.2,760.5,-4223.7,1906.5,-3879.0,-3765.0,-2529.0,3174.0,2453.7,2450.7,-7.2,-6.0,-3491.4,1244.7,-0.9,1096.5,3622.8,833.7,0,3588,0,105,0, 
1.9967,-65.7,1097.1,1067.7,1162.2,1826.7,-1427.1,2230.8,762.6,-2519.4,1928.7,-3763.8,-3783.0,-2424.6,3276.6,4135.2,2466.0,-6.9,-5.4,-3485.1,1255.2,-0.3,1102.5,3641.1,838.8,0,3594,0,106,0, 
2.0000,-63.9,1106.1,1068.9,1162.5,1827.9,-1441.2,2221.8,764.7,-1556.1,1938.9,-3939.6,-4114.5,-2445.0,3429.0,5208.3,2463.0,-6.9,-6.0,-3487.8,1254.6,-0.6,1100.1,3613.2,846.9,0,3600,0,107,0, 
2.0033,-60.9,1075.2,1053.3,1158.0,1828.5,-1422.6,2236.5,762.9,-2741.7,1930.8,-4301.4,-4160.7,-2411.1,3408.9,4211.7,2458.5,-6.9,-6.0,-3507.0,1233.9,-0.6,1086.0,3634.5,898.5,0,3606,0,108,0, 
2.0067,-60.6,1078.8,1056.3,1152.0,1819.2,-1429.5,2237.1,762.3,-4075.5,1924.2,-4167.9,-4067.7,-2420.7,3261.6,2554.8,2454.6,-7.2,-5.7,-3499.5,1244.4,-0.9,1084.5,3623.7,846.0,0,3612,0,109,0, 
2.0100,-66.0,1065.6,1051.8,1151.4,1821.9,-1431.3,2236.2,756.9,-4223.7,1928.1,-3774.3,-3888.0,-2344.8,3174.6,2526.9,2449.2,-6.9,-6.3,-3491.4,1252.8,-0.6,1107.3,3617.4,861.6,0,3618,0,110,0, 
2.0133,-69.3,1049.7,1040.1,1145.4,1821.6,-1421.1,2241.0,756.9,-2445.3,1915.5,-3690.9,-3894.9,-2280.0,3270.0,4189.2,2451.0,-7.5,-5.7,-3499.2,1246.5,-0.9,1094.1,3607.8,878.1,0,3624,0,111,0, 
2.0167,-67.8,1055.4,1044.6,1145.7,1821.0,-1449.3,2229.0,759.3,-1333.8,1913.4,-3899.7,-4152.9,-2304.9,3407.7,5228.4,2466.3,-6.9,-5.7,-3498.9,1247.7,-0.6,1092.9,3630.6,845.1,0,3630,0,112,0, 
2.0200,-70.2,1069.2,1048.8,1148.1,1824.3,-1446.9,2229.3,756.0,-2667.6,1929.0,-4125.6,-4200.9,-2409.0,3387.9,4221.9,2448.9,-6.9,-6.3,-3488.7,1247.7,-0.9,1104.3,3632.7,815.7,0,3636,0,113,0, 
2.0233,-66.9,1098.0,1053.0,1154.4,1831.5,-1437.6,2230.2,755.1,-4371.9,1937.4,-4022.7,-4048.8,-2472.9,3229.8,2554.2,2455.5,-6.6,-5.7,-3486.0,1249.2,-0.6,1103.4,3621.9,830.7,0,3642,0,114,0, 
2.0267,-65.7,1082.1,1047.6,1151.4,1830.0,-1425.6,2234.1,753.6,-4297.8,1918.8,-3711.9,-3821.4,-2410.8,3198.9,2557.2,2453.7,-7.2,-6.0,-3493.2,1245.3,-0.9,1098.3,3633.0,853.8,0,3648,0,115,0, 
2.0300,-58.8,1083.3,1057.8,1157.4,1837.5,-1430.4,2237.7,762.6,-2371.2,1937.4,-3532.5,-3842.1,-2316.3,3320.7,4246.5,2457.6,-6.3,-6.0,-3479.1,1243.2,-0.6,1120.5,3647.7,863.7,0,3654,0,116,0, 
2.0333,-60.9,1080.9,1048.8,1148.1,1821.3,-1432.8,2234.4,760.5,-1407.9,1935.9,-3663.9,-4061.1,-2324.7,3443.1,5302.8,2463.0,-6.9,-6.0,-3505.8,1209.9,-0.9,1099.5,3658.2,857.7,0,3660,0,117,0, 
2.0367,-64.2,1075.2,1035.9,1140.9,1808.7,-1430.1,2232.3,753.9,-2519.4,1932.6,-3878.4,-4141.8,-2432.4,3422.4,4295.1,2476.5,-6.9,-6.0,-3515.4,1216.5,-0.9,1104.0,3651.3,872.4,0,3666,0,118,0, 
2.0400,-56.4,1099.2,1059.9,1166.4,1846.2,-1401.3,2241.0,760.2,-4149.6,1946.4,-3717.0,-4035.0,-2422.8,3278.4,2641.2,2470.2,-6.6,-5.7,-3472.5,1271.1,-1.2,1123.2,3663.3,933.0,0,3672,0,119,0, 
2.0433,-54.6,1090.2,1070.4,1167.0,1850.7,-1404.9,2238.6,755.7,-4075.5,1935.9,-3396.3,-3806.7,-2393.4,3243.6,2636.4,2458.8,-6.6,-5.7,-3464.1,1280.1,-0.6,1120.2,3646.5,894.6,0,3678,0,120,0, 
2.0467,-57.6,1086.9,1057.5,1154.1,1830.6,-1423.5,2231.1,755.4,-2371.2,1942.2,-3405.0,-3871.5,-2364.0,3336.6,4290.0,2454.9,-6.6,-6.0,-3491.1,1250.1,-0.9,1114.5,3664.8,831.9,0,3684,0,121,0, 
2.0500,-59.1,1091.1,1053.6,1152.6,1827.0,-1424.1,2225.1,761.1,-1407.9,1935.6,-3720.3,-4219.2,-2347.5,3460.2,5335.5,2454.6,-6.6,-5.7,-3501.0,1248.6,-0.9,1106.1,3624.9,854.4,0,3690,0,122,0, 
2.0533,-60.0,1107.0,1049.4,1145.7,1821.0,-1429.2,2223.9,754.8,-2519.4,1919.1,-3948.0,-4288.2,-2453.7,3435.6,4296.9,2451.6,-6.6,-5.7,-3504.3,1239.3,-1.2,1093.2,3629.7,860.7,0,3696,0,123,0, 
2.0567,-50.4,1116.0,1050.6,1144.8,1821.3,-1435.2,2225.7,756.0,-3927.3,1916.4,-3797.4,-4136.7,-2519.1,3286.5,2629.2,2454.0,-6.9,-6.0,-3507.3,1242.9,-0.6,1089.0,3636.6,838.2,0,3702,0,124,0, 
2.0600,-60.0,1098.6,1043.4,1139.4,1816.8,-1439.4,2223.6,751.2,-3927.3,1911.0,-3464.7,-3891.6,-2484.0,3214.8,2595.6,2448.0,-6.9,-6.0,-3513.9,1243.5,-0.6,1090.2,3618.6,846.9,0,3708,0,125,0, 
2.0633,-60.6,1089.9,1046.7,1143.9,1816.5,-1436.1,2220.0,758.4,-2445.3,1917.3,-3378.6,-3949.8,-2380.2,3334.8,4262.1,2443.5,-6.9,-5.7,-3507.9,1252.5,-1.2,1091.4,3616.5,856.2,0,3714,0,126,0, 
2.0667,-62.7,1092.6,1047.6,1144.5,1821.3,-1432.8,2222.1,764.1,-1482.0,1914.9,-3642.3,-4275.6,-2321.7,3447.9,5307.9,2443.8,-6.9,-5.7,-3503.4,1257.6,-0.9,1091.1,3621.3,867.9,0,3720,0,127,0, 
2.0700,-66.6,1065.6,1044.3,1145.7,1821.9,-1430.7,2222.7,755.7,-2445.3,1935.3,-3774.6,-4279.2,-2333.4,3422.4,4284.3,2448.6,-6.9,-6.0,-3508.8,1262.1,-0.9,1103.7,3630.6,880.5,0,3726,0,128,0, 
2.0733,-70.8,1065.6,1040.4,1144.8,1822.5,-1423.8,2235.6,747.9,-4149.6,1933.5,-3528.3,-4116.0,-2379.9,3285.3,2631.0,2460.3,-7.2,-5.7,-3506.7,1254.0,-0.6,1100.1,3655.2,879.9,0,3732,0,129,0, 
2.0767,-64.5,1079.4,1049.1,1153.2,1818.9,-1432.5,2232.9,751.8,-4075.5,1934.4,-3179.4,-3927.9,-2381.7,3218.1,2626.2,2461.8,-6.6,-6.0,-3488.7,1259.1,-0.9,1091.7,3651.6,881.4,0,3738,0,130,0, 
2.0800,-61.8,1085.7,1057.2,1155.0,1828.8,-1435.5,2233.5,760.2,-2371.2,1944.3,-3021.9,-4045.2,-2306.4,3324.0,4281.0,2460.0,-7.2,-6.0,-3481.8,1257.9,-0.3,1108.5,3629.4,857.1,0,3744,0,131,0, 
2.0833,-62.7,1085.1,1052.4,1151.7,1825.5,-1428.9,2240.1,763.5,-1407.9,1935.9,-3306.9,-4232.7,-2300.4,3450.3,5336.7,2472.0,-7.2,-6.0,-3495.3,1252.8,-0.9,1098.6,3650.1,867.6,0,3750,0,132,0, 
2.0867,-67.2,1080.0,1047.0,1146.3,1822.2,-1429.8,2229.0,759.9,-2445.3,1922.4,-3366.9,-4296.9,-2370.3,3433.8,4328.4,2447.4,-7.2,-6.0,-3483.0,1250.1,-0.6,1098.6,3625.8,870.6,0,3756,0,133,0, 
2.0900,-61.2,1090.5,1054.8,1154.4,1832.1,-1422.0,2234.7,759.0,-4149.6,1923.0,-3180.3,-4086.6,-2448.3,3286.5,2671.8,2433.9,-6.6,-6.0,-3482.4,1262.4,-1.2,1104.3,3629.1,877.8,0,3762,0,134,0, 
2.0933,-62.7,1093.5,1062.0,1161.3,1837.8,-1427.4,2231.4,762.6,-4075.5,1939.2,-2672.4,-3799.5,-2464.8,3221.7,2684.1,2456.7,-7.2,-6.3,-3486.9,1261.8,-0.9,1100.4,3627.9,841.5,0,3768,0,135,0, 
2.0967,-69.6,1092.6,1055.4,1156.5,1825.8,-1425.3,2226.9,765.0,-2445.3,1925.1,-2428.5,-3807.0,-2383.5,3322.2,4363.2,2446.5,-6.9,-5.7,-3503.7,1257.9,-1.2,1097.7,3604.2,842.4,0,3774,0,136,0, 
2.1000,-62.7,1090.5,1050.0,1149.3,1817.7,-1427.1,2223.9,770.7,-1333.8,1923.0,-2431.5,-4042.5,-2347.5,3446.1,5436.9,2434.8,-6.6,-5.7,-3505.5,1251.9,-0.9,1101.3,3614.1,848.4,0,3780,0,137,0, 
2.1033,-63.6,1111.2,1049.4,1152.9,1821.3,-1428.6,2230.5,770.4,-2371.2,1897.8,-2609.7,-4165.2,-2463.6,3385.2,4406.4,2435.1,-7.2,-5.4,-3511.2,1248.6,-0.9,1091.4,3638.4,870.0,0,3786,0,138,0, 
2.1067,-64.5,1108.2,1058.1,1163.4,1840.5,-1415.4,2243.7,776.1,-3853.2,1912.5,-2390.4,-4014.3,-2624.7,3250.5,2778.6,2437.8,-6.6,-5.7,-3503.1,1260.9,-0.6,1101.9,3627.3,907.5,0,3792,0,139,0, 
2.1100,-66.0,1101.6,1055.4,1161.0,1836.9,-1426.5,2239.8,771.3,-3927.3,1926.6,-1884.3,-3790.8,-2548.5,3219.0,2791.5,2446.8,-7.2,-6.0,-3498.0,1256.4,-0.6,1098.6,3615.9,883.2,0,3798,0,140,0, 
2.1133,-67.8,1069.5,1053.0,1159.2,1833.6,-1427.7,2235.9,770.4,-2148.9,1920.0,-1720.2,-3888.9,-2293.2,3366.0,4430.1,2443.2,-6.9,-6.0,-3505.8,1254.3,-0.6,1103.4,3624.0,841.5,0,3804,0,141,0, 
2.1167,-71.7,1075.8,1056.3,1155.0,1825.8,-1428.0,2228.7,765.3,-1333.8,1929.3,-1832.1,-4046.7,-2241.9,3454.8,5448.0,2445.9,-7.2,-6.0,-3495.0,1248.3,-0.9,1101.0,3604.5,805.5,0,3810,0,142,0, 
2.1200,-66.6,1089.9,1061.7,1164.9,1835.1,-1406.1,2246.1,773.1,-2297.1,1933.2,-1980.0,-4131.6,-2313.0,3405.9,4410.3,2442.6,-7.2,-5.7,-3489.3,1266.0,-0.9,1092.3,3644.4,890.4,0,3816,0,143,0, 
2.1233,-74.1,1068.9,1046.7,1159.5,1830.0,-1407.6,2243.4,763.2,-3779.1,1899.6,-1781.1,-3893.4,-2437.2,3287.4,2749.2,2448.0,-7.2,-6.0,-3505.8,1233.9,-0.6,1091.4,3660.6,874.8,0,3822,0,144,0, 
