Time,P3,C3,F3,Fz,F4,C4,P4,Cz,CM,A1,Fp1,Fp2,T3,T5,O1,O2,X3,X2,F7,F8,X1,A2,T6,T4,Trigger,Time_Offset,ADC_Status,ADC_Sequence,Event,Comments
0.0033,-607.5,-660.0,-1840.8,-743.7,-611.4,659.4,-829.2,195.9,-2889.9,-706.2,-504.6,-516.0,12.6,4437.9,1779.3,-3984.0,-6.9,-5.7,-926.7,-1070.4,-0.6,-635.7,1419.9,533.4,0,6,0,147,0, 
0.0067,-477.0,-555.3,-1701.9,-205.8,-76.5,434.1,-295.2,150.6,-2741.7,-171.3,32.1,19.2,245.7,4463.7,1299.3,-3925.5,-6.6,-5.7,-387.6,-1323.3,-0.6,-99.3,1399.2,956.7,0,12,0,148,0, 
0.0100,-353.7,-439.8,-1576.8,132.0,264.6,139.8,49.2,154.8,-2297.1,164.1,365.7,357.0,450.6,4520.7,725.7,-3813.9,-7.2,-6.0,-52.5,-978.9,-0.9,242.4,1291.8,1221.9,0,18,0,149,0, 
0.0133,-381.0,-536.7,-1582.2,-296.7,-166.8,195.3,-377.4,180.6,-2519.4,-268.5,-61.5,-69.6,316.8,4427.1,772.8,-3869.1,-6.9,-6.0,-478.2,-572.7,-1.2,-189.0,1264.5,897.9,0,24,0,150,0, 
0.0167,-498.9,-712.5,-1688.4,-903.9,-775.5,522.0,-976.5,192.3,-2741.7,-874.8,-666.9,-679.5,124.5,4379.7,1541.1,-4014.0,-6.6,-6.3,-1086.3,-573.9,-0.6,-796.8,1343.4,408.0,0,30,0,151,0, 
0.0200,-596.1,-766.8,-1712.7,-942.0,-808.5,723.0,-1015.5,138.9,-3038.1,-917.1,-701.7,-714.0,95.4,4400.4,1903.5,-4075.2,-6.9,-6.0,-1122.3,-1114.5,-1.2,-830.7,1374.3,353.1,0,36,0,152,0, 
0.0233,-439.2,-618.9,-1575.3,-386.7,-257.1,496.2,-470.7,133.2,-2889.9,-369.3,-152.7,-159.9,324.3,4464.6,1487.7,-4068.3,-7.2,-5.7,-570.0,-1392.0,-0.9,-275.7,1321.8,800.7,0,42,0,153,0, 
0.0267,-338.4,-520.2,-1442.1,-73.5,62.4,243.6,-160.2,195.0,-2593.5,-45.6,167.1,155.7,389.4,4447.2,906.6,-3957.6,-6.9,-6.0,-253.2,-1026.9,-0.9,37.5,1185.9,1067.4,0,48,0,154,0, 
0.0300,-452.4,-612.3,-1411.8,-639.3,-511.8,257.4,-726.0,189.6,-2741.7,-609.6,-401.4,-410.1,286.2,4344.9,1011.6,-4112.1,-6.9,-5.7,-819.9,-690.6,-0.6,-526.8,1103.1,593.7,0,54,0,155,0, 
0.0333,-601.8,-747.0,-1446.6,-1169.4,-1037.7,638.1,-1254.0,142.2,-2964.0,-1143.9,-934.8,-943.2,32.4,4189.2,1648.8,-4244.1,-6.9,-5.7,-1356.6,-761.4,0.0,-1064.7,1132.2,167.4,0,60,0,156,0, 
0.0367,-587.4,-741.3,-1483.2,-1193.7,-1062.9,894.6,-1285.8,197.7,-3334.5,-1169.1,-960.0,-967.5,76.8,4197.9,2079.3,-4305.6,-6.9,-6.0,-1376.1,-1183.2,-0.6,-1096.5,1382.4,149.7,0,66,0,157,0, 
0.0400,-502.5,-556.2,-1391.4,-621.9,-497.4,636.9,-711.9,96.3,-3186.3,-583.2,-384.9,-390.9,320.7,4222.8,1605.3,-4237.5,-6.9,-6.0,-802.8,-1529.4,-0.6,-511.8,1374.3,613.5,0,72,0,158,0, 
0.0433,-340.5,-428.7,-1291.5,-278.4,-151.2,287.7,-370.8,156.9,-2964.0,-249.3,-42.6,-45.0,537.9,4245.9,1090.5,-4130.1,-6.9,-6.3,-456.6,-1176.0,-0.6,-165.9,1261.2,887.1,0,78,0,159,0, 
0.0467,-430.5,-535.2,-1274.4,-669.9,-541.2,363.0,-761.4,212.4,-2889.9,-644.1,-432.6,-442.5,449.4,4210.5,1152.3,-4157.7,-7.2,-5.7,-850.2,-846.3,-0.6,-566.1,1162.5,574.5,0,84,0,160,0, 
0.0500,-544.5,-641.1,-1364.7,-1271.4,-1146.0,788.7,-1363.5,191.1,-3112.2,-1246.2,-1036.8,-1048.5,190.2,4155.6,1823.4,-4261.5,-6.9,-6.0,-1455.3,-800.7,-0.9,-1165.5,1299.3,87.9,0,90,0,161,0, 
0.0533,-647.7,-770.7,-1384.2,-1229.7,-1101.9,889.8,-1326.6,77.1,-3334.5,-1209.3,-995.1,-1005.3,117.0,4065.0,2157.0,-4332.6,-7.2,-6.0,-1416.9,-1295.4,-0.3,-1131.0,1439.7,106.2,0,96,0,162,0, 
0.0567,-528.3,-608.1,-1289.7,-665.1,-543.0,723.3,-763.5,64.5,-3260.4,-638.7,-430.5,-438.3,280.5,4129.2,1644.3,-4275.9,-6.9,-5.7,-844.5,-1605.0,-0.3,-561.6,1397.1,550.5,0,102,0,163,0, 
0.0600,-359.4,-371.7,-1123.2,-300.0,-173.4,526.8,-397.5,211.5,-2815.8,-274.2,-66.6,-75.6,521.7,4140.3,1155.3,-4087.5,-6.9,-5.7,-485.7,-1229.1,-0.9,-198.6,1302.0,857.4,0,108,0,164,0, 
0.0633,-435.0,-445.8,-1212.0,-774.9,-651.6,575.1,-873.6,161.7,-2889.9,-753.9,-549.3,-557.7,350.1,3982.5,1118.1,-4188.0,-6.9,-5.7,-965.1,-888.0,-0.6,-679.8,1178.1,455.7,0,114,0,165,0, 
0.0667,-514.8,-593.1,-1213.2,-1242.0,-1117.5,1011.0,-1342.5,207.0,-3186.3,-1220.1,-1012.8,-1023.0,151.5,3953.7,1769.1,-4251.0,-6.9,-6.0,-1429.2,-892.2,-0.9,-1143.6,1304.1,126.0,0,120,0,166,0, 
0.0700,-537.6,-703.5,-1205.1,-1233.6,-1109.7,1111.2,-1333.2,194.7,-3408.6,-1204.2,-1002.9,-1011.3,96.3,3934.5,2022.9,-4335.0,-6.6,-5.7,-1414.5,-1209.0,-0.9,-1128.3,1362.3,104.7,0,126,0,167,0, 
0.0733,-442.8,-599.7,-1197.9,-664.2,-534.0,775.5,-762.0,150.6,-3112.2,-636.9,-432.9,-436.2,277.2,3974.7,1535.7,-4274.4,-7.2,-5.7,-846.3,-1534.5,-0.3,-561.0,1335.6,558.0,0,132,0,168,0, 
0.0767,-344.1,-404.7,-1047.9,-335.1,-212.4,538.5,-431.7,257.1,-2815.8,-303.9,-102.9,-111.0,408.9,4010.7,928.5,-4161.3,-6.9,-6.0,-509.4,-1288.2,-0.9,-232.2,1221.9,836.4,0,138,0,169,0, 
0.0800,-447.6,-519.9,-1065.6,-774.0,-649.5,561.9,-866.7,159.9,-2964.0,-741.0,-542.1,-550.5,262.2,3853.8,952.8,-4240.2,-7.2,-6.0,-955.2,-952.2,-0.6,-662.7,1068.3,511.5,0,144,0,170,0, 
0.0833,-474.0,-591.9,-1065.3,-1260.0,-1134.0,1003.2,-1345.8,222.3,-3112.2,-1228.2,-1031.7,-1036.2,142.2,3910.5,1617.6,-4283.7,-7.2,-6.3,-1440.9,-909.6,-0.6,-1152.3,1243.8,140.1,0,150,0,171,0, 
0.0867,-521.7,-603.3,-1110.0,-1263.9,-1139.1,1157.4,-1351.2,108.6,-3408.6,-1237.8,-1027.5,-1033.5,66.3,3911.7,1927.8,-4396.8,-6.6,-5.7,-1441.8,-1296.9,-0.9,-1150.5,1333.5,127.5,0,156,0,172,0, 
0.0900,-397.8,-447.9,-1012.2,-711.0,-593.1,940.8,-802.5,136.5,-3260.4,-682.2,-477.9,-488.1,293.4,3922.8,1494.9,-4288.8,-7.2,-6.3,-888.3,-1531.2,-0.6,-599.4,1251.3,532.2,0,162,0,173,0, 
0.0933,-315.3,-340.5,-951.0,-388.5,-268.8,552.9,-480.9,116.1,-3038.1,-360.3,-156.6,-163.5,410.7,3864.0,759.6,-4255.8,-7.2,-6.0,-566.4,-1237.5,-0.6,-280.8,1099.2,785.4,0,168,0,174,0, 
0.0967,-255.0,-292.5,-910.5,-720.3,-602.7,624.0,-814.5,173.7,-2889.9,-691.2,-488.4,-498.9,328.8,3881.1,797.7,-4198.2,-6.6,-5.7,-899.7,-804.3,-0.6,-614.1,1011.6,544.2,0,174,0,175,0, 
0.1000,-336.3,-447.9,-1053.6,-1300.8,-1176.3,975.3,-1383.9,252.6,-3260.4,-1263.6,-1065.3,-1070.1,31.5,3774.6,1440.0,-4346.7,-6.6,-6.0,-1477.8,-864.0,-0.9,-1188.9,1124.4,78.6,0,180,0,176,0, 
0.1033,-322.5,-480.0,-1047.0,-1182.9,-1056.9,1120.8,-1264.8,305.4,-3334.5,-1144.5,-946.8,-951.9,-70.2,3742.2,1733.7,-4384.2,-6.9,-5.7,-1355.4,-1369.5,-0.6,-1068.3,1197.3,164.1,0,186,0,177,0, 
0.1067,-252.9,-399.9,-1032.0,-602.7,-479.4,770.4,-690.6,253.2,-3186.3,-568.8,-369.0,-373.2,128.4,3886.2,1199.4,-4294.2,-6.6,-5.4,-775.8,-1470.9,-0.9,-494.4,1173.0,624.9,0,192,0,178,0, 
0.1100,-191.4,-250.8,-919.2,-276.3,-153.0,453.0,-367.8,192.3,-2964.0,-245.4,-42.6,-50.7,194.4,3801.0,470.4,-4197.9,-6.9,-5.7,-451.5,-1260.6,-0.9,-159.6,1046.4,908.4,0,198,0,179,0, 
0.1133,-272.1,-274.5,-836.7,-687.0,-560.4,546.3,-767.7,201.0,-2964.0,-646.5,-450.0,-451.8,118.2,3751.2,484.2,-4182.0,-6.9,-6.0,-862.2,-738.3,-0.6,-564.3,1002.6,592.8,0,204,0,180,0, 
0.1167,-365.1,-447.0,-919.2,-1239.9,-1108.5,875.4,-1324.2,208.5,-3112.2,-1210.5,-1005.0,-1009.2,-107.1,3674.4,1112.1,-4345.2,-7.2,-6.3,-1416.0,-897.3,-0.6,-1129.2,1071.3,128.4,0,210,0,181,0, 
0.1200,-407.4,-563.4,-883.2,-1185.9,-1065.3,1028.4,-1276.5,201.6,-3334.5,-1147.5,-951.0,-953.7,-144.3,3703.5,1292.1,-4334.7,-7.2,-5.4,-1363.5,-1300.5,-0.3,-1070.4,1160.7,163.8,0,216,0,182,0, 
0.1233,-269.7,-372.0,-792.0,-523.2,-406.8,796.2,-617.4,222.9,-3260.4,-486.0,-288.0,-297.9,96.3,3724.5,802.2,-4254.6,-6.9,-5.7,-700.5,-1458.3,-0.9,-412.8,1110.3,677.1,0,222,0,183,0, 
0.1267,-157.5,-231.6,-678.6,-167.7,-50.1,464.7,-260.4,199.2,-2667.6,-128.7,70.5,60.9,256.2,3791.4,96.9,-4088.4,-6.3,-6.0,-340.5,-1119.0,-0.3,-57.6,979.8,978.6,0,228,0,184,0, 
0.1300,-221.4,-294.0,-739.2,-552.9,-429.6,514.8,-643.8,135.6,-2741.7,-519.6,-316.8,-325.2,84.0,3696.3,61.5,-4092.9,-7.2,-6.0,-726.9,-731.7,-0.3,-441.3,879.6,674.7,0,234,0,185,0, 
0.1333,-342.0,-465.9,-847.8,-1071.9,-950.4,840.0,-1161.3,220.8,-3112.2,-1046.1,-837.6,-843.9,-120.0,3597.3,677.7,-4210.2,-6.6,-5.7,-1249.5,-859.8,-0.9,-965.7,938.4,302.1,0,240,0,186,0, 
0.1367,-342.9,-497.7,-888.9,-943.8,-822.3,982.8,-1036.5,165.3,-3112.2,-908.4,-711.3,-712.5,-140.7,3641.1,992.7,-4195.8,-6.6,-6.0,-1121.7,-1169.4,-0.6,-836.7,1023.0,406.8,0,246,0,187,0, 
0.1400,-199.8,-261.6,-871.5,-291.0,-179.1,723.6,-384.6,130.5,-2815.8,-260.4,-58.2,-61.5,117.6,3782.7,421.8,-4073.7,-7.5,-6.0,-472.2,-1249.8,-0.9,-184.5,1004.1,923.1,0,252,0,188,0, 
0.1433,-128.7,-199.5,-828.3,5.4,129.0,321.6,-96.9,162.9,-2667.6,37.2,239.7,235.2,255.0,3693.9,-317.1,-3989.4,-7.2,-5.7,-171.6,-1043.7,-0.9,113.1,967.5,1177.5,0,258,0,189,0, 
0.1467,-198.3,-309.9,-889.8,-380.1,-258.6,443.7,-479.1,214.2,-2667.6,-356.1,-151.2,-153.3,151.2,3657.3,-290.7,-4006.2,-7.2,-6.0,-567.6,-597.0,-0.9,-276.3,929.7,881.1,0,264,0,190,0, 
0.1500,-357.6,-480.9,-960.9,-953.1,-830.7,804.0,-1056.0,225.3,-2964.0,-928.2,-720.9,-721.5,-104.4,3495.3,470.7,-4094.7,-7.2,-6.0,-1138.8,-627.9,-0.6,-846.3,941.1,394.2,0,270,0,191,0, 
0.1533,-298.8,-507.6,-1013.1,-840.3,-720.6,959.1,-938.4,197.4,-2964.0,-814.8,-606.6,-610.8,-265.2,3516.0,695.1,-4148.1,-7.2,-6.0,-1022.7,-1067.1,-0.9,-733.2,1000.5,483.9,0,276,0,192,0, 
0.1567,-196.8,-333.0,-872.7,-182.7,-64.2,653.4,-291.0,135.9,-2741.7,-160.5,44.7,44.1,-29.7,3513.9,150.9,-4027.8,-6.6,-5.7,-370.8,-1207.5,-0.6,-85.2,1051.8,1011.3,0,282,0,193,0, 
0.1600,-119.7,-224.1,-849.0,167.7,284.1,281.1,62.7,91.8,-2593.5,203.1,405.0,398.4,114.3,3520.2,-474.9,-3908.4,-6.9,-6.0,-6.0,-880.2,-0.9,276.0,928.2,1323.0,0,288,0,194,0, 
0.1633,-160.8,-286.5,-837.0,-174.6,-56.7,362.4,-286.2,58.2,-2519.4,-140.4,60.6,52.2,20.4,3465.6,-465.6,-3856.5,-6.6,-5.7,-353.7,-539.7,-0.6,-79.8,833.4,1046.1,0,294,0,195,0, 
0.1667,-253.2,-428.4,-928.2,-676.5,-557.1,694.5,-782.7,142.8,-2667.6,-649.2,-441.9,-447.9,-265.5,3465.6,92.7,-3978.3,-6.6,-6.0,-855.3,-540.9,-0.6,-579.0,875.7,648.6,0,300,0,196,0, 
0.1700,-323.1,-475.5,-1014.0,-654.6,-532.2,816.3,-758.4,10.2,-2889.9,-631.5,-422.4,-423.9,-442.2,3489.9,315.0,-4035.9,-7.2,-6.0,-839.1,-870.3,-0.9,-554.1,930.3,655.8,0,306,0,197,0, 
0.1733,-237.9,-375.3,-970.5,-49.8,72.9,504.9,-156.0,-108.9,-2519.4,-23.4,185.7,187.2,-297.6,3506.4,-266.7,-3946.2,-7.2,-6.0,-226.8,-1009.2,-0.9,52.2,820.2,1128.0,0,312,0,198,0, 
0.1767,-167.7,-209.4,-843.6,284.1,401.4,223.5,174.6,-15.9,-2371.2,313.2,510.0,511.8,-42.9,3552.0,-939.3,-3826.5,-6.6,-5.7,101.4,-755.1,-0.9,381.9,665.7,1394.4,0,318,0,199,0, 
0.1800,-230.7,-291.3,-765.9,-111.3,0.0,195.9,-222.0,66.9,-2223.0,-93.6,113.4,111.9,-192.3,3475.5,-885.6,-3855.6,-7.2,-5.7,-303.0,-339.3,-0.6,-19.5,585.0,1092.9,0,324,0,200,0, 
0.1833,-320.7,-328.5,-910.5,-597.6,-478.8,524.4,-703.5,136.8,-2593.5,-572.4,-369.9,-376.5,-344.4,3512.7,-213.3,-3912.3,-6.6,-5.7,-785.1,-394.2,-0.9,-496.2,638.4,709.8,0,330,0,201,0, 
0.1867,-316.8,-372.3,-942.6,-501.9,-379.2,679.8,-611.4,161.4,-2667.6,-485.4,-267.0,-270.0,-398.4,3637.8,165.0,-3904.5,-6.9,-6.0,-684.0,-801.9,-0.6,-408.0,720.3,781.8,0,336,0,202,0, 
0.1900,-159.0,-191.7,-913.2,83.7,203.4,435.0,-29.4,81.0,-2519.4,106.8,319.8,315.9,-162.6,3632.7,-341.1,-3837.6,-6.6,-5.7,-90.6,-939.6,-0.6,180.9,646.2,1233.6,0,342,0,203,0, 
0.1933,-116.1,-64.8,-905.7,434.7,550.8,51.3,313.8,52.2,-2223.0,450.9,669.6,666.3,-35.1,3674.1,-1094.1,-3745.2,-6.9,-5.7,260.7,-659.4,-0.9,527.7,402.0,1506.6,0,348,0,204,0, 
0.1967,-127.8,-99.9,-912.9,82.8,195.9,136.5,-33.9,151.2,-2148.9,98.4,317.4,312.9,-39.0,3622.2,-1084.2,-3737.1,-7.2,-6.0,-94.2,-209.4,-0.9,171.6,395.4,1262.7,0,354,0,205,0, 
0.2000,-188.4,-264.6,-1003.5,-461.7,-347.4,464.1,-576.6,200.7,-2371.2,-449.7,-228.6,-230.1,-288.3,3668.4,-507.6,-3867.0,-6.9,-6.0,-640.5,-270.6,-0.3,-377.4,450.0,829.5,0,360,0,206,0, 
0.2033,-243.3,-280.2,-1079.1,-365.1,-249.6,611.4,-477.6,192.3,-2519.4,-352.5,-127.2,-135.9,-283.5,3663.3,-163.5,-3918.9,-6.9,-6.0,-544.8,-690.0,-0.6,-275.7,525.9,880.2,0,366,0,207,0, 
0.2067,-189.6,-171.3,-1041.9,250.2,363.3,237.0,129.3,182.1,-2297.1,263.1,496.2,491.1,-26.1,3802.2,-697.5,-3802.8,-7.2,-5.4,80.4,-861.9,-0.9,344.7,507.9,1365.9,0,372,0,208,0, 
0.2100,-84.0,-136.5,-950.1,577.8,690.3,-51.0,456.9,201.9,-2000.7,589.8,829.2,821.4,94.2,3837.9,-1333.2,-3665.4,-6.6,-5.7,412.5,-470.1,-0.6,660.3,409.8,1640.4,0,378,0,209,0, 
0.2133,-174.6,-252.6,-942.6,183.9,299.4,-95.1,66.3,192.0,-2000.7,186.9,430.5,427.2,-9.9,3789.3,-1313.1,-3686.1,-6.6,-6.0,13.5,-179.1,-0.9,261.0,351.6,1306.8,0,384,0,210,0, 
0.2167,-355.2,-476.4,-1086.9,-375.6,-258.3,204.6,-495.0,118.8,-2519.4,-380.1,-132.9,-137.4,-355.8,3716.7,-675.9,-3862.8,-6.9,-5.7,-554.7,-243.0,-0.6,-300.0,414.9,842.4,0,390,0,211,0, 
0.2200,-327.3,-448.2,-1151.7,-315.3,-197.7,337.8,-438.0,125.4,-2445.3,-310.8,-57.6,-62.4,-396.6,3856.5,-265.5,-3816.9,-6.9,-5.4,-473.1,-599.4,-0.9,-238.2,460.8,894.6,0,396,0,212,0, 
0.2233,-212.7,-306.6,-1071.3,293.4,416.1,165.3,171.3,69.0,-2297.1,315.0,569.1,567.0,-141.0,3992.1,-737.7,-3746.7,-7.5,-6.0,148.8,-724.2,-0.9,381.0,417.0,1386.0,0,402,0,213,0, 
0.2267,-148.8,-163.2,-939.0,527.4,640.5,-277.2,399.0,83.4,-1926.6,526.8,801.9,804.0,61.5,3919.5,-1458.3,-3660.6,-7.2,-5.7,374.7,-582.6,-0.9,602.7,244.2,1531.2,0,408,0,214,0, 
0.2300,-216.0,-249.9,-958.8,146.1,260.1,-289.2,13.8,150.0,-2148.9,146.7,423.0,422.4,-54.0,3887.1,-1459.8,-3702.6,-6.6,-5.7,-4.2,-228.3,-0.6,219.6,267.0,1253.7,0,414,0,215,0, 
0.2333,-259.8,-379.2,-1118.4,-377.1,-263.4,85.5,-512.1,220.2,-2297.1,-386.1,-96.9,-94.5,-293.4,3918.0,-714.3,-3825.6,-7.2,-5.4,-521.4,-238.2,-0.9,-312.9,347.7,818.1,0,420,0,216,0, 
0.2367,-230.1,-341.7,-1122.6,-280.8,-168.6,261.0,-417.3,241.8,-2371.2,-283.8,13.8,13.2,-363.3,3990.9,-357.0,-3852.9,-7.2,-6.0,-413.4,-543.6,-0.6,-217.2,467.7,876.9,0,426,0,217,0, 
0.2400,-109.5,-228.9,-1052.4,360.6,469.2,-62.7,221.1,145.2,-2148.9,347.7,656.4,657.3,-124.2,4133.4,-816.6,-3729.9,-6.9,-5.7,230.1,-789.3,-0.9,420.9,442.2,1397.7,0,432,0,218,0, 
0.2433,-101.4,-203.1,-1016.4,640.8,750.6,-460.8,501.3,32.1,-1926.6,621.0,942.3,944.1,19.8,4055.7,-1556.1,-3645.6,-6.9,-6.0,504.9,-519.9,-0.3,693.3,222.3,1623.3,0,438,0,219,0, 
0.2467,-154.2,-130.8,-1005.9,239.4,350.4,-406.8,99.6,62.4,-1926.6,204.9,540.6,549.3,-34.8,4073.4,-1370.4,-3696.3,-6.9,-6.0,105.0,-135.3,-0.6,282.9,268.2,1306.5,0,444,0,220,0, 
0.2500,-182.7,-278.7,-1127.1,-245.4,-130.2,-26.4,-380.4,66.6,-2148.9,-273.0,66.0,73.5,-233.7,4141.2,-678.6,-3717.3,-6.6,-6.0,-375.6,-22.2,-0.6,-194.4,381.0,900.9,0,450,0,221,0, 
0.2533,-247.5,-355.8,-1261.8,-257.4,-149.7,57.3,-400.8,27.6,-2445.3,-288.0,53.7,60.6,-315.9,4130.1,-419.1,-3860.1,-6.9,-6.0,-379.5,-591.6,-0.6,-212.1,413.4,864.3,0,456,0,222,0, 
0.2567,-79.8,-223.2,-1219.5,331.5,438.9,-108.9,187.2,61.5,-2074.8,307.5,653.4,654.0,-141.0,4224.3,-819.0,-3759.3,-6.9,-6.0,214.2,-711.9,-0.9,375.0,431.4,1343.1,0,462,0,223,0, 
0.2600,-93.9,-194.1,-1169.4,585.0,693.0,-531.9,432.3,5.1,-2000.7,555.3,922.2,924.6,-32.4,4119.9,-1617.3,-3732.0,-6.9,-5.7,480.3,-552.0,-0.9,630.6,232.2,1551.0,0,468,0,224,0, 
0.2633,-102.3,-244.8,-1155.9,190.2,300.3,-417.0,41.4,74.1,-1926.6,152.4,523.8,525.0,18.9,4173.0,-1468.5,-3684.0,-6.9,-6.0,77.1,-85.2,-0.6,231.3,207.0,1224.3,0,474,0,225,0, 
0.2667,-225.3,-500.4,-1271.4,-311.1,-201.3,-164.4,-458.4,147.9,-2223.0,-352.5,27.0,24.3,-174.6,4119.9,-830.1,-3810.3,-6.9,-5.7,-418.2,-256.8,-0.6,-275.7,282.9,821.1,0,480,0,226,0, 
0.2700,-316.2,-478.2,-1318.2,-270.6,-164.7,4.5,-419.4,60.9,-2223.0,-312.3,73.8,69.6,-155.1,4140.3,-482.7,-3871.8,-6.9,-6.0,-375.9,-599.4,-0.6,-242.1,415.5,846.6,0,486,0,227,0, 
0.2733,-234.0,-383.7,-1297.8,284.1,391.5,-352.5,126.3,18.9,-2297.1,248.4,644.4,641.4,147.9,4162.2,-941.1,-3814.2,-6.9,-6.0,190.5,-741.3,-0.9,327.3,385.8,1276.5,0,492,0,228,0, 
0.2767,-60.6,-187.2,-1118.4,649.8,758.1,-588.9,492.6,12.6,-1778.4,604.8,1003.2,1003.8,300.9,4246.8,-1558.8,-3658.2,-6.6,-6.0,553.5,-439.2,-0.6,685.2,318.0,1560.0,0,498,0,229,0, 
0.2800,-198.6,-184.2,-1121.7,231.6,345.6,-547.5,78.3,16.8,-1852.5,180.3,586.5,583.2,151.5,4122.6,-1519.8,-3727.2,-7.2,-6.0,129.3,-78.6,-0.9,263.7,225.0,1259.1,0,504,0,230,0, 
0.2833,-353.1,-292.5,-1262.4,-331.5,-215.1,-257.1,-489.9,97.8,-2074.8,-374.4,39.0,33.6,-75.3,4129.2,-890.7,-3816.3,-6.9,-6.0,-412.5,-209.1,-1.2,-298.5,240.6,768.9,0,510,0,231,0, 
0.2867,-378.6,-334.2,-1314.6,-303.0,-189.0,-75.6,-471.9,36.6,-2371.2,-349.5,65.4,63.0,-128.7,4206.3,-479.4,-3906.6,-6.9,-6.0,-383.7,-596.7,-0.9,-278.1,308.7,795.0,0,516,0,232,0, 
0.2900,-247.8,-128.7,-1238.4,282.6,388.5,-324.6,114.0,-29.4,-2148.9,227.1,648.3,641.7,86.1,4226.7,-1011.3,-3844.8,-6.6,-6.0,201.0,-836.4,-0.9,300.6,260.1,1242.3,0,522,0,233,0, 
0.2933,-111.9,21.6,-1066.2,617.4,725.1,-626.7,450.9,-17.1,-1704.3,562.5,982.8,979.2,299.1,4358.4,-1593.6,-3727.5,-7.2,-6.0,528.9,-469.5,-0.3,639.9,111.6,1499.4,0,528,0,234,0, 
0.2967,-162.9,-107.4,-1148.4,204.0,317.1,-631.5,39.9,-19.8,-1852.5,136.8,577.8,576.9,169.2,4286.7,-1524.6,-3738.6,-7.2,-6.0,122.1,-158.4,-0.9,228.6,-12.6,1165.8,0,534,0,235,0, 
0.3000,-266.4,-292.8,-1159.8,-347.4,-231.3,-315.6,-510.6,-63.0,-2074.8,-398.4,32.1,27.0,9.3,4240.2,-820.2,-3873.6,-6.9,-6.0,-422.4,-142.2,-0.6,-324.0,42.9,737.1,0,540,0,236,0, 
0.3033,-238.2,-371.7,-1245.0,-311.7,-199.8,-206.1,-473.4,-102.3,-2371.2,-362.4,67.8,63.0,-24.9,4244.1,-480.3,-3931.5,-6.9,-5.7,-390.0,-620.1,-0.6,-288.6,111.6,751.8,0,546,0,237,0, 
0.3067,-72.3,-201.0,-1122.0,380.4,489.0,-356.4,213.6,-80.1,-2000.7,335.1,758.1,756.6,144.6,4344.0,-894.6,-3741.9,-6.6,-5.7,306.6,-764.4,-0.9,405.9,189.9,1313.4,0,552,0,238,0, 
0.3100,28.8,-94.2,-1014.0,715.2,819.3,-690.9,543.3,-69.9,-1778.4,657.3,1097.4,1088.4,303.0,4385.1,-1653.6,-3627.0,-6.9,-6.0,642.0,-504.3,-0.6,738.0,96.6,1570.8,0,558,0,239,0, 
0.3133,0.0,-73.5,-999.6,350.4,455.1,-550.2,190.5,78.6,-1704.3,290.4,736.5,727.2,254.7,4351.2,-1465.8,-3615.0,-6.6,-5.7,279.9,-6.6,-0.6,372.6,83.1,1278.3,0,564,0,240,0, 
0.3167,-124.8,-281.4,-1071.9,-206.4,-95.7,-237.6,-369.9,76.5,-1926.6,-261.3,182.7,171.6,31.2,4291.8,-911.1,-3774.9,-6.6,-5.7,-277.5,-28.8,-0.6,-189.0,175.2,835.8,0,570,0,241,0, 
0.3200,-162.6,-297.9,-1200.6,-159.9,-54.3,-82.5,-330.6,6.6,-2148.9,-213.9,225.0,220.2,-30.3,4383.6,-561.0,-3811.2,-7.2,-5.7,-232.5,-459.0,-0.6,-136.8,214.5,860.7,0,576,0,242,0, 
0.3233,-79.2,-130.8,-1145.7,422.1,532.5,-301.8,247.8,-24.6,-2074.8,357.9,803.1,802.5,196.8,4473.3,-930.6,-3741.6,-6.9,-6.0,345.0,-693.3,-0.6,433.5,261.3,1312.8,0,582,0,243,0, 
0.3267,-11.7,36.0,-1004.7,671.7,782.4,-677.4,498.0,-74.7,-1778.4,615.6,1053.9,1052.4,380.1,4471.8,-1642.2,-3682.2,-7.2,-5.7,597.0,-453.0,-0.6,682.2,176.1,1490.7,0,588,0,244,0, 
0.3300,17.1,-23.4,-918.9,309.0,423.6,-540.0,137.1,17.4,-1704.3,246.3,701.4,693.6,311.7,4438.5,-1554.3,-3674.1,-6.9,-6.0,244.8,-29.1,-1.2,320.7,285.0,1242.0,0,594,0,245,0, 
0.3333,-121.2,-181.5,-1035.9,-191.4,-76.8,-144.6,-360.0,3.9,-1926.6,-251.4,197.1,193.5,105.3,4416.0,-936.6,-3775.2,-7.5,-6.0,-266.7,-56.4,-0.3,-174.9,334.8,823.2,0,600,0,246,0, 
0.3367,-194.1,-222.3,-1075.5,-138.3,-24.0,4.5,-312.3,-112.2,-2148.9,-210.3,241.5,243.0,81.3,4471.2,-511.8,-3786.0,-6.6,-6.0,-215.7,-464.1,-0.9,-129.6,375.6,861.6,0,606,0,247,0, 
0.3400,-95.4,-122.4,-1035.0,415.8,526.5,-330.3,241.5,-137.7,-1852.5,342.0,797.1,796.2,281.1,4580.4,-981.0,-3732.0,-6.9,-6.3,339.9,-627.6,-0.3,422.1,390.3,1319.7,0,612,0,248,0, 
0.3433,-0.3,15.3,-966.6,675.3,788.1,-649.5,494.1,-94.5,-1926.6,612.6,1067.7,1059.3,474.0,4532.7,-1587.9,-3675.3,-7.2,-6.3,612.6,-375.6,-0.9,681.6,310.2,1507.8,0,618,0,249,0, 
0.3467,-53.1,-69.3,-973.8,324.9,439.2,-578.1,145.5,-17.4,-1630.2,255.3,715.8,706.8,334.5,4456.5,-1559.7,-3666.6,-6.9,-5.7,255.6,-70.2,-0.3,330.3,271.5,1261.2,0,624,0,250,0, 
0.3500,-269.1,-293.4,-1152.9,-330.3,-219.6,-225.9,-512.1,-23.4,-2148.9,-408.9,51.0,44.7,158.4,4371.3,-860.1,-3864.0,-6.9,-5.7,-407.1,-138.9,-0.9,-330.9,279.3,714.9,0,630,0,251,0, 
0.3533,-345.0,-337.5,-1204.5,-317.4,-209.1,-94.8,-499.5,-121.5,-2223.0,-395.7,63.3,58.5,85.5,4320.6,-615.0,-3955.2,-6.9,-6.0,-398.7,-611.4,-0.9,-317.1,359.7,687.0,0,636,0,252,0, 
0.3567,-212.7,-241.2,-1182.0,258.6,367.2,-323.7,77.4,-71.7,-2074.8,179.1,640.8,637.2,286.5,4368.3,-1026.0,-3884.7,-6.6,-5.7,182.1,-831.6,-0.6,259.2,420.0,1148.7,0,642,0,253,0, 
0.3600,-115.8,-123.9,-1060.8,614.4,719.4,-666.3,432.6,-32.1,-1852.5,547.5,1004.4,994.5,377.4,4456.2,-1730.7,-3761.1,-6.9,-5.4,549.0,-483.9,-0.9,615.6,191.4,1439.1,0,648,0,254,0, 
0.3633,-161.7,-121.5,-1104.0,157.2,264.9,-683.1,-22.2,-153.6,-1852.5,86.4,551.7,543.6,221.7,4349.7,-1603.5,-3786.3,-6.9,-6.3,92.1,-24.6,-1.2,152.4,160.5,1068.6,0,654,0,255,0, 
0.3667,-290.7,-350.1,-1176.6,-437.4,-333.3,-306.6,-607.2,-107.1,-2371.2,-510.6,-52.5,-60.9,62.1,4283.4,-1026.0,-3938.4,-6.6,-5.7,-511.2,-129.9,-0.6,-435.3,242.1,591.6,0,660,0,0,0, 
0.3700,-246.0,-396.9,-1214.7,-356.4,-246.3,-122.7,-530.4,-42.6,-2223.0,-425.1,39.0,38.1,202.8,4337.7,-584.1,-3966.3,-6.6,-6.0,-422.1,-500.7,-0.6,-352.8,395.4,649.5,0,666,0,1,0, 
0.3733,-140.7,-281.4,-1167.9,261.0,367.8,-301.5,84.6,53.4,-2223.0,192.6,658.5,648.9,372.3,4476.0,-1027.5,-3881.1,-6.9,-6.0,201.0,-740.1,-0.6,265.5,436.2,1165.5,0,672,0,2,0, 
0.3767,-8.1,-216.9,-1086.6,552.3,655.8,-659.4,373.2,75.3,-1852.5,476.1,947.7,941.1,439.2,4417.8,-1674.6,-3782.4,-6.9,-5.7,489.3,-503.4,-0.6,552.9,285.0,1390.5,0,678,0,3,0, 
0.3800,-41.1,-299.1,-993.6,210.3,318.0,-540.9,27.9,36.6,-1852.5,136.5,600.6,594.0,374.7,4380.9,-1620.9,-3829.8,-6.9,-5.7,142.2,-97.8,-0.6,203.4,261.9,1117.5,0,684,0,4,0, 
0.3833,-124.2,-438.3,-1021.5,-293.7,-184.2,-56.7,-478.2,106.8,-2148.9,-376.8,97.2,91.8,215.7,4342.2,-908.7,-3873.3,-6.6,-5.7,-362.4,36.0,-0.9,-303.6,411.6,714.3,0,690,0,5,0, 
0.3867,-157.2,-458.7,-1068.3,-247.8,-140.4,144.6,-435.0,82.2,-2148.9,-327.9,144.9,138.0,105.0,4387.8,-602.1,-3916.5,-6.3,-5.7,-320.4,-456.3,-0.6,-251.7,485.1,744.6,0,696,0,6,0, 
0.3900,-88.2,-320.7,-961.5,367.8,476.4,-95.1,179.1,99.0,-1926.6,291.9,765.6,763.2,275.4,4478.1,-1059.0,-3794.4,-6.6,-6.0,304.2,-603.9,-0.6,366.6,466.5,1246.2,0,702,0,7,0, 
0.3933,18.6,-151.2,-841.5,699.3,813.0,-414.6,524.4,133.5,-1852.5,621.0,1096.2,1094.4,411.0,4478.1,-1726.2,-3699.9,-6.9,-5.7,633.9,-316.8,-0.6,692.7,358.8,1529.7,0,708,0,8,0, 
0.3967,-64.5,-176.1,-859.2,385.2,495.9,-420.3,211.5,200.7,-1778.4,292.5,774.0,771.3,280.2,4444.5,-1658.4,-3664.2,-6.6,-5.7,311.7,194.4,-0.9,376.8,318.6,1287.6,0,714,0,9,0, 
0.4000,-160.8,-256.8,-868.8,-77.7,38.4,33.9,-249.0,249.0,-2000.7,-160.2,322.2,317.4,33.6,4444.8,-940.5,-3698.4,-6.6,-5.7,-139.5,270.6,-0.6,-97.8,462.6,928.8,0,720,0,10,0, 
0.4033,-184.8,-328.5,-854.4,-35.1,75.3,156.9,-204.9,273.3,-2000.7,-101.4,364.8,358.2,123.0,4493.1,-583.2,-3765.0,-6.6,-6.0,-91.5,-228.6,-0.3,-39.6,610.8,986.7,0,726,0,11,0, 
0.4067,-111.6,-198.6,-813.6,560.4,671.4,-86.7,385.8,195.6,-1852.5,483.9,965.1,957.9,273.3,4592.7,-1124.1,-3638.4,-6.9,-5.7,501.9,-406.2,-0.9,542.4,570.0,1439.1,0,732,0,12,0, 
0.4100,-11.1,-81.0,-763.8,857.1,967.5,-412.8,683.4,262.5,-1630.2,776.1,1254.0,1242.3,433.5,4611.6,-1765.5,-3540.0,-7.2,-6.0,792.6,-94.2,-0.6,846.9,503.4,1691.7,0,738,0,13,0, 
0.4133,-82.8,-142.8,-795.9,521.1,630.0,-386.4,348.9,327.6,-1556.1,440.1,917.4,913.8,287.1,4593.0,-1743.6,-3536.7,-6.9,-6.0,453.3,229.5,-0.6,515.1,407.1,1422.0,0,744,0,14,0, 
0.4167,-182.7,-371.7,-846.3,-7.8,101.1,-24.0,-178.2,295.5,-1778.4,-98.1,387.3,382.8,25.5,4473.9,-990.9,-3599.1,-6.9,-6.0,-79.5,239.1,-0.6,-11.1,493.5,1012.5,0,750,0,15,0, 
0.4200,-193.8,-439.5,-909.0,-0.6,110.7,123.3,-168.0,205.2,-1926.6,-89.4,393.0,392.7,-57.0,4516.5,-711.0,-3705.3,-7.2,-6.0,-67.8,-155.7,-0.9,-4.8,494.7,999.6,0,756,0,16,0, 
0.4233,-150.9,-308.4,-894.6,500.1,603.9,-98.4,322.2,93.6,-2000.7,426.0,906.9,895.5,158.4,4650.0,-1175.4,-3701.4,-7.5,-6.0,446.7,-414.6,-0.9,510.6,485.7,1386.0,0,762,0,17,0, 
0.4267,-11.7,-205.5,-744.6,862.8,970.2,-372.0,684.9,68.7,-1630.2,786.6,1260.0,1260.3,336.3,4614.3,-1788.9,-3549.0,-6.9,-5.7,797.1,-67.8,-0.9,869.1,390.6,1692.9,0,768,0,18,0, 
0.4300,-104.1,-228.0,-774.9,398.7,504.6,-353.7,228.0,102.9,-1704.3,328.8,796.8,786.6,230.1,4523.4,-1732.2,-3615.3,-6.9,-6.0,336.9,373.8,-0.6,405.3,273.3,1326.6,0,774,0,19,0, 
0.4333,-275.1,-394.8,-914.7,-246.3,-136.5,18.9,-421.8,120.6,-1926.6,-318.9,159.9,152.1,11.4,4431.9,-1065.6,-3807.6,-6.9,-5.7,-305.4,195.9,-0.3,-237.0,303.3,796.2,0,780,0,20,0, 
0.4367,-329.1,-453.6,-1021.5,-269.1,-162.3,290.4,-443.1,41.7,-2148.9,-338.1,130.8,131.7,9.3,4422.3,-712.8,-3875.1,-6.6,-5.7,-333.3,-307.2,-0.9,-256.8,431.4,753.3,0,786,0,21,0, 
0.4400,-170.7,-264.0,-957.3,280.8,391.5,103.8,96.6,71.4,-2074.8,196.8,682.8,684.0,174.0,4502.7,-1121.1,-3859.8,-7.2,-6.0,218.7,-534.9,-0.9,291.3,483.9,1186.8,0,792,0,22,0, 
0.4433,-92.7,-189.6,-867.6,624.6,730.8,-202.5,450.6,39.0,-1852.5,552.6,1025.7,1021.2,300.3,4504.2,-1839.6,-3787.2,-6.9,-6.3,562.8,-307.5,-1.2,627.9,383.7,1464.0,0,798,0,23,0, 
0.4467,-70.8,-187.5,-848.7,287.1,393.9,-157.5,108.0,88.8,-1852.5,198.6,678.3,673.5,223.2,4446.3,-1746.3,-3720.0,-7.2,-6.0,214.2,102.3,-1.2,283.8,375.6,1183.8,0,804,0,24,0, 
0.4500,-179.7,-398.7,-897.0,-292.8,-189.9,165.6,-474.9,78.3,-2074.8,-374.4,112.2,102.3,87.6,4431.9,-989.7,-3846.3,-7.2,-6.0,-351.6,69.0,-0.6,-301.5,502.8,738.3,0,810,0,25,0, 
0.4533,-221.7,-437.1,-947.4,-267.0,-160.2,373.8,-451.5,31.2,-2223.0,-334.2,141.6,128.4,4.5,4392.3,-617.1,-3911.4,-6.6,-5.7,-318.9,-208.5,-0.6,-273.3,559.2,742.5,0,816,0,26,0, 
0.4567,-116.1,-345.3,-871.8,339.9,443.4,206.7,157.8,-66.3,-2074.8,261.6,741.9,726.3,183.3,4344.9,-1049.7,-3789.9,-6.9,-6.0,276.3,-531.3,-0.9,331.5,612.0,1233.9,0,822,0,27,0, 
0.4600,-6.9,-179.7,-801.9,630.0,731.4,-78.6,446.1,-10.8,-1630.2,542.4,1027.5,1013.4,343.2,4382.1,-1674.9,-3666.9,-7.2,-6.0,563.4,-168.9,-0.9,615.0,430.5,1448.1,0,828,0,28,0, 
0.4633,-28.5,-228.3,-714.9,264.9,361.5,94.2,88.8,94.8,-1852.5,167.7,658.5,644.7,299.7,4423.5,-1590.0,-3719.4,-6.9,-6.0,196.2,148.8,-0.6,253.5,507.9,1172.1,0,834,0,29,0, 
0.4667,-183.3,-434.4,-822.6,-347.1,-245.4,421.8,-525.9,84.6,-2074.8,-443.4,45.0,31.8,49.2,4265.7,-952.2,-3900.6,-6.9,-6.3,-418.8,138.3,-0.9,-363.3,521.7,682.5,0,840,0,30,0, 
0.4700,-267.6,-430.2,-884.1,-270.6,-167.1,610.8,-454.5,78.3,-2148.9,-364.5,131.4,114.6,-10.8,4284.6,-608.4,-3936.6,-7.2,-5.7,-330.6,-305.1,-1.2,-285.0,707.4,752.4,0,846,0,31,0, 
0.4733,-112.8,-236.7,-871.2,309.3,416.7,320.1,131.1,12.0,-2074.8,222.9,714.3,696.3,237.9,4273.5,-1026.3,-3854.7,-6.9,-6.3,255.0,-421.5,-0.6,297.6,645.6,1211.4,0,852,0,32,0, 
0.4767,-13.8,-69.9,-681.3,644.4,748.2,23.1,465.9,30.3,-1778.4,545.7,1040.4,1024.2,294.6,4452.3,-1732.5,-3715.5,-7.2,-6.0,579.3,-165.6,-0.3,628.2,500.4,1484.1,0,858,0,33,0, 
0.4800,-61.8,-75.3,-704.4,183.6,288.0,39.3,8.1,35.7,-1778.4,91.8,582.3,566.4,159.3,4296.9,-1553.4,-3772.2,-6.9,-5.7,112.5,165.9,-1.2,169.8,429.6,1113.6,0,864,0,34,0, 
0.4833,-158.4,-176.7,-684.0,-295.5,-190.8,482.4,-474.6,153.0,-1852.5,-394.8,97.2,84.6,-27.6,4351.2,-850.8,-3856.2,-6.9,-5.7,-369.9,210.3,-0.9,-313.2,616.8,738.6,0,870,0,35,0, 
0.4867,-260.4,-368.4,-781.8,-358.2,-255.6,618.6,-528.6,4.2,-2297.1,-444.3,44.7,28.5,-187.8,4347.9,-531.6,-4005.9,-6.6,-6.0,-414.9,-345.9,-0.3,-364.2,636.3,681.0,0,876,0,36,0, 
0.4900,-149.4,-287.1,-657.0,251.7,353.4,398.1,62.4,-37.8,-2223.0,170.1,653.1,635.7,42.0,4423.5,-951.9,-3906.0,-7.2,-6.0,189.6,-591.9,-0.9,246.6,657.6,1157.1,0,882,0,37,0, 
0.4933,-98.7,-155.7,-650.4,504.9,610.5,7.2,326.1,-61.5,-1852.5,417.3,908.1,886.5,114.9,4398.6,-1593.6,-3795.3,-6.6,-6.0,446.7,-336.6,-0.6,495.0,539.7,1385.4,0,888,0,38,0, 
0.4967,-137.1,-110.7,-645.0,47.4,156.9,162.0,-135.0,4.5,-1926.6,-42.0,441.0,428.1,38.1,4374.3,-1479.3,-3867.0,-7.2,-5.7,-22.8,122.4,-1.2,27.3,455.1,1024.2,0,894,0,39,0, 
0.5000,-227.4,-187.5,-775.2,-472.8,-371.1,568.2,-654.9,99.9,-2148.9,-559.5,-78.3,-92.7,-126.6,4326.9,-829.2,-3941.7,-7.2,-5.4,-540.9,54.0,-0.6,-487.2,590.7,598.5,0,900,0,40,0, 
0.5033,-192.6,-196.2,-757.8,-405.3,-301.2,817.2,-590.7,61.5,-2297.1,-497.1,-3.3,-21.3,-123.6,4374.6,-409.5,-3998.7,-6.9,-6.0,-466.2,-412.2,-0.9,-418.5,717.0,632.7,0,906,0,41,0, 
0.5067,-134.1,-148.2,-821.1,138.9,237.3,510.9,-48.0,-0.9,-2371.2,49.2,537.0,524.7,13.5,4418.4,-876.6,-3912.9,-6.9,-6.0,76.8,-627.6,-0.6,132.0,636.9,1027.2,0,912,0,42,0, 
0.5100,-62.4,56.1,-687.9,520.8,620.4,201.3,334.2,15.9,-1926.6,423.0,921.3,907.2,336.6,4440.6,-1554.3,-3818.1,-6.9,-5.7,457.8,-333.0,-0.9,497.1,536.7,1362.6,0,918,0,43,0, 
0.5133,-104.7,55.5,-695.7,124.2,224.4,210.3,-58.2,45.6,-2000.7,28.8,523.5,506.4,191.4,4409.7,-1441.5,-3843.6,-6.6,-5.4,55.8,81.3,-0.6,107.1,466.8,1046.4,0,924,0,44,0, 
0.5167,-225.9,-130.8,-776.4,-465.9,-357.0,560.7,-646.8,93.9,-2223.0,-563.1,-66.9,-80.7,17.7,4309.2,-702.6,-4008.9,-7.2,-5.7,-531.6,27.6,-0.9,-486.0,595.2,579.0,0,930,0,45,0, 
0.5200,-233.7,-263.1,-788.7,-426.3,-319.5,741.0,-613.8,45.3,-2371.2,-522.3,-29.4,-47.1,34.2,4286.4,-360.3,-4027.8,-6.6,-6.0,-489.6,-383.1,-0.9,-453.3,677.7,599.7,0,936,0,46,0, 
0.5233,-193.2,-141.6,-614.4,143.4,242.7,462.3,-42.0,-84.6,-2371.2,48.3,543.3,525.9,183.3,4405.8,-852.3,-3949.8,-7.2,-6.3,83.4,-627.3,-0.6,117.9,689.4,1047.6,0,942,0,47,0, 
0.5267,-87.9,16.5,-527.7,471.0,566.7,136.8,282.3,-111.6,-1852.5,367.8,863.4,845.1,354.9,4418.4,-1496.7,-3833.4,-7.2,-6.0,401.1,-347.4,-0.3,438.3,627.9,1329.6,0,948,0,48,0, 
0.5300,-181.2,-81.6,-472.2,49.8,151.8,204.9,-137.4,-115.8,-2074.8,-48.9,447.3,434.1,241.5,4341.3,-1350.3,-3888.9,-7.5,-6.3,-16.2,51.9,-0.9,18.6,662.1,990.0,0,954,0,49,0, 
0.5333,-340.8,-356.7,-628.2,-539.4,-437.7,473.1,-727.2,-106.8,-2297.1,-642.9,-143.1,-159.0,-30.3,4261.2,-711.9,-4057.5,-6.9,-6.0,-606.9,-86.4,-0.9,-568.8,689.7,501.9,0,960,0,50,0, 
0.5367,-283.5,-342.9,-576.0,-486.3,-381.9,595.2,-670.8,-76.5,-2371.2,-583.2,-92.4,-107.7,109.5,4303.5,-225.9,-4113.0,-6.9,-5.7,-559.2,-423.0,-0.9,-520.2,774.9,555.3,0,966,0,51,0, 
0.5400,-127.8,-147.9,-542.1,129.0,232.8,362.1,-55.8,-92.4,-2223.0,39.6,534.0,516.0,300.9,4402.5,-717.6,-4020.0,-6.9,-6.0,71.7,-656.4,-0.9,105.9,731.1,1039.5,0,972,0,52,0, 
0.5433,-85.8,-46.8,-411.9,417.0,518.7,9.0,233.4,-64.5,-2074.8,319.5,819.3,800.7,388.8,4389.0,-1390.8,-3930.3,-6.9,-5.7,363.6,-397.8,-0.9,393.0,613.5,1281.3,0,978,0,53,0, 
0.5467,-63.3,-62.4,-392.4,48.9,150.0,102.6,-139.2,23.7,-1926.6,-56.7,447.9,432.3,283.5,4352.4,-1276.5,-3933.9,-6.6,-5.7,-11.7,53.4,-0.6,19.8,667.2,990.9,0,984,0,54,0, 
0.5500,-240.0,-213.9,-519.6,-511.8,-406.8,421.8,-698.4,39.3,-2371.2,-615.6,-109.8,-128.4,-2.4,4267.5,-557.7,-4048.2,-6.6,-6.0,-573.6,64.5,-0.6,-534.9,646.5,530.7,0,990,0,55,0, 
0.5533,-240.6,-277.5,-638.1,-534.9,-434.7,582.6,-732.6,-46.5,-2371.2,-639.6,-135.6,-148.5,-102.0,4293.0,-246.6,-4191.0,-6.9,-6.0,-604.2,-463.5,-0.6,-561.9,733.8,490.8,0,996,0,56,0, 
0.5567,-159.6,-255.3,-523.5,5.4,106.2,240.6,-192.9,-8.4,-2371.2,-96.9,408.0,395.1,99.0,4285.5,-700.2,-4158.3,-6.9,-5.7,-54.9,-742.2,-0.6,-15.9,664.8,899.1,0,1002,0,57,0, 
0.5600,-35.7,-99.6,-365.7,339.0,444.6,12.3,136.8,76.5,-2223.0,233.1,747.3,733.5,313.2,4321.5,-1309.5,-4056.3,-6.9,-6.0,277.2,-479.4,-0.3,312.9,624.6,1197.6,0,1008,0,58,0, 
0.5633,-89.7,-224.4,-459.0,-17.4,85.5,-18.9,-214.5,49.5,-2148.9,-124.8,384.0,366.3,199.2,4212.9,-1346.4,-4072.8,-6.6,-5.7,-83.7,-157.2,-0.6,-48.3,511.2,895.8,0,1014,0,59,0, 
0.5667,-273.9,-365.1,-666.0,-595.5,-492.0,284.1,-792.3,114.0,-2371.2,-700.5,-191.7,-204.3,21.9,4187.7,-705.3,-4197.9,-6.6,-6.0,-654.3,-119.4,-0.6,-620.7,621.6,459.0,0,1020,0,60,0, 
0.5700,-359.4,-425.4,-718.8,-576.9,-470.4,540.9,-765.6,84.0,-2445.3,-680.4,-170.7,-184.5,43.5,4255.2,-289.5,-4237.5,-7.2,-6.0,-635.7,-591.0,-1.2,-600.6,724.2,434.4,0,1026,0,61,0, 
0.5733,-226.5,-302.7,-621.3,97.2,206.1,239.1,-93.9,29.7,-2371.2,3.6,505.5,487.5,297.3,4373.1,-805.2,-4132.8,-7.2,-6.3,45.6,-781.8,-0.6,80.1,753.9,997.8,0,1032,0,62,0, 
0.5767,-97.5,-83.1,-497.7,399.9,502.8,-65.7,213.0,141.3,-2000.7,301.8,804.9,788.1,463.8,4419.6,-1357.2,-3989.1,-7.2,-5.4,346.2,-378.9,-0.6,375.3,659.1,1262.7,0,1038,0,63,0, 
0.5800,-200.1,-175.8,-617.7,-108.0,0.3,-96.9,-287.7,151.8,-2148.9,-201.0,302.4,280.8,286.8,4295.1,-1418.4,-4053.3,-6.9,-6.0,-168.0,-58.2,-0.6,-133.2,539.1,861.6,0,1044,0,64,0, 
0.5833,-280.8,-341.4,-601.2,-652.8,-550.5,299.4,-832.8,192.0,-2223.0,-750.0,-240.3,-262.8,120.0,4294.2,-588.6,-4170.9,-7.2,-6.0,-711.0,-162.9,-0.6,-671.7,627.9,377.7,0,1050,0,65,0, 
0.5867,-353.4,-408.3,-695.1,-572.7,-465.6,435.9,-754.8,124.5,-2445.3,-681.0,-166.8,-181.5,93.0,4332.3,-288.3,-4190.1,-6.9,-6.3,-637.5,-548.7,-0.6,-593.7,711.6,456.3,0,1056,0,66,0, 
0.5900,-241.8,-330.3,-621.0,-3.3,97.5,208.2,-188.7,35.4,-2297.1,-104.7,403.5,389.4,261.9,4410.6,-696.9,-4119.9,-6.9,-5.4,-63.3,-828.6,-0.6,-15.3,744.6,912.6,0,1062,0,67,0, 
0.5933,-212.4,-178.5,-530.7,279.6,383.7,-166.8,92.4,22.8,-2148.9,174.6,697.8,680.7,462.0,4387.2,-1345.2,-4042.5,-6.6,-6.0,229.5,-546.3,-0.9,263.1,621.9,1137.3,0,1068,0,68,0, 
0.5967,-204.9,-162.3,-451.8,-87.6,14.7,-109.8,-278.7,51.0,-2074.8,-186.9,317.1,300.0,387.6,4313.1,-1172.7,-4036.5,-7.2,-5.4,-145.5,-180.9,-0.6,-114.0,580.2,851.7,0,1074,0,69,0, 
0.6000,-309.9,-246.3,-527.1,-654.3,-552.6,229.2,-847.2,-27.0,-2519.4,-758.7,-238.5,-259.2,177.9,4286.1,-414.3,-4137.6,-6.9,-5.7,-706.2,-171.0,-0.3,-685.2,702.0,367.5,0,1080,0,70,0, 
0.6033,-385.2,-333.3,-721.2,-656.7,-551.1,318.3,-843.3,-120.0,-2667.6,-752.4,-249.9,-264.0,78.9,4327.2,-138.6,-4257.0,-7.2,-5.7,-711.9,-629.1,-0.6,-682.8,725.4,344.7,0,1086,0,71,0, 
0.6067,-180.3,-272.4,-626.1,-47.7,54.9,58.2,-247.5,-222.9,-2519.4,-151.5,365.7,349.5,313.2,4390.8,-586.2,-4192.2,-6.9,-6.0,-100.5,-866.7,-0.9,-78.3,701.1,837.3,0,1092,0,72,0, 
0.6100,-49.8,-132.6,-525.9,271.5,375.0,-225.9,70.5,-173.7,-2223.0,160.8,681.0,663.0,486.3,4394.4,-1217.4,-4046.4,-6.3,-5.7,211.5,-437.1,-0.6,239.4,564.6,1091.4,0,1098,0,73,0, 
0.6133,-32.1,-120.3,-525.3,-103.5,2.4,-184.2,-304.2,-101.7,-2074.8,-209.4,309.6,293.1,468.6,4336.8,-1034.4,-4046.4,-6.6,-6.0,-159.0,-115.5,-0.9,-136.2,541.8,827.1,0,1104,0,74,0, 
0.6167,-163.8,-275.1,-684.9,-599.1,-496.5,177.6,-798.3,-18.3,-2223.0,-702.0,-181.8,-201.9,173.7,4329.3,-222.6,-4087.8,-6.9,-5.7,-650.7,-167.4,-0.9,-631.2,692.1,400.5,0,1110,0,75,0, 
0.6200,-219.3,-377.1,-651.3,-550.2,-446.7,341.1,-746.1,-29.4,-2519.4,-650.4,-136.5,-151.5,102.3,4366.5,201.9,-4101.3,-6.9,-5.4,-608.1,-571.8,-0.3,-573.3,786.6,438.0,0,1116,0,76,0, 
0.6233,-111.9,-224.4,-621.6,74.4,182.4,55.5,-128.1,-68.1,-2371.2,-23.1,496.5,486.9,328.5,4498.2,-286.2,-4018.5,-7.2,-6.0,25.8,-806.4,-0.6,55.2,730.8,964.5,0,1122,0,77,0, 
0.6267,-102.3,-88.2,-611.1,310.2,420.6,-391.2,113.1,-164.7,-2000.7,216.9,732.6,717.6,490.5,4372.8,-954.6,-3963.6,-6.9,-5.7,262.5,-528.9,-0.6,297.3,490.8,1132.8,0,1128,0,78,0, 
0.6300,-182.4,-172.2,-679.8,-186.3,-81.3,-343.5,-380.1,-99.0,-2223.0,-276.9,240.3,219.6,377.4,4306.5,-949.2,-4038.3,-6.9,-6.3,-234.0,-232.5,-1.2,-195.9,435.3,742.5,0,1134,0,79,0, 
0.6333,-300.0,-313.5,-772.8,-700.8,-588.0,20.7,-892.8,-77.4,-2371.2,-793.5,-278.4,-298.2,220.2,4281.9,-219.0,-4098.9,-6.9,-6.0,-748.8,-234.6,-0.6,-723.0,608.4,326.4,0,1140,0,80,0, 
0.6367,-282.3,-299.4,-744.3,-588.9,-486.9,242.4,-780.9,-27.0,-2519.4,-683.1,-172.5,-189.9,212.7,4442.4,176.7,-4106.4,-6.9,-6.3,-640.8,-630.6,-0.9,-609.3,771.9,403.2,0,1146,0,81,0, 
0.6400,-90.3,-129.6,-637.2,69.9,169.5,85.8,-117.9,-96.9,-2297.1,-27.0,492.3,471.0,369.3,4561.5,-190.5,-3952.8,-6.6,-6.0,23.4,-790.2,-0.6,47.4,887.4,945.9,0,1152,0,82,0, 
0.6433,-30.6,-137.7,-588.6,398.4,501.0,-309.9,206.7,-150.0,-1926.6,300.9,815.7,796.2,397.8,4543.2,-912.3,-3888.3,-7.2,-6.0,342.9,-491.7,-0.6,370.2,713.7,1186.2,0,1158,0,83,0, 
0.6467,-29.4,-173.1,-664.8,21.6,126.0,-160.8,-170.7,-57.6,-2000.7,-80.7,436.2,417.3,254.4,4497.0,-849.0,-3829.8,-7.2,-6.0,-31.5,-81.6,-0.9,-4.8,594.9,906.0,0,1164,0,84,0, 
0.6500,-139.2,-271.8,-755.7,-555.0,-449.7,143.1,-745.2,-17.7,-2297.1,-660.0,-137.7,-156.9,69.3,4473.9,-150.6,-3982.5,-7.2,-5.4,-609.3,-85.5,-0.9,-582.3,710.7,468.0,0,1170,0,85,0, 
0.6533,-255.3,-322.8,-757.8,-528.9,-423.6,247.2,-720.6,-23.1,-2519.4,-631.5,-105.9,-125.7,31.2,4488.0,187.5,-4047.3,-6.3,-5.7,-575.1,-569.1,-0.9,-553.5,845.1,463.5,0,1176,0,86,0, 
0.6567,-103.8,-199.5,-746.1,91.5,198.9,-5.1,-99.3,88.5,-2297.1,-2.7,508.8,494.4,185.7,4558.5,-333.6,-3990.6,-6.9,-5.7,38.4,-794.7,-0.9,63.6,814.5,952.8,0,1182,0,87,0, 
0.6600,-94.5,-78.9,-678.0,374.7,481.2,-308.7,176.7,41.1,-2000.7,276.0,790.8,772.8,354.0,4555.5,-963.6,-3892.8,-6.6,-6.0,331.8,-516.6,-1.2,340.2,663.9,1206.6,0,1188,0,88,0, 
0.6633,-206.1,-88.8,-715.8,-137.7,-23.4,-319.8,-330.9,2.4,-2148.9,-239.4,282.6,266.7,324.6,4483.5,-924.9,-4008.0,-6.9,-5.7,-186.0,-153.6,-0.6,-161.4,621.3,763.8,0,1194,0,89,0, 
0.6667,-344.1,-299.7,-834.6,-714.6,-604.5,-10.8,-908.1,-52.2,-2445.3,-811.8,-285.9,-303.6,-4.8,4385.1,-314.4,-4154.7,-6.9,-5.7,-760.5,-285.0,-0.9,-732.9,722.1,290.4,0,1200,0,90,0, 
0.6700,-334.5,-338.4,-864.3,-670.8,-557.4,171.0,-869.4,-27.9,-2667.6,-773.1,-244.5,-258.9,84.3,4528.2,142.8,-4181.4,-7.2,-5.7,-720.0,-644.7,-0.3,-696.3,839.1,318.6,0,1206,0,91,0, 
0.6733,-200.4,-239.7,-836.7,-88.8,18.3,-99.9,-287.7,-49.8,-2371.2,-195.9,327.3,310.8,166.8,4531.8,-303.6,-4109.1,-6.9,-5.7,-144.6,-935.7,-0.6,-111.6,718.8,776.1,0,1212,0,92,0, 
0.6767,-66.3,-103.8,-759.3,262.8,373.2,-414.3,63.6,-25.8,-2223.0,158.7,680.4,667.8,355.5,4504.5,-918.6,-3944.1,-6.6,-5.7,207.9,-605.1,-0.9,235.5,688.8,1072.2,0,1218,0,93,0, 
0.6800,-69.9,-202.2,-681.3,-137.7,-32.4,-322.8,-337.5,-58.5,-2148.9,-259.2,283.2,268.5,248.1,4355.1,-855.6,-3951.9,-6.9,-5.7,-189.3,-206.7,-0.9,-170.1,627.9,751.8,0,1224,0,94,0, 
0.6833,-173.4,-339.9,-723.9,-696.6,-587.7,64.8,-897.0,6.0,-2593.5,-800.4,-275.1,-290.1,72.0,4312.2,-183.3,-4120.2,-7.2,-6.0,-746.7,-252.9,-0.6,-716.4,687.6,297.3,0,1230,0,95,0, 
0.6867,-230.1,-388.5,-805.8,-673.8,-571.5,252.3,-886.5,-11.7,-2667.6,-774.3,-251.4,-269.4,30.0,4428.6,180.3,-4169.4,-6.6,-5.4,-723.6,-692.1,-1.5,-702.9,743.1,320.1,0,1236,0,96,0, 
0.6900,-110.7,-242.7,-697.5,-84.6,20.7,-15.0,-297.3,-95.7,-2371.2,-180.3,344.7,320.1,293.1,4537.8,-275.7,-4098.9,-6.6,-5.7,-128.4,-882.9,-0.6,-112.2,696.0,774.3,0,1242,0,97,0, 
0.6933,-73.2,-146.4,-626.4,202.5,309.0,-380.7,-14.1,-46.2,-2223.0,104.1,631.2,610.2,431.7,4411.2,-959.7,-3978.0,-7.5,-6.0,163.2,-644.7,-0.9,173.4,480.9,1023.3,0,1248,0,98,0, 
0.6967,-123.0,-130.5,-703.2,-210.9,-100.8,-286.2,-423.3,58.2,-2148.9,-313.2,215.7,195.3,295.8,4320.0,-946.8,-4051.8,-7.2,-5.7,-254.1,-222.9,-0.6,-231.9,412.8,690.9,0,1254,0,99,0, 
0.7000,-220.5,-262.8,-744.6,-765.3,-659.4,5.1,-976.2,88.2,-2519.4,-855.0,-337.5,-361.5,78.6,4273.8,-230.4,-4148.1,-6.9,-5.7,-805.8,-239.7,-0.6,-785.4,491.4,243.0,0,1260,0,100,0, 
0.7033,-278.4,-345.6,-832.5,-729.6,-625.2,223.8,-937.5,41.4,-2815.8,-826.2,-297.9,-320.4,-47.4,4246.8,44.1,-4262.4,-6.9,-5.7,-770.4,-771.3,-1.2,-754.2,536.4,257.1,0,1266,0,101,0, 
0.7067,-198.0,-201.9,-746.4,-93.6,19.8,34.2,-299.7,24.3,-2445.3,-183.0,337.2,320.7,188.1,4308.9,-404.1,-4078.2,-6.9,-6.0,-133.8,-986.1,-0.6,-111.9,516.0,782.1,0,1272,0,102,0, 
0.7100,-62.4,-66.9,-639.0,244.8,348.3,-328.2,43.2,20.7,-2223.0,147.9,672.0,654.6,424.2,4332.0,-1052.1,-3939.3,-6.9,-5.7,195.9,-678.0,-0.6,222.9,459.6,1050.3,0,1278,0,103,0, 
0.7133,-46.2,-210.9,-552.0,-138.0,-31.2,-279.0,-334.5,40.5,-2223.0,-234.0,283.5,261.0,341.4,4304.7,-1007.1,-3944.4,-6.6,-6.0,-186.9,-313.5,-0.9,-166.2,411.3,753.0,0,1284,0,104,0, 
0.7167,-139.8,-370.2,-678.0,-645.0,-535.8,83.7,-836.7,67.2,-2297.1,-744.3,-212.7,-236.7,111.9,4348.5,-297.3,-4036.8,-6.9,-6.0,-688.8,-297.3,-0.6,-669.6,431.1,362.4,0,1290,0,105,0, 
0.7200,-170.1,-409.5,-692.7,-564.9,-452.4,345.3,-752.7,60.6,-2445.3,-650.4,-134.4,-153.6,129.0,4458.6,137.1,-4006.8,-6.6,-6.0,-605.4,-600.9,-0.9,-580.2,634.5,407.4,0,1296,0,106,0, 
0.7233,-16.5,-282.9,-669.6,21.3,122.4,135.9,-172.2,48.9,-2297.1,-77.7,446.4,423.6,269.7,4475.7,-291.6,-3960.9,-6.6,-6.3,-25.5,-851.1,-0.6,-7.2,609.3,866.1,0,1302,0,107,0, 
0.7267,54.0,-126.6,-565.5,380.1,481.8,-216.3,192.3,129.6,-2074.8,281.7,801.9,779.7,462.0,4443.0,-990.0,-3825.9,-6.9,-5.7,336.0,-464.1,-1.2,358.5,508.8,1166.4,0,1308,0,108,0, 
0.7300,113.4,-174.9,-570.3,69.6,174.6,-130.2,-112.8,145.5,-2000.7,-25.5,496.2,468.6,331.8,4423.8,-963.9,-3766.2,-6.9,-5.4,25.5,-86.1,-0.6,42.6,535.8,935.7,0,1314,0,109,0, 
0.7333,-82.8,-324.3,-679.2,-497.4,-385.8,228.6,-672.0,124.8,-2223.0,-586.8,-78.6,-98.7,51.9,4296.9,-291.9,-3891.0,-6.9,-6.0,-541.2,-39.9,-0.9,-511.5,541.2,483.6,0,1320,0,110,0, 
0.7367,-138.3,-389.1,-853.2,-524.1,-410.4,343.5,-693.9,-25.2,-2593.5,-618.3,-95.4,-115.5,-40.5,4219.8,2.7,-4016.4,-7.2,-5.7,-572.1,-541.8,-0.6,-536.4,585.9,440.4,0,1326,0,111,0, 
0.7400,-88.2,-191.1,-830.1,85.5,195.3,100.2,-90.0,-68.1,-2148.9,-6.0,510.6,497.1,176.4,4287.0,-502.8,-3951.0,-7.2,-5.7,44.1,-732.0,-1.2,71.4,614.7,929.4,0,1332,0,112,0, 
0.7433,113.4,-24.0,-702.3,438.6,551.1,-190.8,262.8,-15.3,-2000.7,352.5,872.4,853.2,390.9,4389.6,-1067.4,-3786.9,-7.2,-6.0,402.6,-398.7,-0.9,437.7,510.9,1274.4,0,1338,0,113,0, 
0.7467,30.3,-105.0,-725.4,34.2,150.9,-212.1,-142.2,128.1,-2074.8,-57.3,469.5,455.4,278.7,4337.4,-1068.9,-3822.6,-6.9,-5.7,-2.7,97.5,-1.2,36.9,478.8,953.4,0,1344,0,114,0, 
0.7500,-54.3,-253.5,-883.8,-529.8,-420.0,198.0,-716.1,90.9,-2371.2,-616.2,-93.0,-111.6,32.4,4335.0,-430.2,-3921.3,-6.9,-5.7,-568.5,-14.1,-0.9,-534.3,635.1,454.8,0,1350,0,115,0, 
0.7533,-109.5,-333.0,-954.6,-503.4,-391.5,288.0,-687.3,105.3,-2519.4,-602.1,-75.6,-90.9,-29.7,4316.1,-100.8,-3951.3,-7.2,-6.0,-546.3,-459.0,-0.6,-515.7,683.7,464.4,0,1356,0,116,0, 
0.7567,-27.0,-236.4,-882.9,124.5,231.6,83.1,-70.2,16.2,-2223.0,29.1,552.0,537.9,113.7,4408.2,-652.2,-3877.5,-6.9,-6.0,85.2,-703.8,-0.9,109.2,642.0,986.4,0,1362,0,117,0, 
0.7600,40.5,-72.0,-796.5,431.4,541.5,-314.4,224.4,23.7,-2000.7,330.6,861.3,848.7,287.1,4382.4,-1320.9,-3799.2,-7.2,-6.0,395.1,-314.4,-0.6,416.7,585.0,1218.0,0,1368,0,118,0, 
0.7633,33.3,-158.4,-780.6,104.7,212.7,-215.7,-99.6,92.1,-1926.6,17.1,540.0,521.1,285.3,4315.8,-1218.9,-3757.5,-6.9,-6.0,75.3,49.8,-0.6,90.6,550.5,978.0,0,1374,0,119,0, 
0.7667,-162.3,-419.1,-878.4,-520.8,-409.2,64.2,-731.4,137.7,-2223.0,-621.3,-92.1,-104.4,18.3,4201.8,-554.1,-3953.1,-7.2,-5.4,-559.5,-54.6,-0.6,-540.0,615.9,477.3,0,1380,0,120,0, 
0.7700,-172.2,-444.6,-911.1,-444.3,-336.3,258.6,-659.4,125.7,-2445.3,-539.4,-15.3,-34.5,-6.9,4254.9,-159.3,-3983.4,-6.3,-5.4,-478.8,-379.8,-0.9,-460.8,774.3,521.1,0,1386,0,121,0, 
0.7733,-44.7,-215.1,-898.2,143.4,247.8,38.7,-78.0,87.3,-2223.0,35.7,577.8,556.8,240.0,4334.4,-690.0,-3915.0,-6.9,-5.4,113.7,-681.3,-0.6,123.0,727.8,1005.9,0,1392,0,122,0, 
0.7767,138.0,-62.7,-677.4,580.5,682.8,-167.4,360.6,173.4,-1926.6,478.2,1012.8,993.0,517.2,4401.6,-1237.5,-3710.7,-6.9,-5.7,540.6,-244.5,-1.2,554.4,625.8,1338.0,0,1398,0,123,0, 
0.7800,1.8,-162.0,-731.7,108.3,208.5,-186.3,-102.6,171.9,-1852.5,4.8,539.7,522.0,256.5,4274.7,-1272.0,-3785.1,-6.9,-5.7,71.1,132.0,-0.9,89.4,557.7,1007.1,0,1404,0,124,0, 
0.7833,-114.0,-339.3,-878.4,-473.1,-376.2,100.2,-682.5,148.2,-2148.9,-574.2,-48.9,-63.9,-17.1,4265.7,-566.7,-3897.0,-6.9,-5.4,-520.5,1.8,-0.9,-495.3,546.9,494.7,0,1410,0,125,0, 
0.7867,-173.4,-425.4,-1043.1,-513.9,-415.2,197.1,-723.3,63.0,-2445.3,-608.4,-82.2,-96.6,-94.2,4301.4,-229.8,-4001.7,-6.9,-5.7,-550.5,-517.2,-0.3,-540.3,651.0,429.0,0,1416,0,126,0, 
0.7900,-93.0,-228.3,-1010.7,63.9,161.1,-6.3,-145.8,24.0,-2445.3,-39.9,494.1,480.3,112.2,4319.1,-772.5,-3911.1,-6.9,-5.4,27.9,-702.3,-0.6,45.0,638.4,912.0,0,1422,0,127,0, 
0.7933,14.1,-60.6,-838.2,451.2,548.4,-328.2,249.9,19.8,-2000.7,351.6,882.9,867.9,330.3,4263.6,-1443.3,-3756.6,-6.9,-6.0,418.8,-385.8,-0.3,433.2,647.1,1221.6,0,1428,0,128,0, 
0.7967,19.2,-52.2,-765.9,138.3,237.9,-205.2,-55.8,121.8,-1852.5,31.8,565.8,553.2,185.1,4303.8,-1356.3,-3732.9,-6.6,-6.0,94.8,56.4,-0.6,119.7,564.0,997.8,0,1434,0,129,0, 
0.8000,-200.7,-243.0,-942.0,-540.3,-442.2,52.8,-729.3,56.1,-2297.1,-652.8,-119.7,-135.9,-120.0,4153.2,-759.0,-3909.3,-6.9,-5.4,-584.7,-84.6,-1.2,-566.1,626.4,458.1,0,1440,0,130,0, 
0.8033,-229.8,-340.8,-1067.7,-523.5,-421.5,299.7,-715.8,63.3,-2519.4,-636.0,-103.8,-117.0,-151.5,4232.7,-318.9,-3974.4,-6.9,-6.0,-567.0,-513.6,-0.6,-542.1,681.0,459.9,0,1446,0,131,0, 
0.8067,-134.7,-197.4,-926.4,95.1,195.0,167.7,-103.8,105.3,-2445.3,-20.4,519.3,510.0,84.3,4236.3,-780.0,-3913.8,-6.9,-6.0,53.4,-743.7,-0.3,68.1,650.4,936.3,0,1452,0,132,0, 
0.8100,-52.5,-108.3,-902.7,409.8,507.0,-194.7,216.0,105.6,-2000.7,308.7,832.5,821.4,232.2,4167.9,-1529.7,-3766.8,-6.6,-6.0,360.9,-443.1,-0.9,389.1,515.1,1215.6,0,1458,0,133,0, 
0.8133,-51.6,-127.8,-905.1,65.7,163.5,-108.6,-127.5,149.1,-2000.7,-28.8,495.6,482.7,138.0,4185.9,-1410.9,-3769.8,-6.9,-6.0,26.4,25.8,-0.6,46.8,529.8,931.8,0,1464,0,134,0, 
0.8167,-151.5,-274.2,-970.2,-480.6,-383.1,231.0,-674.1,171.0,-2223.0,-574.8,-55.8,-70.2,-47.7,4149.3,-733.5,-3914.1,-6.6,-6.0,-520.2,-45.0,-0.9,-505.5,670.8,507.3,0,1470,0,135,0, 
0.8200,-236.7,-354.3,-1066.8,-447.0,-344.4,449.1,-631.8,133.8,-2445.3,-534.0,-21.6,-27.9,-68.1,4161.6,-421.5,-3949.2,-6.9,-6.0,-489.3,-431.4,-0.6,-466.2,792.6,524.7,0,1476,0,136,0, 
0.8233,-75.9,-222.6,-1064.4,204.6,305.4,215.7,13.2,70.8,-2223.0,110.1,633.6,620.7,73.5,4206.6,-896.1,-3838.2,-7.2,-5.7,171.9,-646.2,-0.9,183.9,697.8,1053.6,0,1482,0,137,0, 
0.8267,115.2,-60.3,-855.0,572.1,668.4,-102.6,381.3,168.3,-2000.7,479.4,997.8,991.5,286.2,4200.0,-1561.8,-3659.4,-7.2,-6.3,533.4,-262.5,-0.9,556.8,645.9,1350.6,0,1488,0,138,0, 
0.8300,63.3,-130.2,-873.6,185.7,290.1,-42.9,0.0,88.8,-1778.4,95.7,614.4,605.1,192.6,4118.1,-1511.7,-3655.5,-6.9,-6.0,149.1,159.3,-0.6,170.1,591.6,1068.3,0,1494,0,139,0, 
0.8333,-72.6,-289.5,-963.3,-347.1,-247.8,374.7,-537.3,81.0,-2297.1,-444.3,84.9,75.9,-72.6,4098.6,-871.2,-3756.3,-6.9,-5.7,-381.9,88.2,-0.9,-362.1,715.5,630.3,0,1500,0,140,0, 
0.8367,-167.4,-379.5,-1046.7,-305.1,-202.2,426.9,-492.6,2.7,-2297.1,-405.0,121.8,108.6,-173.7,4112.4,-617.1,-3794.7,-6.9,-5.7,-342.3,-299.4,-0.6,-319.5,774.3,673.2,0,1506,0,141,0, 
0.8400,-36.0,-174.9,-919.2,289.8,388.8,251.1,89.1,1.8,-2148.9,191.4,717.6,708.3,88.2,4134.0,-1145.4,-3724.5,-6.9,-5.7,249.3,-510.9,-0.9,265.5,802.5,1143.6,0,1512,0,142,0, 
0.8433,24.6,-43.5,-858.3,641.1,738.9,-63.3,438.0,77.1,-1926.6,544.5,1068.6,1058.7,270.6,4094.7,-1862.1,-3590.1,-6.6,-5.7,606.9,-206.1,-0.9,631.8,693.3,1426.8,0,1518,0,143,0, 
0.8467,-48.6,-87.0,-798.6,292.5,391.8,2.7,87.0,105.3,-1778.4,189.3,715.5,702.3,145.5,4071.3,-1843.8,-3631.8,-7.2,-5.7,249.9,192.3,-0.9,268.2,672.9,1141.5,0,1524,0,144,0, 
0.8500,-109.8,-250.5,-880.2,-212.1,-111.3,426.6,-411.6,161.7,-1926.6,-307.5,211.8,189.9,-94.2,4041.3,-1164.3,-3728.4,-6.6,-6.3,-251.7,263.7,-0.3,-233.4,796.2,760.2,0,1530,0,145,0, 
0.8533,-125.1,-275.7,-957.6,-207.3,-108.3,519.3,-415.8,39.9,-2223.0,-307.2,220.5,208.2,-199.5,4026.3,-876.0,-3779.4,-6.9,-5.1,-247.2,-232.2,-0.6,-219.9,911.4,768.0,0,1536,0,146,0, 
0.8567,-54.3,-129.6,-952.2,397.5,497.7,243.6,186.0,-22.2,-1926.6,309.3,834.6,821.4,-208.2,4095.6,-1293.3,-3664.5,-6.9,-5.4,369.9,-485.1,-0.9,388.2,712.8,1243.2,0,1542,0,147,0, 
0.8600,132.0,21.0,-862.2,807.9,905.1,-30.9,592.2,53.7,-1704.3,709.8,1234.2,1226.1,-109.8,4077.6,-1947.3,-3517.5,-6.9,-6.0,767.1,-143.4,-0.9,791.4,726.6,1576.5,0,1548,0,148,0, 
0.8633,-68.1,-151.2,-887.1,323.4,420.9,-88.2,113.4,4.5,-1778.4,216.6,744.3,730.5,-223.8,3930.9,-2055.6,-3598.5,-6.3,-6.0,277.8,254.1,-0.9,304.5,574.8,1188.6,0,1554,0,149,0, 
0.8667,-103.8,-285.3,-984.9,-187.8,-89.4,328.8,-397.2,74.7,-2074.8,-288.0,239.1,225.9,-382.5,3927.6,-1318.2,-3697.8,-6.9,-5.7,-227.1,215.7,-0.3,-208.2,684.0,787.8,0,1560,0,150,0, 
0.8700,-79.8,-294.0,-1031.4,-146.1,-44.1,466.2,-354.9,28.5,-2000.7,-242.4,290.4,279.6,-396.6,4002.3,-991.2,-3723.9,-6.9,-5.7,-174.6,-127.5,-0.6,-159.9,857.1,842.1,0,1566,0,151,0, 
0.8733,-13.2,-190.8,-985.5,491.7,597.0,167.4,278.1,30.3,-2074.8,404.4,930.9,924.6,-204.0,4075.8,-1633.8,-3669.9,-6.9,-6.0,465.0,-335.7,-0.6,474.6,806.1,1348.2,0,1572,0,152,0, 
0.8767,40.8,-144.3,-909.3,838.5,933.0,-174.6,625.8,-9.3,-1556.1,745.2,1270.5,1252.8,-140.1,3953.7,-2400.9,-3537.3,-6.9,-5.7,807.9,-165.0,-0.6,824.7,719.1,1621.8,0,1578,0,153,0, 
0.8800,-65.4,-162.0,-943.5,487.2,577.5,-110.1,282.3,5.7,-1556.1,389.4,911.1,897.6,-233.4,3883.8,-2359.2,-3504.3,-7.2,-5.7,450.0,327.3,-0.9,465.6,695.4,1356.6,0,1584,0,154,0, 
0.8833,-175.2,-291.9,-1036.8,-98.7,-1.2,265.2,-300.9,122.4,-1926.6,-191.1,335.4,320.1,-495.6,3866.4,-1646.7,-3599.1,-6.9,-5.7,-128.4,364.5,-0.9,-119.7,698.7,897.9,0,1590,0,155,0, 
0.8867,-290.7,-373.5,-1173.9,-120.9,-23.7,398.4,-318.6,50.7,-2148.9,-214.5,312.3,303.9,-558.0,3769.5,-1304.7,-3722.7,-7.2,-6.3,-157.8,-102.9,-0.9,-133.5,797.4,835.5,0,1596,0,156,0, 
0.8900,-254.1,-289.8,-1121.4,466.8,561.9,129.6,270.0,45.3,-1926.6,368.7,897.3,887.1,-338.1,3871.8,-1855.8,-3645.0,-6.9,-6.0,435.0,-330.0,-0.9,450.9,732.0,1324.2,0,1602,0,157,0, 
0.8933,-103.8,-92.1,-917.7,860.4,950.4,-144.9,664.5,75.9,-1630.2,757.2,1284.3,1272.3,-121.5,3906.0,-2550.0,-3513.0,-7.2,-6.0,823.8,-30.9,-1.2,836.7,644.7,1667.7,0,1608,0,158,0, 
0.8967,-174.0,-177.3,-913.5,500.4,594.9,-123.0,305.7,60.9,-1630.2,390.0,926.4,914.7,-237.3,3772.8,-2452.5,-3510.9,-7.5,-6.0,457.8,381.9,-0.6,472.8,518.4,1364.4,0,1614,0,159,0, 
0.9000,-217.8,-275.1,-984.9,-78.9,20.4,287.4,-261.6,149.1,-1852.5,-170.1,350.1,335.7,-377.1,3779.4,-1744.8,-3644.4,-6.6,-5.4,-114.9,422.4,-0.9,-90.0,605.4,902.4,0,1620,0,160,0, 
0.9033,-249.6,-283.8,-978.3,-14.1,87.6,484.5,-196.5,85.8,-2074.8,-114.9,413.4,401.1,-458.4,3819.0,-1371.0,-3697.2,-7.2,-6.0,-44.7,-4.5,-0.6,-39.3,693.0,962.4,0,1626,0,161,0, 
0.9067,-143.7,-174.9,-956.7,658.8,756.6,235.8,468.3,7.8,-2000.7,558.9,1088.4,1075.2,-259.5,3854.4,-1864.8,-3629.4,-7.5,-6.0,627.6,-246.0,-0.9,637.5,661.8,1467.6,0,1632,0,162,0, 
0.9100,-85.8,-125.4,-883.2,986.7,1087.2,-169.8,794.1,20.7,-1704.3,891.6,1419.3,1408.2,-78.9,3840.9,-2612.1,-3507.3,-6.6,-6.0,958.8,137.1,-0.6,965.1,558.0,1794.9,0,1638,0,163,0, 
0.9133,-222.3,-150.9,-924.3,603.3,699.6,-119.4,422.4,6.6,-1556.1,521.7,1041.3,1025.1,-93.6,3798.3,-2579.1,-3483.9,-6.9,-5.7,576.3,488.1,-0.9,598.5,530.4,1471.8,0,1644,0,164,0, 
0.9167,-385.5,-306.0,-1032.0,1.2,101.7,124.2,-179.4,-37.5,-1778.4,-84.0,441.0,424.8,-342.9,3736.8,-1909.8,-3582.9,-6.6,-5.7,-26.1,404.4,-0.9,-7.2,614.1,987.3,0,1650,0,165,0, 
0.9200,-387.9,-399.9,-1095.6,9.0,108.6,295.2,-175.8,-41.7,-1926.6,-77.7,441.3,429.3,-511.2,3683.4,-1534.8,-3659.4,-7.2,-6.3,-17.4,16.8,-0.6,-6.0,690.9,965.4,0,1656,0,166,0, 
0.9233,-278.7,-294.6,-1066.8,635.7,727.5,0.3,448.2,-66.0,-1778.4,535.5,1066.2,1051.8,-277.2,3710.4,-2071.8,-3547.5,-7.2,-6.0,605.7,-138.9,-0.9,625.8,753.9,1473.3,0,1662,0,167,0, 
0.9267,-209.1,-148.8,-937.5,996.6,1093.2,-217.8,802.8,-45.6,-1482.0,901.8,1428.9,1414.2,-105.9,3754.8,-2675.4,-3424.8,-6.9,-6.0,964.2,136.5,-0.6,976.8,593.1,1784.1,0,1668,0,168,0, 
0.9300,-214.2,-128.1,-921.0,698.1,795.3,-75.3,498.6,5.7,-1407.9,606.6,1134.3,1120.8,-121.2,3765.3,-2610.0,-3398.7,-6.9,-5.7,673.2,572.1,-1.2,683.7,619.2,1576.5,0,1674,0,169,0, 
0.9333,-324.3,-204.6,-1039.2,133.2,231.9,316.5,-70.2,-37.8,-1704.3,45.9,574.8,559.2,-397.5,3714.0,-1848.0,-3477.3,-6.6,-5.7,111.0,492.6,-0.9,109.8,657.0,1110.9,0,1680,0,170,0, 
0.9367,-416.1,-341.7,-1107.9,137.7,232.5,406.2,-60.0,-120.3,-1926.6,51.9,576.9,553.2,-565.8,3750.9,-1551.9,-3562.5,-7.2,-5.7,111.6,-1.8,-0.9,128.7,639.9,1090.2,0,1686,0,171,0, 
0.9400,-355.8,-254.7,-1094.1,699.6,792.9,195.3,489.0,-135.3,-1704.3,607.5,1137.9,1124.7,-462.3,3787.2,-2051.1,-3485.4,-6.9,-6.0,670.2,-97.5,-0.9,691.5,642.6,1544.7,0,1692,0,172,0, 
0.9433,-253.2,-177.0,-1067.7,986.1,1080.0,-180.9,783.6,-96.0,-1407.9,907.5,1432.5,1423.5,-332.1,3778.2,-2736.6,-3447.9,-7.2,-5.7,961.5,149.7,-0.9,990.9,550.8,1782.9,0,1698,0,173,0, 
0.9467,-305.4,-284.7,-1056.0,580.2,678.3,-100.8,385.5,-113.4,-1482.0,476.4,1013.4,1002.6,-434.1,3636.0,-2701.8,-3465.9,-6.9,-5.7,545.7,478.2,-0.6,567.3,414.9,1464.3,0,1704,0,174,0, 
0.9500,-446.7,-396.3,-1254.9,-19.5,79.5,276.9,-210.3,-131.7,-1926.6,-120.6,405.6,392.1,-552.3,3619.8,-2036.7,-3606.0,-6.9,-6.0,-58.5,363.6,-0.6,-34.2,516.6,970.5,0,1710,0,175,0, 
0.9533,-411.9,-364.8,-1267.8,-34.5,65.1,507.0,-223.8,-108.9,-2000.7,-131.7,401.7,388.8,-632.7,3611.7,-1598.1,-3695.1,-6.6,-5.7,-65.1,-73.2,-0.9,-43.8,695.7,946.8,0,1716,0,176,0, 
0.9567,-330.6,-276.0,-1289.7,543.0,641.1,212.1,348.9,-108.0,-1778.4,459.3,992.4,973.8,-476.7,3630.3,-2216.4,-3669.9,-6.9,-5.7,525.6,-467.1,-0.9,535.5,621.9,1402.5,0,1722,0,177,0, 
0.9600,-112.2,-131.1,-1130.1,951.6,1050.9,-63.9,759.3,-68.1,-1482.0,870.3,1398.9,1382.7,-216.9,3700.5,-2863.2,-3486.0,-6.9,-6.0,936.9,9.0,-0.9,946.8,620.1,1741.8,0,1728,0,178,0, 
0.9633,-156.9,-124.8,-1140.3,647.1,747.3,-45.0,455.7,-39.0,-1556.1,559.2,1078.8,1072.8,-310.8,3613.8,-2842.8,-3420.3,-6.6,-5.7,614.1,351.6,-0.3,632.7,485.4,1517.4,0,1734,0,179,0, 
0.9667,-371.1,-376.5,-1267.5,64.5,164.7,198.9,-120.3,-72.9,-1704.3,-36.9,498.0,482.4,-606.0,3562.8,-2130.0,-3559.8,-6.9,-6.0,41.1,301.8,-0.6,52.8,583.2,1052.1,0,1740,0,180,0, 
0.9700,-377.7,-416.4,-1329.0,187.2,284.4,337.2,2.7,-78.9,-1926.6,104.7,618.3,605.7,-657.6,3616.8,-1818.0,-3535.2,-7.2,-5.7,153.3,-102.9,-0.6,173.4,685.5,1133.4,0,1746,0,181,0, 
0.9733,-174.3,-227.1,-1303.5,821.4,920.4,99.6,641.4,-111.9,-1630.2,746.1,1259.7,1252.5,-495.9,3725.7,-2276.4,-3472.5,-6.3,-5.4,788.7,-216.6,-1.5,816.0,765.0,1653.9,0,1752,0,182,0, 
0.9767,-153.9,-63.6,-1230.0,1194.3,1292.4,-207.0,1010.7,-106.5,-1407.9,1100.1,1628.1,1619.1,-437.4,3649.8,-3047.1,-3336.9,-7.2,-5.7,1161.6,48.0,-0.6,1184.1,582.0,1950.6,0,1758,0,183,0, 
0.9800,-114.9,-117.9,-1127.1,891.0,986.7,-164.4,710.1,51.3,-1259.7,800.7,1324.2,1312.5,-502.5,3623.1,-2843.1,-3255.3,-6.6,-5.7,861.6,535.2,-0.6,888.6,562.8,1723.5,0,1764,0,184,0, 
0.9833,-261.3,-282.0,-1178.4,318.9,421.2,177.6,141.6,68.1,-1556.1,222.9,752.4,742.2,-648.9,3608.1,-2141.4,-3369.6,-6.9,-5.4,292.8,489.3,-0.6,301.5,593.7,1271.7,0,1770,0,185,0, 
0.9867,-257.7,-275.7,-1228.2,455.7,558.9,341.4,280.8,45.0,-1704.3,366.9,885.9,872.1,-748.2,3641.4,-1754.1,-3391.8,-6.9,-6.0,417.3,102.6,-0.9,439.8,649.8,1358.4,0,1776,0,186,0, 
0.9900,-252.0,-189.0,-1267.2,935.4,1031.4,15.9,750.3,39.3,-1556.1,833.1,1365.3,1356.3,-621.9,3616.8,-2360.1,-3370.5,-6.9,-6.0,897.9,-121.8,-0.3,921.6,593.1,1742.7,0,1782,0,187,0, 
0.9933,-148.8,-77.7,-1203.0,1338.3,1440.3,-402.0,1151.1,27.9,-1185.6,1225.5,1767.9,1761.9,-441.0,3601.5,-3099.6,-3262.2,-6.9,-6.0,1301.7,135.0,-1.2,1313.1,391.2,2050.8,0,1788,0,188,0, 
0.9967,-175.8,-159.3,-1148.1,958.5,1061.7,-267.9,769.2,89.1,-1111.5,850.8,1388.7,1377.6,-554.4,3562.2,-3010.2,-3246.3,-6.9,-5.4,923.7,540.6,-0.3,926.1,376.8,1759.8,0,1794,0,189,0, 
1.0000,-285.9,-333.9,-1257.6,416.1,507.0,61.5,231.0,122.7,-1482.0,313.2,844.5,833.4,-771.9,3570.9,-2373.3,-3355.8,-7.2,-6.3,382.8,501.0,-0.9,402.9,591.3,1310.1,0,1800,0,190,0, 
1.0033,-285.3,-294.3,-1293.3,476.7,577.2,330.0,284.4,114.6,-1556.1,375.6,909.9,900.0,-781.5,3663.0,-1978.8,-3357.6,-6.9,-5.7,452.4,128.4,-0.6,454.5,701.1,1339.2,0,1806,0,191,0, 
1.0067,-206.1,-190.5,-1392.0,1074.0,1167.0,-29.1,876.9,-32.7,-1407.9,965.7,1496.4,1486.2,-683.1,3640.5,-2636.7,-3332.4,-6.3,-5.7,1034.7,-118.8,-1.2,1051.2,600.3,1824.3,0,1812,0,192,0, 
1.0100,-103.5,-161.4,-1280.1,1437.3,1527.6,-326.4,1236.3,-95.4,-1111.5,1325.1,1866.9,1854.6,-539.7,3629.1,-3329.4,-3181.8,-7.5,-6.0,1404.9,216.0,-0.3,1412.7,471.9,2122.2,0,1818,0,193,0, 
1.0133,-229.2,-253.8,-1293.0,973.2,1069.8,-303.0,772.8,-41.4,-1333.8,855.0,1395.3,1380.6,-669.9,3540.0,-3268.8,-3322.5,-7.5,-6.3,930.6,583.8,-0.6,944.7,393.0,1735.8,0,1824,0,194,0, 
1.0167,-414.3,-479.7,-1391.4,362.1,452.4,57.3,158.7,-80.1,-1482.0,248.4,789.9,776.1,-904.8,3506.4,-2576.4,-3423.9,-6.9,-5.4,320.4,503.1,-0.6,330.9,476.7,1228.2,0,1830,0,195,0, 
1.0200,-436.5,-428.1,-1430.7,446.7,540.9,259.5,237.6,-112.8,-1630.2,324.3,871.2,863.1,-824.4,3516.6,-2154.3,-3429.9,-6.9,-6.0,406.2,110.1,-0.3,408.3,602.7,1287.0,0,1836,0,196,0, 
1.0233,-366.9,-325.8,-1434.9,1052.4,1153.5,-2.4,838.8,-161.7,-1556.1,928.2,1478.1,1470.0,-684.0,3558.3,-2705.1,-3364.2,-6.6,-5.7,1008.9,-219.3,-0.6,1015.5,575.4,1782.6,0,1842,0,197,0, 
1.0267,-250.5,-175.2,-1292.7,1406.7,1498.5,-362.7,1187.4,-136.2,-1185.6,1290.6,1839.0,1827.9,-505.8,3534.0,-3430.5,-3243.0,-6.9,-6.0,1374.9,108.0,-0.6,1380.0,482.7,2075.7,0,1848,0,198,0, 
1.0300,-299.4,-290.4,-1313.7,1085.7,1175.4,-364.5,867.0,-66.3,-1111.5,977.4,1512.3,1508.1,-685.2,3483.9,-3407.1,-3199.8,-6.9,-5.7,1047.3,483.6,-0.9,1065.3,411.9,1782.9,0,1854,0,199,0, 
1.0333,-477.9,-427.8,-1426.2,483.6,580.2,-33.3,272.4,-60.9,-1407.9,379.5,910.8,906.3,-974.1,3416.4,-2694.0,-3364.8,-6.9,-6.0,444.6,513.0,-0.6,452.4,451.8,1326.3,0,1860,0,200,0, 
1.0367,-510.0,-418.5,-1541.1,439.8,537.9,114.6,237.6,-67.5,-1630.2,340.2,868.8,860.4,-986.4,3451.8,-2346.3,-3463.5,-6.6,-6.0,410.4,21.3,-0.9,416.7,528.9,1288.5,0,1866,0,201,0, 
1.0400,-438.6,-278.1,-1451.7,1049.4,1147.8,-169.5,846.6,-123.0,-1482.0,957.6,1488.0,1473.0,-772.2,3467.1,-2857.2,-3378.3,-6.6,-5.4,1024.5,-78.6,-0.9,1037.4,480.9,1755.9,0,1872,0,202,0, 
1.0433,-378.0,-253.8,-1349.1,1408.5,1503.3,-505.2,1205.7,-126.6,-1185.6,1308.0,1838.1,1827.0,-690.3,3390.6,-3562.2,-3282.6,-6.9,-6.0,1365.6,174.6,-0.9,1394.7,292.8,2064.6,0,1878,0,203,0, 
1.0467,-468.6,-375.9,-1413.0,926.4,1022.1,-557.1,729.9,-85.5,-1333.8,838.2,1356.0,1353.6,-804.0,3303.6,-3508.8,-3321.0,-6.6,-5.7,892.8,472.2,-0.9,928.2,217.8,1661.1,0,1884,0,204,0, 
1.0500,-660.9,-539.4,-1556.7,391.5,490.8,-217.8,194.1,-122.4,-1556.1,300.6,819.6,816.6,-1071.0,3213.0,-2778.0,-3422.1,-6.9,-6.3,356.7,422.4,-0.9,380.4,264.3,1215.3,0,1890,0,205,0, 
1.0533,-656.4,-604.8,-1614.9,391.2,486.3,-14.7,197.1,-109.5,-1704.3,301.8,827.7,819.9,-1040.1,3339.9,-2364.9,-3471.6,-6.9,-5.7,363.9,69.3,-1.2,393.6,466.2,1212.0,0,1896,0,206,0, 
1.0567,-517.5,-435.3,-1538.4,1047.9,1150.8,-289.8,849.9,-82.5,-1482.0,951.9,1477.8,1479.9,-811.8,3456.9,-2760.3,-3373.2,-7.2,-5.7,1011.3,-153.9,-0.6,1031.4,446.4,1754.1,0,1902,0,207,0, 
1.0600,-405.0,-297.6,-1388.7,1411.2,1505.7,-506.4,1216.2,49.2,-1111.5,1323.6,1848.0,1843.5,-541.5,3484.2,-3382.8,-3241.8,-6.9,-5.7,1391.1,231.6,-0.6,1413.9,523.8,2057.7,0,1908,0,208,0, 
1.0633,-474.6,-414.9,-1419.6,1014.6,1108.5,-484.8,818.4,-43.2,-1111.5,925.8,1453.8,1450.8,-775.5,3407.7,-3402.0,-3313.8,-6.9,-6.3,987.9,584.1,-1.2,1011.0,423.0,1734.9,0,1914,0,209,0, 
1.0667,-646.8,-580.2,-1574.7,402.0,502.8,-176.4,213.0,-3.3,-1482.0,305.1,834.9,831.6,-1019.7,3359.1,-2666.7,-3435.3,-6.6,-5.7,366.0,538.5,-0.9,390.3,533.4,1253.7,0,1920,0,210,0, 
1.0700,-717.6,-640.5,-1646.7,371.4,470.1,63.0,180.9,-69.6,-1704.3,281.7,809.7,801.3,-1066.5,3361.5,-2258.1,-3560.1,-6.6,-6.0,347.7,185.1,-0.9,367.2,608.4,1209.6,0,1926,0,211,0, 
1.0733,-625.5,-541.2,-1644.9,986.4,1089.3,-204.9,784.2,-131.7,-1482.0,893.1,1422.9,1421.7,-839.4,3328.8,-2746.2,-3441.6,-6.9,-5.7,959.4,-178.5,-0.6,988.2,553.8,1691.7,0,1932,0,212,0, 
1.0767,-505.8,-341.1,-1503.0,1323.3,1417.5,-401.4,1129.5,-50.4,-1185.6,1238.1,1765.5,1758.0,-687.9,3322.8,-3366.0,-3319.5,-6.6,-5.4,1308.6,169.8,-0.9,1330.5,489.6,1984.8,0,1938,0,213,0, 
1.0800,-589.5,-374.7,-1542.0,1007.7,1101.0,-326.4,801.0,-0.6,-1111.5,920.4,1445.1,1439.4,-766.8,3249.3,-3389.4,-3295.5,-6.9,-6.0,976.8,542.1,-0.6,1009.5,393.3,1752.9,0,1944,0,214,0, 
1.0833,-714.3,-517.2,-1639.2,479.7,580.8,-28.2,275.1,-17.7,-1185.6,376.8,914.7,913.2,-1019.7,3236.7,-2641.2,-3435.0,-6.6,-5.7,448.8,597.0,-0.6,467.7,507.0,1321.8,0,1950,0,215,0, 
1.0867,-761.4,-589.2,-1701.9,509.1,600.9,101.4,305.7,-36.9,-1482.0,418.2,945.0,939.0,-1102.5,3323.4,-2220.6,-3487.2,-7.2,-5.7,478.2,225.6,-0.9,502.2,601.2,1350.6,0,1956,0,216,0, 
1.0900,-649.5,-443.4,-1607.4,1097.4,1194.3,-63.6,886.2,-62.4,-1333.8,1006.2,1530.0,1524.9,-862.8,3404.1,-2651.4,-3374.4,-6.9,-6.0,1070.1,41.1,-0.9,1083.0,633.3,1803.3,0,1962,0,217,0, 
1.0933,-583.8,-351.9,-1534.8,1440.6,1533.9,-334.5,1221.3,19.5,-1037.4,1341.6,1882.5,1880.7,-762.0,3444.0,-3394.2,-3243.6,-6.9,-5.7,1416.6,339.9,-1.2,1434.9,500.7,2069.1,0,1968,0,218,0, 
1.0967,-585.9,-388.8,-1485.0,1068.3,1161.9,-324.9,852.0,-14.4,-889.2,972.3,1507.8,1506.9,-841.8,3348.9,-3255.6,-3243.0,-6.9,-6.0,1044.9,752.4,-0.9,1053.9,381.9,1792.8,0,1974,0,219,0, 
1.1000,-768.3,-507.9,-1560.6,517.8,603.9,-37.2,298.8,-83.7,-1259.7,402.6,948.3,938.1,-948.6,3324.9,-2546.7,-3351.3,-6.9,-5.7,492.0,714.6,-0.9,497.4,508.8,1331.4,0,1980,0,220,0, 
1.1033,-735.6,-600.9,-1652.7,484.2,571.8,218.4,268.2,-187.2,-1407.9,370.2,913.8,905.1,-963.3,3419.7,-2093.1,-3440.7,-7.2,-6.0,449.1,233.4,-1.2,453.9,610.5,1268.7,0,1986,0,221,0, 
1.1067,-663.3,-476.1,-1605.9,1080.3,1172.1,10.8,858.6,-239.4,-1407.9,959.4,1504.2,1495.2,-764.7,3482.4,-2599.2,-3369.6,-6.9,-5.7,1041.3,-43.2,-0.6,1044.6,498.3,1774.8,0,1992,0,222,0, 
1.1100,-540.6,-379.5,-1530.0,1391.4,1481.4,-313.8,1174.8,-153.9,-963.3,1278.0,1818.9,1813.5,-642.6,3377.7,-3289.2,-3283.5,-6.9,-6.3,1353.3,267.6,-0.6,1356.3,388.5,2033.7,0,1998,0,223,0, 
1.1133,-654.0,-448.2,-1576.2,1011.0,1098.0,-244.8,796.5,-210.6,-1111.5,900.3,1442.4,1436.4,-723.9,3360.9,-3203.1,-3307.5,-6.9,-6.3,974.4,600.6,-0.6,993.0,319.2,1734.6,0,2004,0,224,0, 
1.1167,-670.5,-589.8,-1621.5,489.3,584.7,186.3,267.0,-130.5,-1333.8,366.9,911.4,908.4,-865.2,3390.9,-2405.4,-3366.3,-7.2,-5.7,444.9,756.9,-0.9,457.2,386.7,1325.7,0,2010,0,225,0, 
1.1200,-704.4,-650.7,-1610.7,527.1,610.8,336.6,305.4,-180.9,-1482.0,408.0,955.5,952.8,-942.3,3441.3,-2004.3,-3408.9,-6.6,-5.7,491.1,191.7,-0.6,496.5,444.9,1344.6,0,2016,0,226,0, 
1.1233,-633.6,-523.2,-1645.8,1083.3,1174.8,-49.2,861.0,-167.1,-1407.9,969.6,1515.3,1519.5,-800.7,3364.8,-2543.7,-3383.1,-7.5,-5.1,1050.9,-12.3,-0.6,1058.7,375.9,1771.2,0,2022,0,227,0, 
1.1267,-507.9,-481.2,-1557.3,1409.4,1497.3,-342.0,1191.0,-249.6,-1037.4,1299.0,1836.9,1829.7,-716.7,3372.9,-3179.7,-3277.2,-6.6,-6.0,1371.0,337.8,-0.6,1376.4,291.6,2069.7,0,2028,0,228,0, 
1.1300,-493.5,-494.1,-1512.0,951.0,1038.6,-255.0,729.9,-152.7,-1037.4,835.2,1377.6,1367.4,-731.4,3317.1,-3070.8,-3326.7,-6.9,-5.7,920.7,641.1,-1.2,918.0,267.6,1679.4,0,2034,0,229,0, 
1.1333,-644.1,-570.0,-1602.3,407.7,498.0,22.2,199.5,-130.8,-1407.9,299.1,829.2,827.4,-917.7,3328.5,-2363.4,-3457.5,-7.2,-5.7,360.6,550.5,-0.9,378.9,311.7,1256.1,0,2040,0,230,0, 
1.1367,-674.1,-519.3,-1572.9,498.6,590.4,294.0,285.6,-126.6,-1482.0,387.0,923.4,908.1,-913.2,3413.1,-1897.2,-3441.9,-6.9,-5.7,467.1,246.9,-0.6,464.7,543.3,1319.4,0,2046,0,231,0, 
1.1400,-603.3,-365.1,-1579.5,1158.0,1245.6,39.6,951.0,-196.2,-1111.5,1055.7,1581.0,1578.6,-780.3,3472.5,-2452.8,-3317.7,-6.9,-6.0,1113.6,2.1,-1.2,1138.2,494.1,1865.1,0,2052,0,232,0, 
1.1433,-514.2,-236.4,-1433.1,1471.5,1561.8,-285.0,1260.9,-238.8,-1037.4,1359.0,1893.6,1892.4,-636.0,3433.8,-3113.4,-3207.6,-7.5,-6.0,1428.9,394.8,-0.9,1439.4,414.0,2149.5,0,2058,0,233,0, 
1.1467,-591.6,-318.6,-1505.1,1086.9,1178.1,-167.4,881.4,-230.4,-1037.4,983.4,1510.2,1508.1,-726.3,3360.9,-3083.4,-3223.2,-6.9,-5.4,1049.7,734.4,-0.9,1060.2,464.7,1846.8,0,2064,0,234,0, 
1.1500,-763.5,-550.2,-1584.9,489.9,584.4,133.8,287.4,-273.0,-1259.7,369.9,922.5,919.8,-997.5,3265.2,-2298.3,-3321.6,-7.2,-6.3,459.6,684.0,-0.9,467.1,531.0,1349.4,0,2070,0,235,0, 
1.1533,-797.4,-560.1,-1752.0,450.0,549.6,318.6,243.6,-282.3,-1556.1,337.2,875.7,878.1,-1011.0,3320.1,-1961.4,-3419.4,-7.2,-6.0,415.5,266.4,-0.6,425.1,582.0,1306.2,0,2076,0,236,0, 
1.1567,-639.3,-438.0,-1687.5,1069.2,1161.9,51.9,861.3,-274.2,-1556.1,962.4,1499.7,1504.8,-769.5,3329.1,-2510.7,-3307.2,-6.6,-6.0,1033.8,75.6,-0.6,1052.1,591.0,1783.8,0,2082,0,237,0, 
1.1600,-503.1,-301.5,-1533.9,1413.3,1499.7,-220.8,1210.5,-216.0,-1111.5,1300.2,1840.8,1838.1,-646.5,3326.4,-3207.9,-3216.3,-6.6,-6.0,1380.3,342.6,-0.6,1390.5,509.1,2093.1,0,2088,0,238,0, 
1.1633,-563.1,-321.6,-1523.7,1017.0,1099.8,-181.8,812.4,-183.9,-1111.5,902.7,1439.1,1436.1,-783.9,3231.3,-3159.0,-3246.9,-7.2,-6.0,980.4,698.1,-1.2,993.6,460.5,1783.2,0,2094,0,239,0, 
1.1667,-663.6,-482.7,-1628.4,476.1,567.0,229.2,264.3,-97.8,-1259.7,365.4,899.4,900.0,-941.1,3243.6,-2371.2,-3343.8,-7.2,-5.7,443.4,683.1,-0.9,438.0,594.0,1332.3,0,2100,0,240,0, 
1.1700,-723.6,-491.1,-1654.2,526.2,615.6,423.9,313.8,-107.7,-1407.9,416.1,952.8,951.6,-894.9,3257.4,-2011.5,-3406.8,-7.2,-6.0,492.6,299.4,-0.9,498.0,702.3,1372.8,0,2106,0,241,0, 
1.1733,-693.3,-407.1,-1554.0,1123.2,1212.6,174.6,898.2,-158.1,-1407.9,1007.1,1554.0,1558.8,-751.5,3327.6,-2546.7,-3332.7,-6.9,-5.7,1092.3,181.2,-0.9,1095.6,730.8,1848.3,0,2112,0,242,0, 
1.1767,-594.3,-202.5,-1435.5,1491.3,1571.4,-144.0,1275.6,-98.4,-1037.4,1390.5,1925.1,1921.2,-629.1,3200.7,-3312.9,-3172.2,-6.9,-6.0,1461.3,416.4,-0.9,1476.9,617.7,2168.7,0,2118,0,243,0, 
1.1800,-679.8,-215.4,-1514.7,1110.3,1200.6,-81.0,899.1,-16.5,-963.3,1005.6,1537.2,1536.6,-728.7,3170.7,-3289.5,-3216.6,-6.9,-6.0,1073.1,754.8,-0.9,1083.9,529.8,1849.2,0,2124,0,244,0, 
1.1833,-763.5,-434.4,-1650.3,513.3,604.8,222.9,305.4,-39.9,-1333.8,389.1,938.7,940.8,-947.7,3063.3,-2652.0,-3320.7,-6.9,-5.7,474.9,707.7,-0.9,469.8,592.5,1372.5,0,2130,0,245,0, 
1.1867,-826.5,-447.0,-1744.8,488.4,578.4,395.4,270.0,-98.1,-1482.0,372.0,920.4,925.5,-934.2,3132.9,-2277.6,-3411.3,-6.6,-5.7,456.6,331.5,-0.9,452.4,711.6,1360.2,0,2136,0,246,0, 
1.1900,-735.9,-305.7,-1707.0,1037.4,1132.5,171.9,824.7,-152.4,-1259.7,936.6,1479.0,1485.9,-776.7,3180.6,-2820.9,-3393.3,-6.6,-5.4,1017.9,128.4,-0.6,1011.0,687.9,1770.3,0,2142,0,247,0, 
1.1933,-584.1,-161.4,-1587.0,1434.9,1540.8,-104.4,1219.8,-121.2,-1111.5,1335.3,1867.5,1873.2,-657.0,3056.7,-3449.1,-3248.7,-6.9,-5.7,1407.3,507.6,-0.9,1392.6,588.0,2118.6,0,2148,0,248,0, 
1.1967,-695.1,-234.9,-1626.0,1033.8,1118.1,10.8,825.6,-104.4,-1111.5,942.0,1464.3,1462.8,-835.5,2969.1,-3409.2,-3276.3,-7.2,-6.0,1003.5,782.1,-0.6,1008.3,623.4,1833.6,0,2154,0,249,0, 
1.2000,-799.8,-396.9,-1746.9,504.3,600.6,396.0,293.1,-57.0,-1259.7,384.9,932.4,935.1,-1077.6,2916.6,-2751.3,-3371.4,-6.9,-5.7,468.3,688.5,-0.6,463.2,681.9,1395.3,0,2160,0,250,0, 
1.2033,-825.0,-415.8,-1784.7,552.9,653.1,605.7,336.9,-68.7,-1482.0,444.3,987.9,982.8,-1131.3,2975.7,-2361.9,-3399.0,-6.9,-5.7,533.1,327.3,-0.9,516.6,755.7,1436.1,0,2166,0,251,0, 
1.2067,-663.6,-318.0,-1721.7,1194.3,1287.9,306.3,977.4,-119.7,-1185.6,1078.5,1622.7,1626.0,-1020.6,2989.5,-2883.6,-3310.2,-7.2,-6.3,1155.3,198.9,-0.9,1163.7,759.0,1931.1,0,2172,0,252,0, 
1.2100,-638.7,-182.4,-1595.7,1506.3,1609.2,-51.9,1295.7,-199.2,-1111.5,1388.1,1935.0,1935.6,-902.1,2886.3,-3696.6,-3187.5,-6.9,-6.3,1473.9,429.9,-0.9,1463.7,622.5,2185.8,0,2178,0,253,0, 
1.2133,-637.2,-262.8,-1559.1,1137.9,1232.1,0.3,926.1,-135.0,-963.3,1008.9,1551.3,1553.1,-1011.6,2844.3,-3655.5,-3170.7,-7.2,-5.7,1092.9,926.1,-0.6,1092.6,664.5,1905.9,0,2184,0,254,0, 
1.2167,-789.6,-421.8,-1688.7,549.6,644.1,378.9,342.0,-4.5,-1185.6,435.0,980.4,984.0,-1220.4,2844.3,-2964.6,-3278.1,-7.2,-6.0,514.8,844.2,-0.9,515.1,783.6,1450.2,0,2190,0,255,0, 
1.2200,-756.6,-447.6,-1689.6,534.9,622.8,567.6,315.6,-37.2,-1407.9,418.8,973.5,972.0,-1233.9,2893.5,-2510.7,-3377.4,-6.6,-5.4,510.0,397.8,-0.6,502.5,897.6,1396.8,0,2196,0,0,0, 
1.2233,-667.2,-426.9,-1650.0,1175.4,1276.2,385.2,958.5,-69.6,-1333.8,1059.3,1605.0,1610.7,-1078.2,2879.4,-3056.1,-3327.3,-6.6,-6.0,1140.6,96.6,-0.9,1131.3,857.7,1913.7,0,2202,0,1,0, 
1.2267,-480.6,-266.1,-1621.2,1567.5,1663.5,99.0,1352.1,3.0,-963.3,1457.1,1992.3,2001.0,-1016.7,2888.7,-3809.7,-3150.9,-6.9,-5.7,1524.0,522.3,-0.9,1537.8,775.8,2248.2,0,2208,0,2,0, 
1.2300,-567.9,-370.2,-1611.0,1202.1,1296.3,95.4,989.1,-18.0,-963.3,1074.6,1628.7,1628.7,-1049.1,2791.8,-3793.8,-3183.3,-6.9,-6.3,1165.2,802.8,-0.9,1165.5,730.8,1945.2,0,2214,0,3,0, 
1.2333,-660.6,-621.3,-1641.6,584.7,683.7,380.4,371.7,-2.1,-1407.9,465.6,1010.4,1020.6,-1287.3,2774.1,-3094.2,-3274.5,-7.2,-6.0,543.9,859.5,-0.6,543.6,849.6,1473.0,0,2220,0,4,0, 
1.2367,-732.3,-694.2,-1786.2,547.5,636.9,543.3,333.3,-13.5,-1482.0,427.5,970.8,977.7,-1318.8,2739.6,-2748.3,-3409.5,-7.5,-5.7,512.1,335.7,-0.6,518.7,948.6,1384.8,0,2226,0,5,0, 
1.2400,-606.0,-567.6,-1721.7,1138.8,1227.9,390.3,913.5,-11.7,-1259.7,1015.8,1562.1,1572.6,-1112.4,2844.9,-3317.1,-3372.6,-7.2,-6.0,1099.5,229.5,-0.6,1104.0,930.6,1866.3,0,2232,0,6,0, 
1.2433,-536.7,-412.8,-1586.4,1509.3,1593.6,51.9,1295.7,-57.3,-1111.5,1388.7,1937.1,1944.9,-984.6,2690.7,-4176.0,-3308.7,-7.2,-6.0,1476.3,487.8,-0.6,1483.5,798.9,2180.4,0,2238,0,7,0, 
1.2467,-571.8,-425.7,-1589.4,1121.7,1224.0,175.2,914.7,-6.6,-963.3,1002.3,1540.2,1551.6,-1055.1,2668.8,-4083.9,-3255.6,-6.9,-5.7,1073.4,923.4,-0.9,1091.1,738.6,1869.9,0,2244,0,8,0, 
1.2500,-747.0,-581.4,-1702.2,537.0,625.5,507.9,327.6,1.2,-1333.8,431.1,969.3,974.4,-1256.4,2571.0,-3416.7,-3351.3,-7.2,-5.7,506.7,809.4,-0.6,515.7,746.4,1387.2,0,2250,0,9,0, 
1.2533,-750.3,-663.9,-1790.7,560.4,661.8,741.0,354.6,-28.5,-1407.9,461.4,993.9,1001.4,-1287.3,2685.9,-2986.8,-3424.2,-7.2,-6.0,527.7,356.4,-0.9,533.4,842.4,1399.2,0,2256,0,10,0, 
1.2567,-671.7,-535.8,-1725.3,1158.3,1255.5,442.8,944.7,-46.5,-1333.8,1047.9,1584.6,1587.9,-1027.5,2646.9,-3571.5,-3375.3,-6.9,-6.0,1121.4,268.5,-0.9,1123.2,777.3,1884.3,0,2262,0,11,0, 
1.2600,-590.4,-390.0,-1617.9,1519.5,1611.3,41.1,1305.0,-42.9,-1037.4,1409.4,1945.8,1950.0,-837.0,2713.2,-4279.2,-3232.5,-7.2,-5.7,1485.0,542.7,-0.9,1500.3,716.7,2182.8,0,2268,0,12,0, 
1.2633,-692.4,-411.0,-1675.8,1123.5,1217.4,70.8,909.0,-101.4,-889.2,1007.1,1553.4,1566.3,-971.7,2594.1,-4273.8,-3248.4,-6.6,-6.0,1089.6,810.0,-0.6,1107.0,624.6,1868.1,0,2274,0,13,0, 
1.2667,-809.7,-558.3,-1790.7,539.4,636.0,477.9,330.9,-96.6,-1333.8,431.4,974.1,984.3,-1209.0,2601.6,-3515.7,-3370.2,-6.9,-5.7,510.6,757.5,-0.9,519.0,766.2,1407.6,0,2280,0,14,0, 
1.2700,-995.4,-696.9,-1912.8,526.5,629.1,613.8,315.6,-203.1,-1482.0,419.7,960.6,974.4,-1368.3,2434.5,-3253.5,-3472.2,-6.9,-5.7,501.3,292.5,-1.2,491.7,705.0,1387.5,0,2286,0,15,0, 
1.2733,-925.5,-567.9,-1790.7,1073.7,1173.6,324.3,854.7,-191.4,-1333.8,964.2,1509.9,1519.2,-1158.6,2526.3,-3695.4,-3431.1,-6.9,-5.7,1048.5,123.9,-1.2,1045.5,679.5,1803.3,0,2292,0,16,0, 
1.2767,-795.3,-448.5,-1660.2,1501.8,1597.2,32.4,1287.9,-167.4,-1037.4,1387.5,1940.4,1942.5,-1019.1,2518.2,-4362.3,-3280.8,-6.9,-6.0,1487.7,501.6,-0.6,1477.5,576.0,2147.1,0,2298,0,17,0, 
1.2800,-754.5,-457.8,-1518.0,1190.7,1281.0,68.1,978.9,-20.7,-963.3,1084.5,1620.0,1625.1,-1096.8,2493.0,-4212.9,-3200.4,-6.9,-5.7,1155.6,936.9,-0.6,1168.2,647.4,1939.2,0,2304,0,18,0, 
1.2833,-864.9,-580.8,-1647.9,667.2,765.9,455.7,460.2,4.8,-1259.7,559.8,1101.6,1108.2,-1250.4,2550.0,-3485.4,-3277.8,-7.2,-6.0,638.1,890.4,-0.6,639.0,770.1,1514.1,0,2310,0,19,0, 
1.2867,-914.4,-623.4,-1680.3,744.9,835.8,579.0,531.0,-66.3,-1333.8,635.4,1178.7,1185.9,-1287.0,2558.7,-3144.6,-3336.9,-6.9,-5.4,718.5,427.2,-0.9,723.3,831.0,1576.5,0,2316,0,20,0, 
1.2900,-777.6,-607.8,-1666.2,1281.3,1381.8,265.5,1062.0,-82.5,-1111.5,1159.2,1720.8,1740.6,-1079.7,2656.2,-3660.9,-3306.6,-7.2,-6.0,1254.3,295.8,-0.6,1245.3,770.4,1959.3,0,2322,0,21,0, 
1.2933,-710.1,-444.9,-1561.8,1695.9,1797.0,-62.1,1481.4,-139.5,-963.3,1583.7,2130.0,2130.0,-1038.3,2656.5,-4436.7,-3154.2,-6.9,-6.0,1674.3,669.6,-1.2,1656.9,637.5,2351.1,0,2328,0,22,0, 
1.2967,-738.9,-513.3,-1650.3,1261.2,1349.7,14.7,1046.4,-97.5,-815.1,1149.3,1693.8,1701.0,-1121.7,2617.5,-4406.1,-3202.5,-7.2,-6.3,1227.0,1013.4,-0.6,1239.9,633.9,2002.5,0,2334,0,23,0, 
1.3000,-912.6,-678.0,-1770.6,656.7,749.7,396.9,439.2,-84.9,-1259.7,541.8,1089.6,1095.9,-1303.5,2580.9,-3644.1,-3330.0,-7.2,-6.0,622.8,916.8,-0.6,627.0,728.1,1482.3,0,2340,0,24,0, 
1.3033,-920.1,-763.2,-1854.0,617.4,719.1,534.6,390.6,-180.9,-1333.8,491.4,1047.6,1056.6,-1342.5,2523.6,-3297.0,-3420.9,-7.2,-6.0,581.1,448.2,-0.6,575.7,801.0,1418.1,0,2346,0,25,0, 
1.3067,-828.6,-609.6,-1776.9,1224.9,1316.1,321.6,1001.4,-150.6,-1407.9,1125.0,1668.6,1671.9,-1183.2,2606.1,-3706.2,-3297.3,-7.2,-5.7,1206.6,315.3,-0.6,1206.6,741.6,1930.5,0,2352,0,26,0, 
1.3100,-798.6,-603.6,-1732.8,1507.5,1597.8,10.2,1291.2,-137.7,-963.3,1398.9,1957.8,1955.4,-986.7,2568.9,-4449.9,-3248.7,-6.9,-6.3,1493.4,449.4,-0.9,1494.9,522.9,2139.3,0,2358,0,27,0, 
1.3133,-832.5,-656.7,-1676.1,1146.0,1236.9,17.7,924.6,-56.1,-1037.4,1043.7,1589.7,1588.8,-1082.7,2448.6,-4383.9,-3213.9,-6.9,-5.7,1125.9,830.1,-0.6,1111.8,488.7,1858.5,0,2364,0,28,0, 
1.3167,-990.9,-780.9,-1724.1,580.5,678.6,339.6,366.0,-12.3,-1111.5,464.7,1018.5,1022.1,-1248.3,2520.0,-3657.3,-3318.0,-7.2,-5.7,555.6,876.0,-0.9,550.8,604.2,1403.7,0,2370,0,29,0, 
1.3200,-1060.8,-825.9,-1777.5,578.1,672.6,473.7,365.1,-34.8,-1407.9,465.0,1020.0,1030.2,-1308.6,2554.2,-3261.3,-3417.3,-6.9,-5.7,557.1,425.1,-0.6,539.4,670.5,1377.0,0,2376,0,30,0, 
1.3233,-941.7,-719.7,-1692.0,1162.5,1258.2,251.1,950.1,-48.6,-1259.7,1051.2,1605.9,1610.1,-1150.5,2514.6,-3678.9,-3408.0,-6.9,-5.7,1141.8,240.3,-0.6,1122.0,606.0,1847.1,0,2382,0,31,0, 
1.3267,-831.6,-501.6,-1615.2,1483.2,1572.6,-125.7,1271.4,-68.4,-1037.4,1368.0,1921.5,1921.8,-999.3,2556.3,-4363.8,-3285.0,-6.6,-5.7,1458.3,513.9,-0.9,1452.0,530.1,2113.2,0,2388,0,32,0, 
1.3300,-833.4,-499.8,-1611.9,1137.9,1234.8,-25.5,936.0,2.4,-963.3,1019.7,1576.2,1585.8,-1101.9,2535.0,-4171.8,-3240.3,-6.6,-5.7,1110.3,953.4,-0.9,1106.7,530.7,1853.4,0,2394,0,33,0, 
1.3333,-973.5,-736.2,-1779.9,510.9,603.0,231.3,306.3,-108.0,-1407.9,390.9,943.2,942.0,-1363.8,2496.9,-3479.4,-3439.2,-6.6,-6.3,480.3,783.9,-0.3,470.7,616.8,1345.2,0,2400,0,34,0, 
1.3367,-1082.1,-822.3,-1925.7,452.7,550.2,452.1,249.3,-104.1,-1556.1,339.0,885.3,892.8,-1354.2,2594.4,-3041.4,-3520.8,-6.6,-5.7,413.7,362.1,-0.6,422.1,738.9,1263.9,0,2406,0,35,0, 
1.3400,-1031.4,-735.0,-1896.9,1022.4,1114.5,155.7,818.7,-117.3,-1482.0,904.5,1461.0,1458.0,-1116.3,2562.9,-3585.3,-3519.0,-7.5,-6.0,1002.3,141.6,-0.3,989.4,673.8,1722.6,0,2412,0,36,0, 
1.3433,-918.6,-550.8,-1791.9,1452.9,1553.1,-113.4,1254.6,-8.1,-1037.4,1347.6,1891.5,1893.6,-1004.7,2492.1,-4206.3,-3326.4,-6.3,-5.7,1425.0,474.6,-0.3,1422.9,539.1,2073.9,0,2418,0,37,0, 
1.3467,-882.3,-637.2,-1764.3,1071.6,1161.0,-71.4,869.7,10.2,-1111.5,960.0,1504.8,1501.8,-1149.0,2477.4,-4121.7,-3338.1,-7.2,-6.0,1051.2,827.4,-0.3,1038.0,548.1,1774.5,0,2424,0,38,0, 
1.3500,-1000.5,-825.6,-1870.2,552.0,650.1,250.2,357.0,32.7,-1185.6,428.1,981.6,987.3,-1400.1,2433.6,-3482.4,-3443.7,-6.9,-5.7,510.0,651.3,-0.9,516.9,567.6,1356.9,0,2430,0,39,0, 
1.3533,-1035.3,-836.4,-1890.9,509.1,604.5,450.0,310.5,-2.1,-1556.1,391.2,941.4,947.7,-1412.4,2548.2,-3040.8,-3472.5,-6.6,-6.0,480.6,312.9,-0.6,475.8,675.6,1314.9,0,2436,0,40,0, 
1.3567,-919.8,-647.4,-1843.5,1112.4,1209.6,193.8,904.5,13.8,-1259.7,990.9,1553.7,1566.3,-1130.7,2455.8,-3548.7,-3411.3,-7.2,-6.0,1084.5,84.6,-0.6,1074.3,592.5,1799.7,0,2442,0,41,0, 
1.3600,-733.2,-496.5,-1809.3,1520.1,1608.3,-68.7,1317.9,17.7,-1111.5,1413.3,1963.5,1960.5,-984.9,2460.3,-4219.2,-3259.8,-7.2,-6.3,1508.7,497.4,-0.6,1503.9,463.5,2129.4,0,2448,0,42,0, 
1.3633,-814.8,-569.7,-1755.3,1120.2,1221.9,-99.0,917.4,83.4,-889.2,1004.7,1561.5,1565.7,-1145.1,2340.9,-4121.7,-3294.9,-7.2,-5.7,1089.6,830.4,-0.9,1086.6,392.1,1823.1,0,2454,0,43,0, 
1.3667,-892.2,-672.0,-1814.4,537.6,637.8,199.2,341.4,72.0,-1259.7,420.0,971.1,977.4,-1377.0,2399.7,-3351.9,-3425.7,-6.9,-5.7,503.4,845.1,-0.9,508.8,407.7,1349.1,0,2460,0,44,0, 
1.3700,-992.7,-799.5,-1856.1,533.7,634.8,337.5,330.0,20.7,-1407.9,406.5,969.6,979.2,-1384.5,2441.1,-2920.2,-3515.7,-6.6,-6.0,502.5,356.4,-0.9,489.3,444.3,1320.3,0,2466,0,45,0, 
1.3733,-802.2,-669.3,-1766.1,1211.7,1309.8,152.7,1013.7,-24.9,-1185.6,1096.8,1640.4,1646.1,-1147.5,2516.4,-3378.0,-3359.4,-6.9,-5.7,1184.1,204.0,-0.9,1185.9,525.6,1899.6,0,2472,0,46,0, 
1.3767,-740.4,-537.9,-1697.1,1566.0,1654.8,-216.6,1357.8,-39.3,-963.3,1453.8,2005.2,2010.9,-1015.8,2434.8,-4134.3,-3201.3,-6.9,-6.0,1541.1,445.2,-0.9,1533.6,304.2,2168.1,0,2478,0,47,0, 
1.3800,-821.7,-530.1,-1722.0,1250.7,1338.6,-158.1,1046.7,-18.3,-889.2,1155.9,1696.8,1693.8,-1080.3,2415.3,-4104.0,-3162.6,-7.2,-5.7,1237.2,873.6,-0.6,1237.5,431.4,1952.4,0,2484,0,48,0, 
1.3833,-948.9,-736.2,-1848.3,696.3,791.7,84.0,491.1,1.2,-1185.6,582.3,1135.5,1142.4,-1284.0,2402.4,-3350.1,-3269.4,-6.6,-5.7,669.6,901.8,-1.2,669.0,528.3,1486.2,0,2490,0,49,0, 
1.3867,-909.9,-727.8,-1855.2,753.6,852.0,326.7,555.9,16.5,-1259.7,659.7,1190.1,1201.2,-1324.2,2509.5,-2854.2,-3306.0,-6.6,-6.0,718.8,537.0,-0.6,732.9,665.4,1532.4,0,2496,0,50,0, 
1.3900,-789.9,-669.0,-1846.8,1337.4,1432.5,1.8,1137.6,-122.4,-1037.4,1219.8,1775.7,1784.4,-1191.3,2516.7,-3384.6,-3240.6,-6.9,-6.0,1311.9,391.5,-0.6,1302.6,524.4,1992.0,0,2502,0,51,0, 
1.3933,-799.2,-539.1,-1805.7,1607.7,1696.8,-327.9,1410.0,-156.0,-1037.4,1501.2,2041.2,2043.9,-1083.6,2537.7,-4097.1,-3145.2,-7.2,-5.7,1581.9,648.6,-0.6,1585.2,409.5,2215.2,0,2508,0,52,0, 
1.3967,-776.1,-586.5,-1781.1,1234.8,1329.3,-243.6,1036.2,-41.7,-889.2,1105.2,1667.1,1674.9,-1119.6,2465.4,-3914.7,-3146.1,-6.9,-5.7,1204.5,1009.8,-0.6,1191.9,393.3,1947.3,0,2514,0,53,0, 
1.4000,-913.5,-677.4,-1944.0,664.2,754.5,127.8,473.7,7.2,-1259.7,543.3,1092.9,1097.1,-1286.1,2385.0,-3254.7,-3286.2,-6.9,-6.0,636.3,813.3,-0.6,639.6,504.0,1468.8,0,2520,0,54,0, 
1.4033,-953.1,-847.5,-2034.0,684.0,790.2,341.1,491.1,-102.9,-1333.8,569.7,1108.8,1126.5,-1451.1,2439.6,-2880.9,-3373.5,-6.9,-6.0,629.7,477.3,-1.2,651.6,554.4,1460.7,0,2526,0,55,0, 
1.4067,-860.7,-739.5,-2019.3,1303.2,1386.0,106.2,1111.8,-175.8,-1185.6,1199.4,1741.5,1741.2,-1283.7,2452.8,-3432.3,-3263.4,-7.2,-5.7,1281.9,284.4,-0.9,1297.8,576.6,1956.3,0,2532,0,56,0, 
1.4100,-746.1,-576.3,-1944.9,1650.0,1734.6,-261.3,1439.4,-172.5,-741.0,1528.5,2076.6,2085.6,-1092.9,2382.3,-4153.5,-3139.2,-6.9,-6.0,1611.6,695.7,-0.6,1607.1,480.9,2243.1,0,2538,0,57,0, 
1.4133,-834.6,-618.3,-1955.4,1157.7,1247.7,-255.9,956.1,-249.6,-963.3,1055.1,1598.4,1599.0,-1192.5,2249.7,-4151.7,-3256.5,-6.6,-5.4,1140.9,869.4,-0.6,1132.2,433.5,1822.5,0,2544,0,58,0, 
1.4167,-962.7,-841.8,-2009.7,585.9,676.8,30.0,384.9,-185.4,-1185.6,480.9,1023.6,1026.6,-1382.7,2292.3,-3463.5,-3387.9,-6.9,-5.7,560.1,820.2,-0.9,551.7,506.4,1357.8,0,2550,0,59,0, 
1.4200,-977.7,-905.7,-2166.9,577.2,671.1,308.7,369.6,-163.8,-1556.1,468.0,1007.4,1015.8,-1398.6,2302.2,-3051.6,-3493.2,-6.9,-5.4,539.1,462.0,-0.6,540.9,593.1,1323.0,0,2556,0,60,0, 
1.4233,-960.9,-777.0,-2192.1,1169.4,1255.8,-33.0,955.5,-265.2,-1259.7,1051.5,1597.8,1603.5,-1338.0,2239.8,-3666.3,-3385.2,-7.2,-6.0,1141.2,232.8,-1.2,1133.1,577.2,1781.1,0,2562,0,61,0, 
1.4267,-827.1,-505.5,-2057.4,1596.0,1686.3,-317.7,1386.9,-225.0,-1111.5,1479.6,2019.0,2029.8,-1190.4,2279.7,-4313.7,-3212.4,-7.2,-5.7,1564.5,624.9,-0.6,1559.1,446.4,2163.6,0,2568,0,62,0, 
1.4300,-867.9,-517.5,-2053.5,1206.0,1291.8,-252.6,995.1,-147.6,-1037.4,1076.4,1632.0,1629.6,-1266.9,2197.5,-4242.0,-3291.3,-6.6,-6.0,1168.5,890.4,-0.6,1181.1,484.8,1837.2,0,2574,0,63,0, 
1.4333,-954.9,-619.8,-2185.8,690.6,784.8,21.9,486.0,-75.0,-1037.4,564.0,1120.8,1132.2,-1446.3,2145.6,-3500.1,-3352.2,-6.9,-6.0,657.0,866.7,-0.6,658.8,533.7,1428.9,0,2580,0,64,0, 
1.4367,-894.0,-678.3,-2203.5,737.1,825.3,252.0,529.2,-141.3,-1333.8,606.3,1160.4,1167.6,-1500.3,2222.7,-3158.1,-3423.6,-6.9,-6.0,698.1,485.1,-0.9,695.4,720.6,1440.9,0,2586,0,65,0, 
1.4400,-765.9,-635.7,-2162.1,1328.7,1419.0,-8.7,1124.7,-199.2,-1111.5,1217.7,1756.2,1768.5,-1285.2,2265.9,-3558.6,-3327.6,-6.6,-5.7,1298.1,338.1,-1.2,1294.8,714.3,1926.6,0,2592,0,66,0, 
1.4433,-779.7,-589.5,-2059.5,1618.8,1713.0,-338.4,1419.6,-228.3,-963.3,1491.6,2043.3,2058.9,-1174.5,2210.7,-4346.1,-3262.5,-7.2,-6.0,1584.0,647.1,-0.9,1587.3,573.6,2159.4,0,2598,0,67,0, 
1.4467,-872.1,-646.5,-2071.8,1225.8,1318.5,-261.6,1025.1,-184.2,-889.2,1099.8,1652.1,1662.0,-1329.9,2107.5,-4269.0,-3270.9,-6.9,-6.0,1197.9,972.9,-0.9,1190.1,464.4,1849.5,0,2604,0,68,0, 
1.4500,-980.1,-734.7,-2109.0,642.6,732.3,94.2,448.2,-26.1,-1111.5,524.1,1070.7,1083.0,-1481.4,2101.8,-3573.0,-3377.1,-7.5,-5.7,599.7,999.9,-0.6,605.4,562.5,1376.4,0,2610,0,69,0, 
1.4533,-1065.3,-826.8,-2214.3,631.8,722.4,249.3,433.5,-144.0,-1407.9,518.7,1060.8,1074.0,-1545.0,2090.1,-3244.5,-3466.5,-6.6,-5.7,599.4,502.5,-0.6,606.9,580.5,1338.9,0,2616,0,70,0, 
1.4567,-1075.8,-726.6,-2176.2,1113.0,1200.0,-95.7,908.4,-281.4,-1407.9,997.8,1542.6,1552.5,-1395.6,2058.3,-3812.7,-3474.3,-6.6,-5.7,1073.4,307.8,-0.6,1089.6,548.4,1707.0,0,2622,0,71,0, 
1.4600,-966.9,-591.0,-2037.3,1503.9,1592.4,-351.9,1294.8,-218.1,-1111.5,1392.3,1933.5,1938.6,-1249.5,2095.5,-4453.2,-3337.2,-7.2,-5.7,1473.9,624.6,-0.3,1465.8,464.1,2043.6,0,2628,0,72,0, 
1.4633,-963.3,-612.3,-2079.3,1198.2,1281.9,-285.9,988.2,-159.6,-1111.5,1075.2,1627.5,1629.6,-1254.9,2048.1,-4428.9,-3308.1,-6.9,-6.0,1164.9,930.9,-0.6,1167.6,404.7,1822.8,0,2634,0,73,0, 
1.4667,-1062.9,-753.6,-2153.1,600.6,694.2,33.3,390.0,-115.5,-1407.9,495.0,1034.4,1041.0,-1524.6,2004.9,-3703.8,-3433.5,-7.2,-6.0,576.6,869.1,-0.9,566.1,598.8,1347.3,0,2640,0,74,0, 
1.4700,-1051.8,-734.1,-2184.6,709.2,802.2,333.0,501.0,-67.8,-1407.9,605.4,1139.7,1145.1,-1512.0,2040.6,-3251.4,-3424.8,-6.9,-6.0,680.1,531.0,-0.9,690.0,697.2,1424.1,0,2646,0,75,0, 
1.4733,-971.1,-672.3,-2124.3,1260.0,1348.5,106.5,1040.4,-187.5,-1259.7,1147.5,1693.2,1703.4,-1362.0,1959.6,-3761.1,-3370.8,-7.2,-6.0,1234.8,359.4,-0.3,1222.5,579.3,1846.2,0,2652,0,76,0, 
1.4767,-984.9,-585.0,-2113.8,1606.5,1691.4,-269.1,1385.1,-194.7,-815.1,1488.9,2034.3,2037.0,-1325.7,1893.6,-4599.0,-3294.3,-6.9,-5.1,1577.1,651.3,-0.9,1574.4,297.3,2144.4,0,2658,0,77,0, 
1.4800,-963.0,-562.5,-2095.8,1232.4,1324.8,-206.7,1018.8,-153.3,-889.2,1127.4,1662.3,1665.6,-1416.3,1890.3,-4511.1,-3264.6,-6.9,-6.0,1199.7,978.9,-0.6,1205.4,326.4,1836.6,0,2664,0,78,0, 
1.4833,-1083.0,-766.5,-2223.3,745.2,831.0,158.1,532.8,-94.8,-1037.4,634.2,1173.3,1175.7,-1645.5,1889.4,-3755.1,-3359.7,-6.9,-6.0,721.2,1024.8,-1.2,710.1,393.6,1470.0,0,2670,0,79,0, 
1.4867,-1086.6,-798.6,-2321.7,716.4,810.9,417.0,508.2,-100.5,-1333.8,606.9,1147.2,1151.7,-1662.9,1962.9,-3358.8,-3433.5,-6.9,-6.3,688.8,555.0,-0.6,693.6,575.7,1461.6,0,2676,0,80,0, 
1.4900,-962.1,-702.9,-2168.1,1406.7,1497.6,274.2,1197.0,-88.8,-1037.4,1302.6,1836.3,1842.3,-1412.7,1950.6,-3837.3,-3312.6,-6.9,-5.7,1387.8,489.0,-0.6,1390.8,573.9,2004.0,0,2682,0,81,0, 
1.4933,-840.3,-566.4,-2134.8,1752.6,1845.6,-92.4,1541.4,-93.0,-741.0,1653.9,2189.4,2193.0,-1256.4,1855.2,-4594.2,-3143.7,-6.9,-5.7,1722.3,839.1,-0.9,1729.2,506.7,2286.6,0,2688,0,82,0, 
1.4967,-964.2,-615.9,-2146.5,1364.7,1455.3,-119.4,1166.7,-142.2,-741.0,1266.6,1797.0,1796.1,-1416.9,1771.5,-4613.1,-3188.4,-7.2,-6.0,1341.9,1034.4,-0.9,1340.4,338.1,1970.1,0,2694,0,83,0, 
1.5000,-1086.6,-824.7,-2261.7,743.1,832.8,182.4,541.2,-177.3,-1111.5,633.0,1172.4,1179.3,-1705.2,1686.0,-3949.8,-3337.2,-6.6,-5.7,712.8,1035.9,-0.3,712.8,441.9,1452.3,0,2700,0,84,0, 
1.5033,-1136.1,-983.4,-2364.3,718.2,807.3,221.4,520.2,-196.2,-1259.7,607.8,1141.8,1149.0,-1773.6,1666.2,-3607.2,-3411.6,-6.6,-6.0,683.1,620.7,-0.6,695.1,465.0,1406.1,0,2706,0,85,0, 
1.5067,-923.7,-819.9,-2264.7,1414.2,1504.2,99.9,1214.4,-156.6,-1037.4,1303.5,1850.1,1854.3,-1532.4,1730.4,-3978.3,-3252.3,-6.6,-6.0,1398.0,484.8,-0.3,1394.1,558.9,1993.2,0,2712,0,86,0, 
1.5100,-744.3,-621.6,-2066.7,1932.0,2027.1,-155.1,1726.8,-62.1,-592.8,1811.7,2365.5,2374.5,-1323.3,1781.4,-4616.7,-3036.6,-7.2,-5.7,1901.4,966.6,-0.6,1902.6,442.8,2444.1,0,2718,0,87,0, 
1.5133,-803.1,-693.0,-2051.7,1525.5,1620.3,-156.6,1327.2,-128.1,-666.9,1415.7,1955.7,1960.8,-1532.4,1680.6,-4645.2,-3006.9,-7.2,-6.0,1495.8,1344.0,-0.6,1501.5,344.7,2138.1,0,2724,0,88,0, 
1.5167,-1004.4,-867.6,-2121.3,896.1,985.8,150.0,699.0,-42.3,-815.1,786.3,1323.6,1330.8,-1727.7,1633.8,-4006.5,-3174.9,-6.9,-5.7,862.8,1172.4,-0.9,869.7,386.7,1589.7,0,2730,0,89,0, 
1.5200,-1019.1,-934.8,-2216.1,951.6,1041.0,458.4,747.0,-87.0,-1185.6,834.0,1372.8,1379.4,-1778.7,1598.7,-3622.2,-3222.6,-6.9,-6.0,912.3,799.8,-0.9,922.2,516.0,1628.4,0,2736,0,90,0, 
1.5233,-907.5,-801.9,-2157.0,1556.1,1651.8,124.5,1344.9,-58.5,-963.3,1441.5,1987.5,1994.4,-1641.6,1694.1,-4072.8,-3138.0,-7.2,-6.0,1534.8,752.1,-0.6,1524.9,478.5,2098.2,0,2742,0,91,0, 
1.5267,-813.9,-713.4,-2125.5,1901.7,1995.0,-191.4,1688.4,-59.7,-666.9,1799.7,2343.3,2347.2,-1581.6,1627.2,-4836.6,-3067.5,-6.6,-5.7,1889.4,1010.4,-0.3,1886.4,382.5,2389.8,0,2748,0,92,0, 
1.5300,-905.4,-740.1,-2192.4,1468.5,1559.7,-244.5,1254.9,-106.2,-592.8,1360.2,1907.4,1911.3,-1748.1,1494.0,-4879.5,-3129.9,-6.9,-5.7,1450.2,1335.3,-0.6,1444.5,344.4,2017.5,0,2754,0,93,0, 
1.5333,-1096.2,-861.0,-2259.3,881.4,971.1,125.7,664.5,-49.5,-889.2,768.9,1314.0,1312.5,-1891.2,1476.6,-4194.0,-3256.5,-6.9,-5.7,860.4,1217.4,-0.6,849.9,339.6,1564.8,0,2760,0,94,0, 
1.5367,-1195.8,-933.0,-2332.5,866.7,954.3,267.6,642.3,-36.0,-1185.6,757.5,1291.8,1299.0,-1930.2,1531.2,-3843.9,-3318.3,-7.5,-5.7,838.8,799.2,-0.6,827.4,489.6,1515.6,0,2766,0,95,0, 
1.5400,-1151.1,-829.2,-2294.1,1475.1,1562.7,-33.0,1253.7,20.4,-1185.6,1359.6,1902.3,1905.9,-1786.5,1563.0,-4347.9,-3235.2,-6.9,-6.3,1452.3,616.8,-0.9,1438.8,463.5,2010.9,0,2772,0,96,0, 
1.5433,-983.7,-687.9,-2247.6,1922.7,2016.0,-251.7,1704.9,29.1,-592.8,1793.4,2347.8,2360.4,-1669.5,1579.2,-5025.6,-3071.4,-6.9,-6.0,1888.8,1080.9,-0.3,1886.4,397.5,2399.1,0,2778,0,97,0, 
1.5467,-957.6,-684.0,-2228.1,1590.3,1672.5,-63.3,1373.7,136.8,-592.8,1472.4,2017.2,2015.7,-1703.7,1497.9,-4994.1,-3016.8,-6.9,-5.7,1565.7,1391.1,-0.9,1569.6,390.6,2139.6,0,2784,0,98,0, 
1.5500,-1095.9,-809.7,-2324.4,1025.7,1120.8,229.2,819.9,77.4,-741.0,916.8,1461.9,1469.1,-1999.8,1437.0,-4325.1,-3094.8,-6.9,-5.4,1007.4,1353.9,-0.3,997.8,469.8,1688.4,0,2790,0,99,0, 
1.5533,-1095.6,-887.4,-2407.5,987.9,1082.7,432.6,785.1,51.3,-1185.6,880.5,1423.5,1428.0,-2054.7,1418.7,-4012.2,-3182.7,-6.6,-5.7,971.1,902.7,-0.9,964.2,475.8,1631.4,0,2796,0,100,0, 
1.5567,-957.9,-730.8,-2363.4,1645.5,1739.1,203.1,1436.4,35.4,-815.1,1529.1,2078.4,2079.9,-1871.7,1399.2,-4573.8,-3060.0,-6.6,-5.4,1623.0,727.2,-0.6,1623.6,462.0,2155.5,0,2802,0,101,0, 
1.5600,-920.4,-660.3,-2199.3,2055.0,2142.6,-158.4,1845.3,78.9,-518.7,1943.1,2482.2,2485.5,-1837.8,1299.6,-5269.2,-2934.3,-7.2,-5.7,2023.2,1137.0,-0.6,2029.8,405.6,2512.8,0,2808,0,102,0, 
1.5633,-972.3,-697.8,-2229.6,1660.5,1756.2,-83.1,1454.1,159.6,-444.6,1543.8,2088.9,2093.7,-1900.8,1284.9,-5331.3,-2947.8,-6.6,-6.0,1632.9,1493.4,-1.2,1625.4,393.0,2172.0,0,2814,0,103,0, 
1.5667,-1039.2,-743.4,-2337.9,1085.7,1175.7,282.9,889.2,189.6,-815.1,979.5,1513.2,1509.3,-2079.3,1308.0,-4634.7,-3018.0,-6.9,-6.0,1063.2,1346.1,-0.9,1066.5,524.4,1726.2,0,2820,0,104,0, 
1.5700,-1110.9,-884.7,-2438.1,1074.6,1171.2,420.6,873.6,91.5,-889.2,971.1,1502.4,1505.1,-2248.5,1331.1,-4289.4,-3088.5,-6.6,-5.7,1046.7,1010.7,-1.2,1047.0,491.1,1699.8,0,2826,0,105,0, 
1.5733,-1033.2,-827.4,-2412.6,1652.4,1743.6,176.7,1446.9,-45.9,-815.1,1533.9,2078.4,2079.6,-2055.0,1323.0,-4891.5,-2972.1,-6.9,-6.0,1625.4,884.7,-0.9,1628.1,453.6,2139.6,0,2832,0,106,0, 
1.5767,-973.8,-730.5,-2343.6,2034.3,2132.7,-100.8,1822.2,-6.3,-592.8,1928.7,2464.2,2468.7,-1913.1,1300.8,-5588.1,-2914.2,-6.9,-6.0,2008.2,1127.7,-1.2,2009.4,367.5,2465.4,0,2838,0,107,0, 
1.5800,-978.6,-812.4,-2337.9,1707.0,1802.4,-60.9,1502.7,52.5,-370.5,1604.4,2136.0,2140.5,-2062.8,1291.2,-5523.9,-2875.2,-6.9,-5.7,1678.5,1544.1,-0.9,1693.5,387.3,2210.4,0,2844,0,108,0, 
1.5833,-1148.4,-960.0,-2444.4,1141.8,1241.4,372.6,943.8,64.8,-592.8,1032.9,1569.9,1578.6,-2233.5,1227.3,-4759.5,-2967.6,-6.9,-6.3,1111.8,1482.0,-0.6,1122.0,500.1,1764.9,0,2850,0,109,0, 
1.5867,-1113.3,-1019.7,-2527.8,1214.4,1309.8,530.1,1020.0,47.7,-815.1,1117.2,1640.7,1646.7,-2232.3,1239.0,-4397.7,-3020.7,-6.6,-6.0,1183.5,1189.5,-0.9,1203.3,651.9,1832.4,0,2856,0,110,0, 
1.5900,-1018.8,-882.6,-2419.2,1855.8,1953.3,300.3,1660.8,-18.6,-592.8,1763.4,2288.7,2292.9,-1982.1,1256.1,-4942.2,-2921.4,-7.2,-5.7,1830.0,1116.3,-1.2,1850.7,602.1,2352.0,0,2862,0,111,0, 
1.5933,-922.2,-809.4,-2343.3,2193.6,2290.8,-30.9,1998.9,-6.9,-444.6,2096.1,2624.1,2630.4,-1869.9,1254.0,-5760.0,-2831.1,-6.9,-6.0,2169.0,1418.7,-1.2,2177.4,438.3,2628.6,0,2868,0,112,0, 
1.5967,-1039.5,-837.3,-2430.3,1749.9,1843.5,30.9,1555.2,66.9,-444.6,1642.2,2170.5,2177.4,-1991.7,1124.7,-5728.5,-2894.7,-6.9,-5.7,1719.3,1696.2,-0.3,1723.8,414.9,2282.1,0,2874,0,113,0, 
1.6000,-1131.0,-896.7,-2545.8,1161.6,1256.1,337.5,974.7,14.7,-741.0,1065.9,1586.7,1583.7,-2237.1,1117.2,-5009.7,-3010.2,-6.6,-5.7,1139.7,1518.3,-0.6,1144.8,506.7,1797.9,0,2880,0,114,0, 
1.6033,-1130.7,-915.9,-2558.7,1238.1,1330.8,663.9,1053.6,84.3,-741.0,1129.2,1658.7,1668.0,-2289.3,1243.2,-4611.0,-2989.2,-6.6,-5.7,1205.1,1338.3,-0.9,1212.3,659.1,1872.0,0,2886,0,115,0, 
1.6067,-1034.1,-809.4,-2526.3,1932.6,2024.7,399.6,1748.4,13.5,-666.9,1834.2,2359.5,2362.2,-2185.2,1169.1,-5195.4,-2838.3,-6.9,-5.7,1908.3,1092.6,-0.9,1923.6,586.2,2417.7,0,2892,0,116,0, 
1.6100,-937.2,-713.7,-2428.5,2247.0,2340.0,8.4,2052.9,33.9,-222.3,2123.7,2664.9,2670.6,-1961.4,1209.6,-5955.9,-2769.9,-7.2,-6.0,2213.4,1467.3,-0.6,2221.2,547.5,2708.7,0,2898,0,117,0, 
1.6133,-1011.6,-785.4,-2465.1,1808.4,1905.3,19.8,1618.8,20.7,-370.5,1692.6,2223.9,2228.7,-2088.0,1146.3,-5816.4,-2794.2,-6.9,-6.3,1774.5,1762.8,-0.9,1787.4,447.6,2335.8,0,2904,0,118,0, 
1.6167,-1088.1,-927.9,-2605.2,1230.3,1317.6,326.4,1035.6,57.3,-518.7,1109.4,1648.2,1650.0,-2220.9,1168.8,-5086.8,-2882.4,-6.6,-6.0,1191.9,1553.7,-0.9,1200.0,601.8,1859.1,0,2910,0,119,0, 
1.6200,-1159.2,-1088.4,-2757.0,1206.9,1301.7,451.8,1012.2,21.3,-741.0,1096.8,1630.8,1634.4,-2340.9,1071.9,-4757.4,-3000.6,-6.6,-6.0,1174.8,1271.7,-1.2,1184.7,642.0,1819.8,0,2916,0,120,0, 
1.6233,-988.8,-828.9,-2634.9,1864.5,1956.6,345.9,1661.7,-14.7,-666.9,1748.1,2288.4,2289.6,-2124.0,1138.5,-5249.7,-2878.8,-6.3,-5.7,1835.7,1290.9,-0.9,1833.0,672.0,2349.9,0,2922,0,121,0, 
1.6267,-956.7,-690.3,-2524.8,2203.8,2299.8,6.0,2003.7,-65.7,-296.4,2091.0,2625.6,2625.6,-2029.2,1140.0,-6035.1,-2738.4,-6.9,-5.7,2176.8,1559.4,-0.9,2172.0,591.0,2651.4,0,2928,0,122,0, 
1.6300,-986.1,-700.2,-2479.5,1742.7,1842.6,7.8,1547.1,-43.8,-444.6,1631.7,2169.0,2165.4,-2090.4,1101.0,-5964.6,-2763.3,-6.6,-5.7,1717.2,1626.9,-1.2,1716.6,579.6,2294.1,0,2934,0,123,0, 
1.6333,-1111.2,-898.8,-2643.3,1147.2,1245.6,339.9,954.6,-8.4,-666.9,1038.9,1574.1,1576.2,-2269.8,1202.1,-5109.0,-2927.1,-6.9,-5.4,1119.0,1474.2,-0.6,1125.0,629.7,1787.1,0,2940,0,124,0, 
1.6367,-1228.2,-1038.6,-2724.3,1132.2,1231.2,442.8,929.4,-141.9,-815.1,1023.9,1553.1,1551.9,-2434.2,1218.9,-4778.1,-3075.3,-6.9,-5.7,1100.4,1181.1,-0.9,1098.9,734.4,1767.3,0,2946,0,125,0, 
1.6400,-1086.3,-864.6,-2632.8,1821.9,1912.8,358.5,1618.2,-139.2,-666.9,1705.5,2237.7,2242.8,-2234.1,1198.8,-5375.4,-2882.1,-6.9,-5.7,1782.3,1364.7,-0.9,1799.7,783.6,2343.0,0,2952,0,126,0, 
1.6433,-992.4,-769.8,-2444.1,2114.4,2202.9,91.5,1907.1,-117.3,-370.5,1994.4,2526.9,2534.1,-2118.0,1027.2,-6083.4,-2841.3,-6.9,-6.0,2074.5,1616.4,-0.9,2090.1,708.3,2576.7,0,2958,0,127,0, 
1.6467,-1050.3,-930.6,-2598.9,1631.4,1722.6,55.5,1422.6,-147.9,-518.7,1516.5,2057.4,2061.3,-2139.0,989.1,-6022.2,-2963.1,-6.9,-6.0,1602.3,1606.8,-0.9,1604.4,607.8,2172.6,0,2964,0,128,0, 
1.6500,-1178.7,-979.5,-2649.6,978.0,1072.2,389.7,769.8,-136.5,-741.0,861.0,1403.4,1404.3,-2215.8,1126.8,-5079.6,-3086.1,-7.5,-5.7,946.8,1359.0,-0.9,951.9,706.5,1596.6,0,2970,0,129,0, 
1.6533,-1201.2,-972.9,-2714.7,982.2,1074.9,615.0,772.2,-105.0,-1037.4,862.5,1408.8,1410.0,-2168.4,1180.5,-4677.9,-3173.1,-6.9,-5.7,953.1,1260.6,-0.6,953.1,896.1,1615.2,0,2976,0,130,0, 
1.6567,-1071.3,-852.9,-2679.6,1653.9,1748.4,512.7,1439.1,-156.9,-889.2,1537.5,2079.9,2078.4,-2103.6,1045.2,-5355.0,-3032.7,-7.2,-6.3,1633.2,1457.1,-0.9,1618.8,819.9,2153.1,0,2982,0,131,0, 
1.6600,-1008.9,-783.0,-2536.2,1982.4,2078.4,330.0,1773.0,-174.0,-518.7,1869.3,2405.1,2400.9,-2052.6,900.3,-6196.2,-2946.3,-7.2,-5.7,1956.0,1650.3,-0.3,1950.6,695.7,2448.3,0,2988,0,132,0, 
1.6633,-1053.3,-809.7,-2518.5,1544.4,1642.8,297.3,1344.6,-164.7,-518.7,1428.9,1966.5,1967.4,-2046.6,886.8,-5943.9,-2996.4,-6.9,-5.7,1514.7,1533.6,-1.2,1509.0,612.6,2100.9,0,2994,0,133,0, 
1.6667,-1161.6,-859.5,-2525.4,931.5,1032.3,550.2,730.5,-177.3,-741.0,820.8,1361.4,1359.6,-1936.2,1099.5,-4936.5,-3086.7,-6.9,-5.7,907.2,1244.4,-0.6,906.3,608.7,1586.7,0,3000,0,134,0, 
1.6700,-1190.4,-864.6,-2533.2,985.2,1079.7,694.2,781.8,-208.2,-963.3,868.5,1417.5,1418.4,-1996.8,1217.1,-4482.0,-3159.3,-6.6,-6.3,966.0,1251.9,-0.6,965.1,689.1,1599.3,0,3006,0,135,0, 
1.6733,-1103.1,-789.0,-2433.0,1674.3,1770.9,496.2,1474.8,-201.3,-815.1,1557.6,2100.9,2100.0,-1933.2,1027.8,-5269.5,-3055.8,-6.6,-6.3,1644.6,1680.3,-0.9,1645.2,767.7,2166.3,0,3012,0,136,0, 
1.6767,-1039.5,-679.2,-2432.4,1981.5,2068.8,220.8,1780.2,-207.9,-666.9,1881.6,2407.8,2404.2,-1972.2,720.9,-6234.3,-2923.8,-6.9,-5.7,1954.5,1804.8,-0.9,1950.9,662.7,2435.1,0,3018,0,137,0, 
1.6800,-1044.6,-614.7,-2343.3,1584.6,1677.0,324.6,1386.3,-123.9,-444.6,1470.3,2000.1,1994.7,-1919.7,847.5,-5891.1,-2904.3,-6.6,-6.0,1552.2,1502.1,-0.9,1550.4,687.3,2138.1,0,3024,0,138,0, 
1.6833,-1200.0,-750.3,-2465.1,893.7,978.6,438.3,690.6,-138.0,-666.9,774.6,1306.2,1299.3,-1881.3,1134.9,-4846.5,-3128.4,-6.6,-5.7,864.9,1129.8,-0.3,847.8,734.4,1534.2,0,3030,0,139,0, 
1.6867,-1251.6,-833.1,-2544.3,970.2,1059.9,563.7,765.0,-217.2,-1037.4,853.2,1383.9,1386.6,-1856.1,1220.4,-4404.3,-3198.9,-6.6,-5.7,936.0,1085.7,-0.9,932.4,792.9,1590.6,0,3036,0,140,0, 
1.6900,-1128.9,-840.6,-2434.5,1673.1,1765.5,430.8,1462.2,-191.1,-741.0,1548.9,2094.3,2088.0,-1820.4,1044.0,-5225.7,-3067.8,-6.6,-5.4,1647.0,1701.6,-0.6,1645.5,767.1,2192.4,0,3042,0,141,0, 
1.6933,-1077.6,-684.6,-2329.5,2030.1,2119.8,236.7,1818.9,-108.6,-444.6,1905.0,2443.2,2445.6,-1898.1,763.8,-6141.6,-2935.5,-6.6,-5.7,1986.3,2034.0,-0.6,1977.6,679.5,2517.0,0,3048,0,142,0, 
1.6967,-1071.3,-679.8,-2322.6,1472.7,1566.3,286.2,1266.9,-52.8,-592.8,1336.8,1880.1,1883.1,-1852.5,844.8,-5728.5,-2997.9,-6.9,-5.4,1431.9,1547.7,-0.6,1428.9,651.0,2061.3,0,3054,0,143,0, 
1.7000,-1220.1,-803.1,-2415.0,833.4,930.0,438.3,624.0,-84.0,-963.3,702.0,1241.4,1243.8,-1740.6,1148.7,-4504.5,-3146.7,-6.9,-6.0,792.3,972.0,-0.6,787.2,624.0,1499.1,0,3060,0,144,0, 
1.7033,-1196.1,-934.5,-2433.3,900.0,990.3,605.4,690.0,-138.0,-1111.5,776.1,1314.3,1320.0,-1688.7,1330.2,-4102.8,-3188.4,-6.9,-5.7,868.8,1028.1,-0.6,855.3,727.8,1549.2,0,3066,0,145,0, 
1.7067,-1191.3,-939.0,-2337.6,1618.8,1714.2,543.0,1419.3,-189.0,-889.2,1501.8,2039.4,2042.4,-1680.9,1050.0,-5025.0,-3061.2,-6.9,-6.0,1588.2,1551.3,-0.9,1577.4,762.0,2148.9,0,3072,0,146,0, 
1.7100,-1140.3,-793.8,-2233.2,1951.8,2056.8,364.2,1751.7,-190.5,-592.8,1823.7,2369.4,2373.9,-1757.4,718.5,-5934.3,-2937.0,-6.9,-5.7,1913.1,1896.6,-1.2,1917.3,690.0,2445.9,0,3078,0,147,0, 
1.7133,-1150.8,-793.2,-2216.4,1408.8,1497.0,390.9,1209.3,-101.1,-666.9,1290.0,1828.5,1824.9,-1770.3,846.0,-5619.9,-3042.9,-6.9,-5.7,1378.8,1434.3,-0.9,1381.2,663.3,2019.6,0,3084,0,148,0, 
1.7167,-1280.7,-1008.9,-2362.8,712.5,806.4,582.3,504.9,-79.2,-963.3,588.0,1130.4,1127.7,-1700.4,1182.6,-4572.3,-3183.6,-6.6,-5.7,680.4,906.0,-0.9,678.6,655.8,1396.5,0,3090,0,149,0, 
1.7200,-1283.7,-960.9,-2413.5,738.6,837.9,733.5,536.7,-134.1,-1333.8,618.6,1164.0,1146.9,-1570.5,1315.2,-4033.8,-3294.3,-6.9,-6.0,716.1,1003.5,-0.9,705.9,809.7,1414.5,0,3096,0,150,0, 
1.7233,-1247.1,-973.2,-2398.5,1495.2,1592.1,590.4,1283.1,-164.4,-1111.5,1374.0,1911.9,1909.8,-1656.6,1037.1,-4955.4,-3227.4,-6.9,-6.0,1465.2,1505.7,-0.6,1456.8,773.4,2036.4,0,3102,0,151,0, 
1.7267,-1165.2,-828.9,-2298.0,1865.4,1958.4,409.8,1655.7,-145.2,-666.9,1748.4,2270.1,2279.7,-1690.8,647.1,-5982.9,-3065.7,-6.9,-6.0,1825.8,1762.8,-0.6,1820.7,656.4,2384.4,0,3108,0,152,0, 
1.7300,-1186.8,-773.7,-2229.6,1388.4,1479.6,426.0,1168.5,-11.7,-741.0,1258.2,1803.0,1784.4,-1720.2,786.9,-5694.0,-3074.7,-6.9,-5.7,1347.9,1416.6,-0.6,1338.6,636.6,1991.4,0,3114,0,153,0, 
1.7333,-1349.7,-848.4,-2316.9,780.9,872.4,618.9,559.8,-40.8,-889.2,656.1,1198.5,1196.7,-1719.0,1124.7,-4518.3,-3198.3,-6.6,-5.7,749.7,807.9,-0.6,736.2,664.2,1449.6,0,3120,0,154,0, 
1.7367,-1319.7,-930.3,-2361.9,792.9,889.5,770.7,576.0,-152.7,-1185.6,680.1,1221.3,1227.6,-1551.0,1284.9,-4090.2,-3271.5,-7.2,-6.0,762.6,967.2,0.0,771.9,739.8,1473.6,0,3126,0,155,0, 
1.7400,-1238.7,-880.8,-2270.4,1462.2,1559.4,699.0,1243.2,-169.8,-1111.5,1353.3,1881.0,1884.3,-1649.1,985.5,-4968.9,-3200.1,-6.3,-6.0,1431.9,1542.6,-0.9,1432.8,735.3,2004.6,0,3132,0,156,0, 
1.7433,-1167.3,-746.7,-2177.1,1851.0,1944.6,581.1,1638.6,-44.4,-815.1,1735.5,2273.1,2272.2,-1752.0,607.8,-5950.5,-3016.8,-7.2,-5.7,1818.6,1815.6,-0.9,1817.1,714.3,2377.8,0,3138,0,157,0, 
1.7467,-1164.3,-672.3,-2127.6,1412.4,1513.2,631.2,1209.3,135.3,-666.9,1287.0,1830.9,1822.5,-1659.0,740.1,-5567.4,-3001.8,-6.6,-6.0,1386.3,1426.2,-0.6,1375.8,743.1,2026.5,0,3144,0,158,0, 
1.7500,-1275.3,-833.4,-2239.2,788.1,888.9,749.7,588.0,71.7,-963.3,684.6,1211.1,1200.0,-1654.8,1123.2,-4500.0,-3177.3,-6.3,-6.0,762.9,855.6,-0.6,758.1,709.5,1484.7,0,3150,0,159,0, 
1.7533,-1310.1,-768.6,-2226.6,940.5,1040.7,902.7,737.7,113.7,-1111.5,820.8,1365.6,1367.4,-1583.7,1396.8,-4087.2,-3173.1,-6.6,-6.0,909.0,1020.3,-0.9,908.4,839.1,1621.5,0,3156,0,160,0, 
1.7567,-1246.2,-849.0,-2249.1,1617.6,1709.7,699.6,1416.9,-32.1,-889.2,1509.3,2046.3,2037.0,-1677.6,992.4,-5062.5,-3043.8,-6.9,-5.7,1590.9,1618.8,-0.3,1586.1,782.7,2168.7,0,3162,0,161,0, 
1.7600,-1121.4,-774.9,-2168.1,1984.5,2085.6,506.7,1780.2,96.9,-592.8,1864.8,2414.7,2414.1,-1727.1,679.2,-6011.7,-2907.0,-7.2,-6.0,1958.7,2015.4,-0.6,1946.7,701.1,2504.4,0,3168,0,162,0, 
1.7633,-1155.0,-733.5,-2178.3,1541.4,1642.5,443.4,1348.5,154.2,-370.5,1417.2,1958.1,1959.6,-1755.0,776.1,-5716.5,-2910.3,-7.2,-6.0,1507.5,1503.6,-0.6,1506.0,658.2,2157.0,0,3174,0,163,0, 
1.7667,-1268.1,-778.8,-2234.7,896.1,993.9,619.8,706.2,147.0,-889.2,771.9,1317.6,1311.0,-1609.2,1089.3,-4489.2,-3029.1,-7.2,-6.0,867.0,894.3,-0.9,860.4,714.3,1616.7,0,3180,0,164,0, 
1.7700,-1349.1,-853.2,-2369.1,878.7,977.4,742.5,687.9,2.4,-1185.6,762.9,1297.2,1278.6,-1560.3,1179.3,-4136.1,-3206.4,-6.9,-6.0,840.9,979.5,-0.6,842.7,719.7,1540.2,0,3186,0,165,0, 
1.7733,-1277.7,-783.6,-2236.5,1568.4,1665.6,693.6,1371.6,48.6,-889.2,1440.6,1986.3,1983.0,-1680.3,885.0,-5079.3,-3096.0,-7.2,-6.0,1534.8,1523.7,-0.9,1533.0,711.9,2152.8,0,3192,0,166,0, 
1.7767,-1185.9,-722.4,-2160.3,1968.6,2065.5,493.5,1778.1,57.3,-592.8,1848.3,2371.8,2372.7,-1781.4,450.0,-6078.6,-2952.0,-6.9,-5.7,1927.8,1813.8,-0.9,1934.4,613.2,2500.8,0,3198,0,167,0, 
1.7800,-1129.2,-578.4,-2071.8,1591.2,1689.0,551.7,1386.6,141.0,-444.6,1459.5,2001.3,1973.7,-1736.4,524.1,-5702.7,-2888.1,-7.2,-5.7,1555.2,1444.8,-0.6,1548.6,590.7,2194.5,0,3204,0,168,0, 
1.7833,-1264.8,-685.2,-2142.9,982.2,1076.7,654.0,789.6,122.4,-741.0,867.0,1398.3,1367.1,-1658.1,924.6,-4599.9,-3042.9,-7.2,-6.0,948.9,939.6,-1.2,945.3,573.6,1670.4,0,3210,0,169,0, 
1.7867,-1253.4,-749.4,-2182.8,1044.3,1136.4,793.2,846.3,122.7,-1111.5,939.0,1465.8,1484.4,-1582.5,1148.1,-4136.4,-3085.2,-6.6,-6.0,1018.8,1192.8,-0.3,1014.0,714.3,1699.5,0,3216,0,170,0, 
1.7900,-1167.0,-757.2,-2183.1,1748.1,1838.7,659.1,1551.0,107.4,-666.9,1640.1,2182.5,2168.4,-1678.2,897.6,-5005.8,-2960.7,-7.2,-6.0,1723.8,1763.4,-0.6,1717.5,679.8,2297.7,0,3222,0,171,0, 
1.7933,-1101.9,-745.5,-2135.1,2127.0,2222.4,546.9,1933.5,113.7,-518.7,2015.7,2554.8,2549.7,-1771.8,568.8,-6107.7,-2805.6,-6.9,-6.0,2098.8,1998.0,-0.9,2090.1,545.4,2634.6,0,3228,0,172,0, 
1.7967,-1217.1,-764.1,-2190.6,1577.7,1666.5,403.8,1385.7,81.0,-370.5,1463.1,1995.3,1982.1,-1773.9,526.5,-5799.9,-2893.5,-7.2,-5.7,1544.4,1437.3,-1.2,1541.1,485.1,2185.8,0,3234,0,173,0, 
1.8000,-1314.9,-907.8,-2304.9,873.6,964.8,586.2,683.7,56.7,-889.2,753.3,1288.5,1272.0,-1717.2,783.0,-4681.5,-3138.9,-7.2,-5.4,836.4,901.5,-0.6,833.7,546.0,1580.7,0,3240,0,174,0, 
1.8033,-1358.7,-968.4,-2319.3,950.7,1041.0,840.9,762.9,93.6,-1111.5,845.4,1366.8,1358.4,-1689.0,976.5,-4157.1,-3149.4,-7.2,-5.7,917.1,1057.5,-0.6,927.9,730.5,1615.5,0,3246,0,175,0, 
1.8067,-1235.4,-939.3,-2243.1,1748.7,1839.9,604.2,1559.4,26.1,-815.1,1634.7,2160.3,2155.5,-1799.1,696.6,-5153.4,-2979.0,-6.9,-5.7,1712.4,1689.9,-0.6,1711.8,613.8,2286.6,0,3252,0,176,0, 
1.8100,-1139.4,-798.3,-2148.0,2095.2,2188.8,411.0,1909.8,54.3,-370.5,1986.9,2508.0,2503.5,-1929.6,344.4,-6168.9,-2828.4,-6.6,-5.4,2063.1,1895.7,-0.9,2062.5,598.8,2617.5,0,3258,0,177,0, 
1.8133,-1133.1,-810.9,-2159.1,1624.8,1715.7,388.5,1445.4,61.2,-444.6,1522.5,2041.5,2031.3,-1944.3,420.9,-5893.2,-2848.8,-6.9,-6.0,1598.7,1463.7,-0.9,1593.3,499.5,2222.7,0,3264,0,178,0, 
1.8167,-1269.3,-906.6,-2269.5,976.5,1074.9,555.0,801.9,-3.3,-815.1,880.2,1395.9,1387.5,-1771.8,794.7,-4695.9,-2962.5,-6.9,-6.0,945.3,917.1,-0.3,957.9,612.9,1679.7,0,3270,0,179,0, 
1.8200,-1267.5,-876.0,-2271.6,1074.3,1168.8,759.9,891.9,62.4,-963.3,974.1,1492.2,1483.2,-1660.2,974.7,-4265.1,-3007.2,-6.9,-6.0,1045.5,1080.0,-0.6,1045.2,769.2,1743.0,0,3276,0,180,0, 
1.8233,-1299.0,-911.7,-2274.6,1748.4,1843.2,536.7,1564.5,-36.3,-741.0,1654.5,2166.9,2157.3,-1791.3,652.5,-5258.7,-2926.2,-6.9,-5.7,1722.9,1675.8,-0.9,1722.0,695.1,2319.6,0,3282,0,181,0, 
1.8267,-1163.7,-791.4,-2165.4,2091.6,2184.6,368.4,1898.7,-8.4,-444.6,1988.7,2509.2,2499.6,-1806.0,337.5,-6211.2,-2878.5,-6.9,-6.0,2064.0,1958.4,-0.9,2064.9,652.5,2629.8,0,3288,0,182,0, 
1.8300,-1163.1,-760.2,-2174.7,1641.0,1740.9,310.8,1449.9,6.0,-518.7,1536.9,2055.3,2049.3,-1797.6,360.9,-5957.7,-2852.1,-7.2,-6.0,1608.6,1465.5,-0.6,1615.5,658.2,2256.3,0,3294,0,183,0, 
1.8333,-1288.8,-799.8,-2281.8,991.8,1091.1,487.2,801.6,-41.7,-741.0,894.6,1406.7,1400.4,-1736.4,745.8,-4843.8,-3008.1,-7.2,-6.0,956.4,964.5,-0.6,975.3,667.5,1714.2,0,3300,0,184,0, 
1.8367,-1380.6,-837.6,-2395.8,1057.2,1153.5,568.8,867.6,-155.4,-1111.5,937.5,1468.2,1460.1,-1753.2,933.9,-4396.2,-3075.6,-6.9,-5.7,1024.5,1020.6,-0.9,1040.4,727.2,1731.9,0,3306,0,185,0, 
1.8400,-1303.8,-855.9,-2364.6,1761.0,1857.9,490.2,1566.0,-198.0,-741.0,1649.4,2173.2,2166.3,-1924.2,668.4,-5313.3,-2946.0,-6.9,-6.0,1726.5,1658.7,-0.9,1744.2,677.7,2319.3,0,3312,0,186,0, 
1.8433,-1203.3,-680.4,-2324.1,2126.7,2225.7,259.2,1930.8,-170.1,-518.7,2012.4,2540.7,2528.1,-2000.4,336.0,-6317.4,-2860.2,-7.2,-6.0,2100.3,2021.4,-0.9,2099.4,620.7,2654.4,0,3318,0,187,0, 
1.8467,-1197.3,-713.7,-2296.5,1689.9,1790.4,208.8,1502.7,-133.8,-518.7,1586.4,2112.0,2103.9,-2051.1,387.3,-5938.2,-2862.9,-6.6,-5.7,1664.1,1483.8,-0.6,1666.2,545.1,2296.5,0,3324,0,188,0, 
1.8500,-1286.4,-829.2,-2417.7,1048.5,1149.9,398.1,859.2,-186.9,-815.1,940.2,1462.2,1448.4,-1968.0,761.1,-4716.6,-2993.7,-7.2,-6.3,1015.2,1005.3,-1.2,1012.2,640.8,1755.3,0,3330,0,189,0, 
1.8533,-1387.5,-915.9,-2511.3,1053.6,1151.7,460.5,868.5,-264.6,-1111.5,936.9,1471.2,1455.9,-1901.7,895.2,-4215.6,-3097.5,-6.9,-5.7,1018.8,1066.5,-0.9,1018.5,792.0,1731.3,0,3336,0,190,0, 
1.8567,-1344.0,-839.1,-2412.0,1779.9,1876.5,342.0,1593.9,-242.1,-741.0,1659.9,2193.6,2181.9,-1958.7,615.6,-5190.3,-3021.9,-6.9,-5.4,1747.5,1596.6,-1.2,1745.1,757.8,2328.3,0,3342,0,191,0, 
1.8600,-1193.4,-755.1,-2364.6,2170.5,2273.7,168.0,1988.4,-158.1,-370.5,2053.5,2592.3,2580.9,-1975.8,265.5,-6190.5,-2834.4,-6.9,-5.7,2144.7,1943.1,-0.6,2131.5,637.5,2669.7,0,3348,0,192,0, 
1.8633,-1218.0,-693.9,-2342.1,1782.9,1887.6,168.3,1601.4,-57.9,-370.5,1656.0,2198.4,2182.8,-1950.3,408.6,-5853.6,-2785.5,-6.9,-5.7,1752.9,1582.5,-0.6,1748.4,598.8,2346.3,0,3354,0,193,0, 
1.8667,-1339.2,-759.9,-2483.1,1098.0,1205.1,363.0,913.5,-119.4,-592.8,975.0,1514.1,1503.9,-1788.6,772.5,-4745.4,-2918.4,-6.6,-6.3,1069.2,1014.9,-0.6,1061.1,478.2,1769.1,0,3360,0,194,0, 
1.8700,-1434.9,-883.8,-2629.5,1184.7,1289.4,476.1,998.7,-193.8,-963.3,1057.8,1595.4,1593.6,-1808.7,906.3,-4325.1,-2992.2,-6.9,-6.0,1155.3,1086.6,-0.6,1151.1,516.9,1816.8,0,3366,0,195,0, 
1.8733,-1348.5,-810.6,-2598.0,1857.3,1965.3,261.6,1673.7,-213.6,-741.0,1742.7,2272.2,2264.1,-1829.4,639.0,-5294.7,-2896.2,-6.9,-5.7,1829.7,1668.6,-0.6,1828.5,554.7,2369.7,0,3372,0,196,0, 
1.8767,-1341.3,-626.1,-2503.8,2248.2,2348.1,36.6,2056.2,-237.0,-370.5,2125.8,2661.6,2648.7,-1937.4,328.2,-6350.7,-2769.0,-6.9,-6.0,2215.5,2052.9,-0.3,2205.9,442.2,2721.0,0,3378,0,197,0, 
1.8800,-1318.2,-651.9,-2501.7,1763.4,1860.3,-14.4,1571.1,-143.4,-444.6,1637.1,2171.1,2157.9,-1892.4,579.0,-5889.6,-2800.5,-7.2,-6.3,1724.7,1524.9,-0.6,1710.0,362.1,2319.0,0,3384,0,198,0, 
1.8833,-1449.0,-909.3,-2543.4,1385.7,1486.2,435.6,1201.8,-186.3,-666.9,1251.9,1785.6,1772.7,-2228.1,308.7,-5619.0,-2881.2,-7.2,-5.7,1345.2,2499.0,-0.6,1334.7,567.6,2022.0,0,3390,0,199,0, 
1.8867,-1534.8,-1134.6,-2760.0,1650.3,1750.8,987.3,1457.1,-197.4,-592.8,1524.9,2055.9,2046.6,-3110.1,-659.4,-6531.6,-2859.0,-6.9,-6.3,1605.9,3589.2,-0.6,1598.4,671.4,2278.5,0,3396,0,200,0, 
1.8900,-1460.1,-1121.1,-2763.6,2376.9,2474.1,1126.5,2177.4,-158.1,-370.5,2239.8,2791.8,2783.1,-3554.4,-1533.0,-7908.3,-2731.8,-6.9,-5.7,2344.8,3525.9,-0.9,2332.8,782.4,2911.8,0,3402,0,201,0, 
1.8933,-1316.1,-995.4,-2637.9,2816.1,2911.2,1127.7,2614.2,-169.8,0.0,2698.5,3229.8,3234.9,-3866.1,-2030.7,-9095.1,-2522.7,-6.6,-5.7,2779.8,3443.1,-0.6,2772.0,731.4,3311.4,0,3408,0,202,0, 
1.8967,-1474.2,-1129.2,-2717.4,2323.8,2425.2,1170.3,2125.5,-161.7,74.1,2200.5,2734.5,2736.3,-4002.3,-2106.0,-9051.6,-2562.3,-7.2,-6.0,2288.4,2901.9,-0.6,2283.0,665.1,2922.9,0,3414,0,203,0, 
1.9000,-1510.5,-1256.4,-2824.8,1713.9,1820.4,1396.5,1522.8,-140.4,-296.4,1590.9,2124.0,2120.4,-4074.6,-1941.9,-8064.9,-2695.8,-6.6,-5.7,1676.4,2487.6,-0.6,1676.4,694.8,2424.6,0,3420,0,204,0, 
1.9033,-1462.8,-1354.5,-2854.5,1844.1,1951.8,1589.7,1651.5,-129.9,-370.5,1729.2,2258.1,2251.5,-4118.4,-1759.8,-7650.6,-2682.9,-6.9,-6.3,1812.0,2458.8,-1.2,1813.8,930.0,2522.4,0,3426,0,205,0, 
1.9067,-1434.9,-1292.4,-2777.1,2575.2,2670.6,1447.2,2382.9,-155.4,-148.2,2468.4,2990.7,2982.6,-4142.1,-1876.2,-8435.1,-2524.5,-6.9,-5.7,2547.0,2706.0,-0.9,2558.7,992.1,3100.5,0,3432,0,206,0, 
1.9100,-1366.2,-1152.3,-2746.8,2927.1,3026.1,1109.4,2727.9,-199.8,222.3,2813.1,3336.0,3329.7,-4168.8,-2038.2,-9278.1,-2454.3,-7.2,-6.3,2888.4,3027.6,-1.2,2886.3,883.5,3427.5,0,3438,0,207,0, 
1.9133,-1328.4,-1133.4,-2686.5,2522.1,2625.6,1115.4,2333.4,-86.1,74.1,2405.4,2927.4,2921.1,-4262.1,-1917.9,-9043.2,-2442.9,-7.2,-6.0,2478.3,2966.1,-0.6,2491.2,843.0,3097.2,0,3444,0,208,0, 
1.9167,-1456.8,-1249.5,-2773.5,1904.4,2009.1,1339.8,1715.7,-52.2,0.0,1788.3,2315.7,2311.2,-4285.8,-1719.3,-8175.6,-2562.6,-7.2,-5.7,1869.9,2632.5,-0.6,1873.5,933.6,2581.8,0,3450,0,209,0, 
1.9200,-1519.8,-1319.4,-2919.6,1947.3,2052.3,1429.8,1758.9,-113.7,-296.4,1846.5,2354.7,2352.3,-4311.3,-1587.0,-7757.7,-2622.6,-7.5,-5.4,1913.7,2586.0,-0.6,1925.4,871.8,2607.6,0,3456,0,210,0, 
1.9233,-1472.4,-1149.3,-2906.4,2657.7,2764.2,1228.8,2464.8,-143.4,74.1,2547.3,3079.8,3073.2,-4251.3,-1619.4,-8431.8,-2485.8,-6.6,-5.4,2631.0,2693.4,-0.6,2632.2,809.1,3187.2,0,3462,0,211,0, 
1.9267,-1338.0,-976.8,-2791.2,3108.0,3217.5,915.0,2918.7,-90.9,444.6,2991.0,3525.9,3519.9,-4131.6,-1685.1,-9221.7,-2303.4,-7.5,-5.4,3081.9,2964.6,-0.9,3076.8,791.1,3554.7,0,3468,0,212,0, 
1.9300,-1467.0,-1045.5,-2870.7,2658.0,2764.8,781.5,2467.5,-184.8,518.7,2544.3,3073.5,3066.6,-4209.3,-1636.8,-9095.1,-2369.4,-6.9,-6.0,2624.1,2948.1,-0.6,2630.4,617.1,3180.3,0,3474,0,213,0, 
1.9333,-1587.0,-1219.2,-3019.2,2016.0,2118.9,1011.9,1830.0,-215.4,0.0,1899.6,2427.6,2423.1,-4282.2,-1393.2,-8152.8,-2463.6,-6.9,-5.7,1981.5,2719.2,-0.9,1984.2,750.9,2668.8,0,3480,0,214,0, 
1.9367,-1616.1,-1349.7,-3099.0,2034.0,2135.7,1162.5,1848.6,-168.6,-148.2,1928.7,2450.4,2445.0,-4225.2,-1345.8,-7768.8,-2554.5,-6.9,-6.0,1998.0,2496.0,-0.6,2009.4,780.9,2676.6,0,3486,0,215,0, 
1.9400,-1482.3,-1235.7,-3118.2,2734.2,2844.0,993.0,2549.1,-130.2,148.2,2617.2,3156.6,3155.7,-4070.4,-1365.0,-8429.1,-2395.8,-7.2,-6.3,2709.0,2599.5,-0.9,2705.4,809.1,3241.8,0,3492,0,216,0, 
1.9433,-1445.4,-1162.2,-3074.4,3132.9,3243.9,648.3,2944.2,-122.7,444.6,3026.1,3550.5,3544.2,-3965.7,-1460.4,-9162.0,-2285.7,-6.9,-6.0,3105.3,2899.2,-0.9,3103.5,562.2,3559.2,0,3498,0,217,0, 
1.9467,-1467.9,-1186.5,-3023.4,2770.2,2873.1,625.8,2582.1,-119.1,518.7,2659.5,3189.9,3181.2,-3977.7,-1419.0,-8991.9,-2221.8,-6.6,-6.0,2746.5,3027.3,-0.9,2740.5,596.1,3302.4,0,3504,0,218,0, 
1.9500,-1590.9,-1290.3,-3177.6,2145.0,2254.5,850.8,1956.3,-130.8,296.4,2023.5,2557.5,2548.5,-4013.4,-1284.6,-8109.9,-2358.9,-6.9,-5.7,2110.2,2775.6,-0.3,2116.5,634.5,2778.6,0,3510,0,219,0, 
1.9533,-1685.1,-1350.0,-3286.2,2118.9,2222.4,1021.5,1926.3,-141.3,74.1,1992.3,2536.8,2528.1,-4015.2,-1212.6,-7752.3,-2477.1,-7.2,-5.7,2090.4,2468.4,-0.6,2079.0,719.7,2699.4,0,3516,0,220,0, 
1.9567,-1577.4,-1285.5,-3188.7,2810.7,2910.6,818.4,2620.5,-163.5,296.4,2694.0,3225.6,3218.7,-3921.0,-1288.2,-8358.9,-2341.5,-6.6,-6.0,2775.3,2619.9,0.0,2787.9,766.8,3274.5,0,3522,0,221,0, 
1.9600,-1482.9,-1171.8,-3090.6,3224.4,3327.6,412.5,3039.9,-129.0,666.9,3109.2,3636.9,3629.4,-3823.2,-1461.6,-9086.4,-2179.5,-6.9,-6.0,3189.9,2977.5,-0.9,3194.4,647.4,3624.6,0,3528,0,222,0, 
1.9633,-1526.4,-1200.3,-3089.1,2809.8,2913.6,364.2,2619.9,-65.4,592.8,2679.3,3213.0,3203.7,-3801.3,-1365.0,-8821.5,-2172.6,-7.2,-6.3,2768.1,2958.9,-0.3,2763.9,536.4,3288.3,0,3534,0,223,0, 
1.9667,-1687.2,-1332.3,-3217.2,2145.3,2257.2,597.9,1956.3,-78.6,222.3,2030.4,2558.1,2547.6,-3871.8,-1183.2,-7894.8,-2324.7,-7.5,-5.7,2113.8,2654.4,-0.9,2105.1,507.3,2730.6,0,3540,0,224,0, 
1.9700,-1718.1,-1442.7,-3378.0,2113.2,2218.2,658.2,1917.9,-110.1,-74.1,2012.7,2535.3,2521.5,-3855.6,-1087.2,-7477.8,-2478.0,-6.9,-5.7,2094.6,2445.9,-0.9,2072.1,482.7,2676.6,0,3546,0,225,0, 
1.9733,-1578.6,-1286.4,-3316.5,2772.9,2886.6,549.6,2578.8,-62.1,74.1,2662.8,3194.7,3187.8,-3745.8,-1152.3,-8079.6,-2359.2,-7.2,-6.0,2754.6,2709.3,-1.2,2741.1,545.7,3224.1,0,3552,0,226,0, 
1.9767,-1526.7,-1200.3,-3202.5,3195.3,3301.5,250.5,2996.1,-42.3,592.8,3077.1,3612.6,3605.1,-3647.1,-1254.9,-8853.6,-2207.1,-6.6,-6.0,3173.7,2912.1,-0.6,3164.1,432.0,3576.9,0,3558,0,227,0, 
1.9800,-1634.7,-1166.7,-3221.1,2769.3,2875.5,273.6,2563.8,-18.9,518.7,2643.3,3173.1,3164.4,-3592.5,-1253.7,-8604.6,-2222.1,-7.2,-6.0,2732.7,2789.7,-0.9,2734.8,358.2,3223.5,0,3564,0,228,0, 
1.9833,-1774.5,-1255.8,-3263.7,2183.1,2293.5,475.5,1982.4,-106.8,370.5,2052.0,2583.6,2569.5,-3642.0,-1092.0,-7638.0,-2332.8,-6.9,-6.0,2147.7,2472.6,-0.6,2142.6,311.7,2744.1,0,3570,0,229,0, 
1.9867,-1734.6,-1261.2,-3285.0,2246.1,2353.2,694.5,2037.9,-114.9,74.1,2122.2,2654.1,2655.9,-3558.3,-861.3,-7028.1,-2374.5,-7.2,-5.7,2208.3,2492.1,-0.3,2200.5,432.0,2774.4,0,3576,0,230,0, 
1.9900,-1684.8,-1223.4,-3255.3,2948.1,3048.3,446.7,2741.4,-183.6,370.5,2834.4,3364.8,3361.2,-3532.2,-1008.9,-7732.5,-2231.4,-6.9,-6.0,2920.5,2895.0,-0.9,2922.0,372.9,3376.8,0,3582,0,231,0, 
1.9933,-1584.6,-1143.0,-3287.1,3255.0,3361.8,122.4,3048.3,-162.0,592.8,3149.1,3670.5,3663.0,-3520.5,-1182.0,-8631.6,-2175.9,-7.2,-5.4,3226.2,2999.7,-0.9,3222.9,331.8,3630.6,0,3588,0,232,0, 
1.9967,-1619.1,-1101.9,-3269.4,2819.7,2928.3,99.6,2624.7,-111.6,666.9,2713.2,3233.7,3234.9,-3457.8,-1066.2,-8374.8,-2159.4,-6.6,-5.7,2791.5,2761.5,-0.9,2787.3,305.1,3238.5,0,3594,0,233,0, 
2.0000,-1626.0,-1105.8,-3300.0,2176.5,2281.8,319.8,1989.0,-91.8,222.3,2053.2,2582.4,2582.1,-3365.7,-721.2,-7240.5,-2274.0,-6.9,-6.0,2135.7,2452.5,-0.9,2138.1,341.7,2707.2,0,3600,0,234,0, 
2.0033,-1731.9,-1167.6,-3389.7,2240.1,2343.6,351.3,2056.8,-111.3,0.0,2123.1,2632.8,2640.3,-3347.1,-618.6,-6817.8,-2408.4,-6.6,-6.3,2203.5,2363.4,-0.9,2206.2,395.7,2743.2,0,3606,0,235,0, 
2.0067,-1727.1,-1114.8,-3336.9,2946.9,3050.7,219.6,2764.5,-152.4,370.5,2830.5,3351.3,3356.4,-3281.1,-770.4,-7664.1,-2296.5,-6.6,-6.0,2911.5,2826.9,-0.6,2911.5,361.5,3351.0,0,3612,0,236,0, 
2.0100,-1671.0,-1057.2,-3295.5,3288.3,3396.9,0.0,3110.1,-122.4,666.9,3180.6,3699.0,3696.3,-3247.5,-1049.1,-8569.5,-2138.1,-6.9,-5.7,3257.1,3090.0,-0.9,3258.9,331.8,3650.7,0,3618,0,237,0, 
2.0133,-1623.0,-990.9,-3300.0,2839.8,2948.4,-15.3,2660.4,-69.9,741.0,2723.7,3240.9,3251.1,-3257.4,-910.2,-8184.6,-2119.8,-6.6,-5.7,2801.7,2675.1,-0.9,2815.2,147.3,3266.1,0,3624,0,238,0, 
2.0167,-1732.5,-1127.1,-3381.3,2175.0,2289.9,119.4,1996.2,-48.0,296.4,2067.3,2588.4,2582.1,-3099.3,-415.5,-7002.6,-2265.6,-7.2,-6.0,2157.3,2036.1,-0.9,2139.6,220.5,2697.3,0,3630,0,239,0, 
2.0200,-1857.3,-1288.2,-3483.9,2211.0,2318.7,100.2,2034.3,-128.4,222.3,2104.5,2619.9,2618.4,-3051.3,-222.3,-6468.6,-2354.1,-6.9,-6.0,2173.2,2000.1,-0.9,2178.6,201.0,2699.1,0,3636,0,240,0, 
2.0233,-1781.7,-1244.7,-3480.9,2862.0,2969.7,-116.7,2681.4,-138.9,296.4,2757.3,3269.4,3261.6,-3024.9,-467.4,-7284.3,-2315.7,-6.9,-6.0,2829.9,2664.0,-0.6,2836.8,282.6,3223.2,0,3642,0,241,0, 
2.0267,-1682.7,-1073.4,-3376.2,3204.6,3316.8,-313.5,3021.0,-165.9,370.5,3086.4,3607.5,3609.6,-2992.8,-758.1,-8184.0,-2222.4,-6.9,-6.3,3169.5,2858.7,-0.3,3169.8,188.1,3530.1,0,3648,0,242,0, 
2.0300,-1720.2,-1051.2,-3312.0,2793.9,2901.3,-344.1,2610.9,-104.4,592.8,2677.2,3203.1,3199.8,-2839.2,-594.6,-7788.6,-2208.6,-6.9,-6.3,2759.7,2397.3,-0.9,2764.5,117.9,3177.9,0,3654,0,243,0, 
2.0333,-1696.2,-1110.6,-3377.7,2163.0,2275.2,-182.1,1984.2,-138.6,296.4,2048.4,2562.0,2559.9,-2615.7,-130.5,-6494.1,-2245.2,-6.9,-6.0,2119.2,1921.2,-0.6,2127.3,211.2,2652.6,0,3660,0,244,0, 
2.0367,-1822.5,-1309.2,-3508.2,2194.5,2305.2,-182.1,2012.7,-276.9,148.2,2082.3,2595.3,2587.2,-2541.9,8.7,-6049.2,-2384.7,-7.5,-6.3,2155.2,1942.5,-1.2,2162.4,280.8,2639.1,0,3666,0,245,0, 
2.0400,-1722.0,-1252.2,-3383.7,2913.3,3020.1,-348.9,2728.5,-211.2,296.4,2813.1,3327.9,3318.3,-2461.5,-182.4,-6801.3,-2258.7,-6.9,-5.7,2885.4,2677.5,-0.9,2891.4,341.1,3233.7,0,3672,0,246,0, 
2.0433,-1636.5,-1159.2,-3271.2,3311.7,3423.3,-576.6,3119.4,-198.9,741.0,3209.1,3732.0,3721.8,-2419.2,-503.4,-7761.0,-2107.2,-6.6,-6.0,3288.3,2858.7,-0.9,3281.7,257.4,3563.1,0,3678,0,247,0, 
2.0467,-1613.4,-1149.3,-3266.4,2894.1,3000.3,-596.1,2703.3,-141.9,815.1,2787.0,3303.9,3291.9,-2327.7,-318.0,-7374.9,-2073.3,-6.3,-6.0,2860.2,2412.9,-0.3,2859.9,236.1,3213.9,0,3684,0,248,0, 
2.0500,-1654.5,-1249.5,-3321.6,2249.1,2358.3,-426.0,2072.4,-147.3,518.7,2132.7,2653.2,2642.1,-2190.0,126.3,-6076.8,-2168.4,-6.9,-6.0,2213.7,1932.0,-0.9,2215.2,242.7,2673.0,0,3690,0,249,0, 
2.0533,-1796.4,-1321.2,-3358.5,2237.7,2348.4,-310.2,2052.9,-229.5,296.4,2128.2,2642.4,2633.1,-2064.3,339.9,-5508.6,-2280.0,-6.6,-6.0,2204.1,1950.0,-0.9,2203.2,292.5,2634.0,0,3696,0,250,0, 
2.0567,-1765.8,-1338.3,-3376.5,2913.3,3018.3,-561.6,2725.5,-364.5,370.5,2808.0,3324.0,3312.3,-2194.2,-2.7,-6390.3,-2210.1,-6.6,-6.3,2885.7,2607.0,-0.9,2882.4,258.6,3195.3,0,3702,0,251,0, 
2.0600,-1681.5,-1237.2,-3310.2,3259.5,3357.9,-798.9,3067.5,-275.4,592.8,3147.3,3664.8,3647.1,-2271.6,-329.4,-7287.0,-2058.0,-6.9,-5.7,3225.6,2936.4,-0.6,3218.4,150.3,3492.9,0,3708,0,252,0, 
2.0633,-1689.3,-1181.1,-3293.4,2737.5,2844.0,-819.6,2544.6,-192.0,666.9,2613.3,3137.7,3132.3,-2181.9,-278.1,-6971.7,-2136.3,-6.6,-5.4,2700.6,2349.6,-0.6,2696.7,83.1,3051.3,0,3714,0,253,0, 
2.0667,-1754.4,-1218.0,-3356.1,2069.1,2173.2,-556.2,1878.6,-182.4,148.2,1936.5,2472.0,2450.4,-2062.2,144.9,-5674.2,-2263.2,-6.9,-6.0,2036.4,1719.3,-0.3,2021.7,147.3,2481.6,0,3720,0,254,0, 
2.0700,-1803.0,-1276.8,-3374.4,2121.6,2226.0,-491.4,1930.2,-228.0,0.0,2003.4,2518.2,2505.0,-1997.4,309.0,-5220.9,-2340.6,-6.9,-6.0,2077.5,1807.5,-0.9,2081.4,186.3,2512.2,0,3726,0,255,0, 
2.0733,-1787.1,-1287.6,-3421.8,2740.2,2846.4,-601.5,2539.2,-314.7,148.2,2622.9,3149.1,3133.5,-2061.0,36.6,-6114.6,-2343.0,-6.9,-5.7,2705.4,2397.3,-0.6,2700.6,178.8,3000.6,0,3732,0,0,0, 
2.0767,-1693.2,-1231.5,-3339.6,3104.1,3212.1,-841.5,2908.8,-294.0,444.6,2987.7,3508.2,3506.1,-2030.1,-306.6,-6997.2,-2255.1,-6.9,-5.7,3068.7,2625.9,-0.6,3073.5,145.2,3312.6,0,3738,0,1,0, 
2.0800,-1745.1,-1205.4,-3276.6,2607.6,2713.5,-753.0,2412.3,-194.4,444.6,2497.2,3013.8,3006.3,-1976.7,-172.8,-6679.8,-2281.2,-6.9,-6.0,2571.9,2147.1,-0.9,2573.7,121.5,2897.1,0,3744,0,2,0, 
2.0833,-1837.5,-1284.3,-3344.4,1888.2,1992.6,-693.3,1691.7,-217.8,0.0,1752.6,2290.2,2279.1,-1815.9,209.1,-5437.8,-2423.7,-6.9,-6.3,1846.8,1547.7,-0.9,1852.8,252.0,2268.9,0,3750,0,3,0, 
2.0867,-1849.2,-1311.6,-3394.5,1919.1,2024.4,-545.7,1732.5,-222.3,-222.3,1799.4,2315.1,2308.8,-1712.7,356.7,-4909.8,-2538.3,-7.2,-6.0,1874.1,1653.9,-0.9,1887.3,356.4,2282.1,0,3756,0,4,0, 
2.0900,-1716.3,-1250.7,-3279.9,2560.2,2661.9,-573.9,2372.7,-178.8,0.0,2438.4,2959.8,2944.8,-1674.0,161.1,-5703.9,-2481.0,-6.9,-6.3,2526.0,2304.3,-0.3,2517.6,432.0,2817.9,0,3762,0,5,0, 
2.0933,-1673.4,-1103.1,-3291.3,2889.9,2994.0,-795.3,2709.6,-251.4,296.4,2775.3,3294.6,3279.3,-1819.2,-249.0,-6817.2,-2403.3,-6.6,-5.7,2855.1,2481.6,-0.3,2862.3,224.1,3098.4,0,3768,0,6,0, 
2.0967,-1655.4,-1097.1,-3244.2,2455.2,2561.4,-715.5,2277.3,-156.6,444.6,2341.5,2852.1,2844.3,-1734.9,-195.0,-6413.7,-2386.5,-6.3,-6.0,2418.9,2028.3,-0.3,2421.0,209.1,2746.8,0,3774,0,7,0, 
2.1000,-1692.3,-1236.3,-3285.6,1746.0,1850.7,-564.3,1575.9,-166.8,-74.1,1630.8,2149.8,2138.4,-1602.6,229.5,-5162.1,-2595.9,-7.2,-6.0,1712.4,1460.1,-0.6,1716.3,317.4,2151.6,0,3780,0,8,0, 
2.1033,-1668.6,-1240.2,-3327.0,1808.4,1911.9,-396.9,1640.7,-156.3,-296.4,1698.3,2214.0,2206.2,-1450.8,342.9,-4697.4,-2657.1,-6.6,-6.0,1776.0,1514.7,-0.6,1776.3,439.5,2178.6,0,3786,0,9,0, 
2.1067,-1600.2,-1202.4,-3345.3,2532.3,2635.2,-511.5,2361.3,-193.2,-74.1,2421.9,2935.2,2913.3,-1520.1,48.9,-5562.9,-2611.2,-6.9,-5.7,2497.8,2185.2,-0.9,2503.8,425.1,2789.7,0,3792,0,10,0, 
2.1100,-1556.4,-1165.8,-3283.5,2807.4,2914.2,-684.6,2635.5,-183.9,148.2,2693.1,3207.9,3182.7,-1583.7,-285.9,-6591.0,-2506.5,-7.2,-6.0,2762.4,2452.5,-0.9,2765.4,309.9,3050.4,0,3798,0,11,0, 
2.1133,-1624.8,-1202.7,-3243.0,2338.5,2444.4,-713.7,2163.3,-148.8,222.3,2210.7,2743.8,2730.0,-1509.9,-237.0,-6253.8,-2515.5,-7.2,-6.3,2306.1,1836.0,-0.9,2301.9,306.3,2649.0,0,3804,0,12,0, 
2.1167,-1736.4,-1270.8,-3262.2,1707.0,1812.6,-483.0,1535.4,-62.7,0.0,1592.4,2112.0,2093.7,-1437.6,166.5,-5092.5,-2635.5,-6.6,-6.0,1670.4,1305.3,-0.6,1672.8,265.2,2128.5,0,3810,0,13,0, 
2.1200,-1716.9,-1325.7,-3268.2,1746.0,1851.6,-224.4,1564.8,-67.8,-370.5,1623.6,2151.3,2136.9,-1354.5,369.9,-4562.1,-2715.9,-6.9,-5.4,1719.6,1373.1,-0.9,1706.4,381.0,2132.4,0,3816,0,14,0, 
2.1233,-1626.0,-1302.0,-3294.0,2434.8,2532.0,-310.8,2248.2,-98.4,-148.2,2316.0,2839.8,2828.1,-1446.6,96.9,-5472.3,-2675.4,-7.2,-5.1,2398.2,1949.4,-0.6,2395.2,389.4,2677.2,0,3822,0,15,0, 
2.1267,-1472.1,-1122.9,-3232.8,2898.0,2998.2,-510.3,2712.3,-147.9,296.4,2778.6,3306.9,3288.6,-1540.2,-210.6,-6465.6,-2481.6,-7.2,-5.7,2867.7,2292.3,-0.6,2866.2,326.4,3088.8,0,3828,0,16,0, 
2.1300,-1521.6,-1064.4,-3204.3,2441.1,2544.0,-555.6,2256.6,-73.2,222.3,2317.2,2848.8,2834.7,-1505.1,-111.6,-6164.7,-2499.0,-6.9,-6.0,2407.5,1848.3,-0.9,2405.4,237.6,2706.6,0,3834,0,17,0, 
2.1333,-1599.6,-1104.9,-3186.9,1856.7,1960.2,-380.7,1674.6,3.3,0.0,1728.3,2255.7,2242.8,-1391.4,297.6,-4953.6,-2602.2,-6.6,-6.0,1820.1,1363.5,-0.6,1811.1,289.5,2215.5,0,3840,0,18,0, 
2.1367,-1632.6,-1270.8,-3279.6,1857.6,1968.6,-280.5,1673.7,-121.2,-148.2,1738.5,2265.3,2247.6,-1428.6,363.0,-4556.4,-2727.6,-6.9,-5.7,1827.3,1548.9,-0.6,1821.6,336.6,2199.3,0,3846,0,19,0, 
2.1400,-1526.1,-1197.0,-3271.8,2478.3,2579.7,-413.4,2290.8,-125.4,-148.2,2359.2,2884.8,2868.9,-1506.9,94.5,-5477.1,-2669.7,-6.6,-6.3,2448.0,2166.0,-0.6,2437.5,367.8,2727.9,0,3852,0,20,0, 
2.1433,-1348.8,-1056.3,-3150.3,2870.1,2967.6,-563.1,2673.6,-108.0,222.3,2741.1,3276.3,3258.9,-1510.2,-156.3,-6423.0,-2571.9,-6.9,-5.7,2846.1,2409.6,-0.6,2828.1,320.7,3060.0,0,3858,0,21,0, 
2.1467,-1396.5,-1057.5,-3093.3,2496.3,2597.1,-574.5,2305.2,-91.8,370.5,2373.3,2897.4,2886.3,-1493.4,-129.6,-6041.1,-2471.1,-7.2,-6.0,2458.2,1929.6,-0.6,2451.0,252.3,2770.5,0,3864,0,22,0, 
2.1500,-1510.8,-1130.7,-3236.4,1814.4,1920.0,-423.6,1621.8,-149.7,0.0,1700.4,2219.7,2205.9,-1401.9,206.7,-4923.3,-2643.0,-6.9,-6.0,1788.9,1422.3,-0.9,1769.7,261.6,2186.7,0,3870,0,23,0, 
2.1533,-1531.8,-1147.5,-3266.1,1887.9,1993.2,-351.9,1687.5,-285.9,-148.2,1773.6,2300.7,2283.9,-1433.7,313.8,-4451.7,-2726.7,-6.9,-6.0,1862.4,1487.1,-0.9,1847.4,291.9,2210.1,0,3876,0,24,0, 
2.1567,-1466.1,-1062.9,-3195.6,2576.1,2680.8,-450.0,2371.2,-313.2,0.0,2460.3,2977.2,2964.0,-1424.1,152.7,-5442.9,-2615.7,-6.9,-6.0,2542.5,2163.9,-0.9,2530.5,399.9,2797.2,0,3882,0,25,0, 
2.1600,-1418.1,-1012.5,-3094.5,2946.6,3057.6,-675.6,2741.7,-246.6,296.4,2832.0,3354.6,3338.4,-1523.7,-221.1,-6400.2,-2506.5,-6.6,-5.7,2917.2,2332.5,-0.9,2899.5,238.8,3127.8,0,3888,0,26,0, 
2.1633,-1481.1,-979.8,-3062.7,2497.2,2596.2,-667.5,2297.7,-219.3,370.5,2375.4,2900.4,2881.8,-1554.0,-103.5,-6078.3,-2541.6,-6.9,-6.3,2468.7,1990.2,-0.3,2454.3,231.3,2756.4,0,3894,0,27,0, 
2.1667,-1528.2,-1008.3,-3154.2,1878.3,1982.4,-491.7,1677.9,-225.6,-74.1,1770.0,2282.7,2262.3,-1443.0,237.6,-4899.6,-2619.6,-6.9,-5.7,1843.8,1357.8,-0.6,1835.4,182.4,2223.9,0,3900,0,28,0, 
2.1700,-1526.1,-1108.5,-3277.5,1920.3,2019.6,-383.1,1720.8,-282.9,-222.3,1795.8,2317.5,2303.4,-1388.1,391.5,-4431.9,-2722.5,-7.2,-6.0,1879.2,1465.5,-0.6,1875.6,336.3,2227.2,0,3906,0,29,0, 
2.1733,-1467.9,-1126.2,-3202.8,2565.0,2665.2,-470.7,2375.4,-241.2,0.0,2436.6,2963.7,2951.1,-1579.5,143.7,-5351.1,-2616.6,-6.9,-6.3,2526.6,2131.2,-1.2,2526.9,324.3,2779.2,0,3912,0,30,0, 
2.1767,-1498.5,-1062.9,-3128.4,2867.7,2976.9,-722.4,2687.7,-269.7,296.4,2753.4,3264.3,3255.3,-1662.3,-272.1,-6367.2,-2545.5,-6.6,-6.3,2827.5,2274.9,-0.9,2828.7,294.6,3045.9,0,3918,0,31,0, 
2.1800,-1492.2,-971.4,-3027.0,2370.0,2473.8,-653.1,2195.4,-182.7,74.1,2251.8,2772.0,2758.5,-1583.1,-154.8,-6084.3,-2591.4,-6.9,-5.7,2335.2,1876.8,-0.6,2335.8,261.9,2634.0,0,3924,0,32,0, 
2.1833,-1632.0,-1070.1,-3098.4,1737.9,1843.5,-452.7,1568.1,-174.0,0.0,1629.3,2127.0,2128.8,-1490.7,135.9,-4941.9,-2740.8,-7.2,-6.3,1698.6,1199.4,-0.3,1707.0,333.0,2094.9,0,3930,0,33,0, 
2.1867,-1655.4,-1135.2,-3147.0,1772.1,1873.8,-408.0,1602.0,-236.4,-296.4,1654.8,2173.5,2163.0,-1423.8,310.8,-4585.2,-2844.9,-6.6,-5.7,1743.9,1300.2,-0.9,1738.8,385.5,2115.3,0,3936,0,34,0, 
2.1900,-1545.3,-1100.1,-3167.7,2518.8,2612.4,-579.6,2342.7,-262.2,0.0,2412.6,2924.7,2908.8,-1413.0,-6.3,-5554.8,-2720.4,-7.5,-6.0,2490.6,1968.9,-0.6,2489.1,310.2,2722.5,0,3942,0,35,0, 
2.1933,-1452.9,-1047.9,-2982.9,2893.5,2992.2,-726.3,2720.1,-165.3,148.2,2784.3,3301.8,3294.9,-1477.8,-233.1,-6535.5,-2566.8,-6.6,-5.4,2860.8,2269.5,-0.3,2865.0,281.7,3057.3,0,3948,0,36,0, 
2.1967,-1490.4,-1074.3,-2943.6,2507.1,2609.1,-801.3,2334.0,-216.6,296.4,2394.0,2908.5,2893.5,-1452.6,-152.4,-6268.8,-2556.3,-6.9,-6.3,2469.0,1848.6,-0.9,2469.3,245.4,2749.8,0,3954,0,37,0, 
