Time,P3,C3,F3,Fz,F4,C4,P4,Cz,CM,A1,Fp1,Fp2,T3,T5,O1,O2,X3,X2,F7,F8,X1,A2,T6,T4,Trigger,Time_Offset,ADC_Status,ADC_Sequence,Event,Comments
0.0033,98.4,565.8,179.7,796.2,163.8,-51.3,75.3,-30.6,-1778.4,88.8,153.9,-262.5,-1155.6,151.2,150.9,988.8,-7.2,-6.0,-172.2,-1017.9,-0.9,141.9,236.1,-1383.9,0,6,0,217,0, 
0.0067,173.1,564.3,180.6,800.4,477.6,-39.9,78.6,-31.5,-1259.7,84.6,153.9,903.0,-1154.4,429.3,581.4,992.7,-7.2,-5.7,1157.7,1964.1,-0.9,145.8,244.8,-1382.7,0,12,0,218,0, 
0.0100,134.7,568.5,184.8,795.9,379.8,-41.7,80.7,-35.1,-1704.3,87.0,155.4,964.8,-1148.7,288.9,498.6,985.5,-6.6,-6.3,1102.8,2553.6,-0.9,148.5,248.1,-1384.5,0,18,0,219,0, 
0.0133,66.0,572.7,190.2,795.3,-12.6,-45.0,78.6,-31.8,-2371.2,92.1,161.1,-168.3,-1158.3,-166.5,20.1,989.1,-6.9,-6.0,-434.7,-178.8,-0.9,150.0,249.0,-1386.3,0,24,0,220,0, 
0.0167,53.4,567.0,185.4,789.6,-149.4,-40.5,81.0,-35.1,-2593.5,90.6,158.4,-1041.0,-1155.3,-242.1,-229.8,964.5,-6.6,-5.7,-1296.0,-2365.8,-0.9,155.4,266.1,-1378.5,0,30,0,221,0, 
0.0200,122.1,577.5,191.7,803.1,217.5,-47.1,76.8,-42.0,-1852.5,96.3,160.8,-252.0,-1154.4,95.7,165.9,996.9,-6.6,-5.4,-225.9,-1001.4,-0.9,157.2,248.4,-1395.0,0,36,0,222,0, 
0.0233,165.0,576.6,182.1,798.0,495.9,-47.1,74.1,-45.9,-1185.6,95.7,157.2,888.0,-1151.4,346.2,575.7,1017.0,-6.6,-6.6,1166.1,1854.3,-0.6,149.4,253.2,-1385.7,0,42,0,223,0, 
0.0267,128.4,577.2,183.6,790.5,396.6,-49.2,74.1,-57.3,-1704.3,102.6,159.0,944.1,-1158.9,161.7,567.3,1002.6,-7.2,-5.7,1042.5,2388.9,-0.9,153.3,258.0,-1389.3,0,48,0,224,0, 
0.0300,76.5,589.2,186.6,792.3,51.9,-48.0,81.6,-49.8,-2445.3,103.8,161.4,-229.5,-1154.7,-216.6,123.9,993.9,-6.9,-6.6,-373.2,-243.6,-0.6,159.0,267.9,-1379.4,0,54,0,225,0, 
0.0333,69.9,573.3,184.5,801.3,-20.1,-48.0,81.3,-53.4,-2519.4,106.5,160.8,-1049.4,-1149.6,-246.3,-17.7,1002.0,-6.9,-6.0,-1215.9,-2378.7,-1.2,162.3,266.4,-1370.4,0,60,0,226,0, 
0.0367,122.7,575.4,180.0,791.4,253.2,-46.5,76.5,-58.5,-1704.3,101.4,158.1,-335.7,-1144.5,193.8,365.7,1012.8,-6.9,-6.0,-171.6,-918.9,-0.9,152.4,265.8,-1376.4,0,66,0,227,0, 
0.0400,167.7,564.3,179.4,792.3,518.1,-46.8,73.5,-65.1,-1407.9,97.8,158.7,756.9,-1152.0,406.5,734.1,1016.7,-6.6,-5.4,1111.5,1916.1,-0.9,150.9,261.0,-1383.0,0,72,0,228,0, 
0.0433,138.9,563.4,183.3,799.5,420.9,-42.6,74.1,-63.6,-1630.2,103.5,165.9,777.3,-1146.9,187.2,616.2,996.9,-6.9,-6.3,994.2,2379.6,-0.6,157.5,262.8,-1375.2,0,78,0,229,0, 
0.0467,75.9,573.3,189.3,801.6,92.4,-37.5,76.2,-63.3,-2593.5,102.6,164.4,-283.5,-1163.4,-221.1,161.1,994.5,-7.2,-6.0,-383.1,-251.1,-0.9,163.2,266.4,-1366.2,0,84,0,230,0, 
0.0500,42.0,569.4,189.0,798.3,-100.5,-36.9,78.3,-65.7,-2445.3,105.0,168.6,-1132.2,-1162.5,-286.5,-41.1,998.7,-6.6,-6.0,-1233.6,-2432.7,-0.9,164.4,264.6,-1368.6,0,90,0,231,0, 
0.0533,110.7,564.0,188.4,805.2,247.8,-33.6,78.0,-72.6,-1926.6,97.5,164.1,-507.6,-1142.4,33.9,323.4,1020.9,-6.9,-5.7,-195.9,-1045.2,-0.9,160.2,257.1,-1376.1,0,96,0,232,0, 
0.0567,147.9,567.3,182.1,797.4,585.0,-39.6,75.0,-78.6,-1185.6,98.1,158.7,699.6,-1146.0,420.0,726.9,1014.3,-6.6,-6.0,1208.4,1840.2,-1.2,156.9,253.2,-1376.7,0,102,0,233,0, 
0.0600,116.7,558.0,180.9,802.2,482.7,-38.1,79.5,-82.5,-1778.4,95.4,161.7,737.4,-1150.8,188.7,579.6,1003.8,-6.9,-5.4,1027.2,2362.5,-0.3,152.4,261.3,-1377.9,0,108,0,234,0, 
0.0633,68.1,556.8,182.4,799.2,145.8,-36.3,78.9,-81.3,-2371.2,103.5,162.9,-348.3,-1152.0,-163.5,117.0,989.4,-6.9,-6.0,-437.7,-371.7,-0.6,157.5,267.9,-1371.0,0,114,0,235,0, 
0.0667,51.6,564.0,186.0,804.0,-3.0,-40.2,73.5,-83.1,-2519.4,96.0,164.4,-975.9,-1155.9,-200.7,-88.5,999.0,-6.9,-6.0,-1209.6,-2543.4,-0.9,157.2,267.0,-1374.9,0,120,0,236,0, 
0.0700,121.8,570.3,182.4,806.1,258.9,-38.1,68.4,-81.0,-1852.5,94.5,162.0,-295.8,-1152.3,150.0,285.9,1004.7,-7.2,-6.0,-138.0,-1068.6,-0.9,154.5,258.6,-1372.5,0,126,0,237,0, 
0.0733,159.9,570.6,186.9,816.3,583.8,-34.8,75.9,-84.0,-1333.8,97.8,165.0,899.7,-1145.1,438.0,710.4,1010.7,-6.9,-6.0,1282.5,1790.4,-0.9,161.1,264.9,-1369.8,0,132,0,238,0, 
0.0767,146.1,571.2,188.4,810.3,482.4,-33.3,76.5,-92.7,-1704.3,97.2,167.1,914.1,-1153.5,225.9,554.4,998.1,-7.2,-5.7,1102.2,2299.5,-1.2,161.1,262.2,-1370.7,0,138,0,239,0, 
0.0800,49.5,569.7,185.4,805.8,106.2,-36.9,78.6,-90.3,-2371.2,106.5,164.1,-224.4,-1158.0,-219.0,78.0,997.2,-6.6,-6.0,-396.0,-380.4,-0.9,159.6,268.8,-1367.4,0,144,0,240,0, 
0.0833,49.5,572.7,182.4,806.4,-59.1,-39.6,73.5,-102.3,-2593.5,96.3,163.5,-1091.4,-1168.5,-204.9,-41.7,984.3,-6.9,-6.3,-1196.4,-2467.2,-0.9,156.6,262.5,-1380.6,0,150,0,241,0, 
0.0867,98.7,580.8,183.3,801.3,227.7,-35.7,71.1,-99.3,-1778.4,96.9,161.7,-330.9,-1146.3,218.7,331.2,988.5,-6.6,-6.0,-216.0,-1017.6,-0.6,153.6,260.1,-1378.2,0,156,0,242,0, 
0.0900,143.7,582.3,181.5,803.1,529.2,-38.4,69.9,-101.7,-1333.8,90.3,156.0,956.1,-1147.8,460.8,719.4,989.4,-7.2,-5.7,1203.3,1892.1,-0.9,159.6,254.1,-1375.2,0,162,0,243,0, 
0.0933,115.2,573.3,183.0,796.8,421.5,-34.5,69.9,-103.2,-1778.4,101.1,164.1,877.5,-1148.1,216.3,618.9,987.9,-6.9,-6.0,1069.8,2355.9,-0.9,158.7,258.0,-1371.9,0,168,0,244,0, 
0.0967,47.7,569.7,190.2,796.8,78.3,-33.6,72.3,-106.5,-2297.1,101.1,170.4,-425.4,-1152.6,-110.7,100.2,977.7,-6.9,-6.0,-489.0,-315.6,-0.3,171.0,263.4,-1363.5,0,174,0,245,0, 
0.1000,41.4,567.3,187.5,787.8,-69.6,-39.3,66.6,-116.1,-2445.3,94.2,162.9,-1231.2,-1150.2,-226.8,-119.7,982.5,-7.2,-6.6,-1237.5,-2470.2,-1.2,153.6,262.8,-1371.6,0,180,0,246,0, 
0.1033,104.1,574.5,184.5,799.2,231.0,-32.7,77.7,-113.4,-1778.4,94.2,162.6,-504.0,-1140.6,195.3,232.8,1002.0,-7.2,-5.7,-179.7,-931.8,-0.6,154.5,262.5,-1372.5,0,186,0,247,0, 
0.1067,163.2,575.4,185.4,807.0,561.9,-37.2,77.1,-117.9,-1333.8,100.8,163.5,748.5,-1139.1,480.6,642.3,1006.2,-6.9,-5.7,1186.8,2011.2,-1.2,160.2,258.3,-1377.6,0,192,0,248,0, 
0.1100,141.3,576.3,189.3,801.3,435.9,-30.9,78.0,-115.8,-1704.3,106.8,167.4,803.4,-1146.6,297.6,498.0,999.6,-6.6,-6.0,1053.9,2428.2,-0.6,166.2,260.1,-1373.4,0,198,0,249,0, 
0.1133,84.9,576.9,191.1,795.6,114.3,-37.2,79.5,-120.0,-2445.3,111.9,168.9,-291.9,-1143.0,-24.9,72.6,972.3,-6.9,-6.0,-383.7,-188.1,-1.2,172.2,261.0,-1372.2,0,204,0,250,0, 
0.1167,75.6,579.9,189.0,795.0,-33.6,-38.1,73.8,-127.5,-2519.4,99.9,164.1,-1098.0,-1153.5,-193.8,-235.5,978.0,-7.2,-5.4,-1243.5,-2386.8,-0.3,163.8,257.4,-1372.2,0,210,0,251,0, 
0.1200,132.0,584.4,190.8,810.9,205.5,-33.9,76.5,-132.0,-1704.3,100.8,167.7,-254.1,-1142.7,151.2,171.6,1002.6,-6.9,-5.7,-260.1,-1017.0,-0.9,158.1,257.1,-1373.4,0,216,0,252,0, 
0.1233,165.3,576.9,182.4,806.1,528.6,-31.8,71.7,-140.1,-1333.8,96.6,165.3,944.1,-1146.6,397.2,641.4,998.4,-6.3,-5.7,1069.5,1951.5,-1.2,149.4,252.6,-1375.8,0,222,0,253,0, 
0.1267,142.2,590.7,188.1,804.6,424.5,-37.2,73.5,-142.2,-1704.3,96.0,160.2,970.5,-1146.6,217.5,568.8,975.3,-6.9,-6.0,923.1,2440.5,-0.6,150.3,252.3,-1378.2,0,228,0,254,0, 
0.1300,81.3,583.5,187.2,789.9,61.2,-31.5,77.7,-145.8,-2519.4,102.3,162.9,-229.2,-1151.1,-229.8,76.8,967.2,-7.2,-5.7,-612.3,-345.0,-0.9,153.6,262.2,-1378.2,0,234,0,255,0, 
0.1333,75.0,579.0,188.7,795.9,-64.8,-34.2,78.9,-147.3,-2445.3,102.6,173.7,-1019.4,-1134.3,-248.7,-145.8,977.4,-6.6,-6.0,-1371.3,-2449.5,-0.9,154.5,255.3,-1377.0,0,240,0,0,0, 
0.1367,165.6,594.0,189.0,808.2,455.7,-32.1,77.7,-146.7,-1852.5,103.2,174.0,-182.4,-1130.7,277.8,457.5,1004.1,-7.2,-6.0,-59.7,-733.8,-1.2,155.4,258.3,-1372.2,0,246,0,1,0, 
0.1400,228.6,590.4,185.4,813.6,1236.6,-30.6,74.7,-150.6,-1333.8,98.1,166.8,1746.6,-1125.6,1055.1,1351.2,1021.2,-7.2,-6.0,1875.3,2955.6,-0.9,153.6,258.3,-1374.9,0,252,0,2,0, 
0.1433,151.5,586.2,186.6,796.5,920.4,-33.9,75.9,-156.9,-1778.4,96.6,169.8,1455.6,-1143.6,688.2,1032.6,989.4,-6.9,-6.0,1398.0,3042.9,-0.6,153.3,256.5,-1374.9,0,258,0,3,0, 
0.1467,110.4,589.2,185.7,792.3,533.4,-30.0,78.6,-163.5,-2445.3,101.4,168.9,276.3,-1145.4,313.8,505.5,985.8,-7.2,-5.7,-6.0,327.6,-1.2,159.6,258.6,-1376.7,0,264,0,4,0, 
0.1500,85.5,591.0,186.9,786.0,300.3,-25.8,78.3,-157.2,-2519.4,105.0,167.7,-653.1,-1153.2,93.6,125.4,979.5,-6.9,-5.7,-955.8,-1860.3,-0.9,162.6,262.8,-1371.9,0,270,0,5,0, 
0.1533,132.9,590.7,185.1,786.3,536.1,-30.0,77.7,-161.1,-1630.2,99.0,164.7,-23.4,-1136.4,521.7,473.7,988.5,-7.2,-5.7,46.5,-509.1,-1.5,156.0,261.6,-1383.0,0,276,0,6,0, 
0.1567,186.0,579.3,179.1,788.4,714.6,-29.4,77.4,-164.4,-1333.8,99.0,163.8,978.0,-1133.7,679.2,717.3,1002.3,-7.2,-5.7,1261.8,2230.5,-0.6,152.4,254.4,-1383.6,0,282,0,7,0, 
0.1600,154.2,581.7,178.2,793.2,618.3,-33.9,79.2,-168.6,-1556.1,98.4,164.7,1085.7,-1139.7,523.5,615.0,990.0,-6.9,-5.7,1121.1,2698.8,-0.9,154.8,253.5,-1385.4,0,288,0,8,0, 
0.1633,87.6,570.9,182.4,789.6,220.5,-39.3,79.8,-166.2,-2519.4,99.3,164.4,-226.2,-1150.5,61.8,190.5,971.1,-6.9,-6.0,-366.6,5.7,-0.9,155.1,252.9,-1384.5,0,294,0,9,0, 
0.1667,77.1,579.3,185.1,789.0,65.4,-43.5,84.6,-166.2,-2297.1,98.7,170.1,-1056.9,-1143.9,-27.0,-69.6,977.1,-7.2,-5.4,-1282.5,-2258.4,-0.6,160.8,262.5,-1384.8,0,300,0,10,0, 
0.1700,136.2,585.6,186.9,795.9,337.8,-39.6,85.2,-165.6,-1704.3,106.2,171.3,-362.4,-1134.0,300.6,290.7,983.4,-6.6,-5.7,-216.9,-892.8,-0.3,164.1,261.6,-1383.0,0,306,0,11,0, 
0.1733,189.9,581.7,182.7,795.9,666.6,-35.4,78.0,-166.8,-1259.7,101.4,167.7,779.7,-1128.0,601.2,728.4,991.5,-6.9,-6.0,1183.2,2069.1,-0.6,158.1,256.5,-1382.4,0,312,0,12,0, 
0.1767,160.2,586.5,185.7,796.2,511.5,-38.4,79.5,-163.5,-1778.4,103.5,169.8,737.4,-1128.3,404.1,510.0,976.8,-6.9,-6.0,976.8,2512.5,-0.6,154.5,254.4,-1383.6,0,318,0,13,0, 
0.1800,85.5,581.7,185.4,790.8,114.0,-45.3,80.4,-161.4,-2371.2,110.1,171.3,-356.7,-1139.7,1.5,72.0,968.7,-6.9,-6.0,-528.9,-222.0,-0.9,158.4,255.6,-1382.4,0,324,0,14,0, 
0.1833,72.0,589.2,186.3,787.2,-51.3,-42.9,80.1,-158.1,-2445.3,104.7,167.1,-1183.2,-1146.0,-115.5,-207.9,975.0,-6.9,-6.0,-1270.8,-2419.2,-0.6,153.3,254.1,-1365.9,0,330,0,15,0, 
0.1867,108.0,587.4,179.4,786.6,192.9,-44.7,71.7,-159.6,-1704.3,83.4,159.3,-580.2,-1146.6,211.5,105.3,976.5,-7.5,-5.7,-338.7,-1016.4,-1.2,151.8,246.0,-1382.1,0,336,0,16,0, 
0.1900,183.3,571.8,174.6,785.4,572.4,-47.1,69.3,-162.3,-1407.9,101.1,160.5,702.3,-1128.3,552.0,557.7,983.4,-6.6,-5.7,1017.9,1907.1,-0.9,152.1,246.0,-1387.2,0,342,0,17,0, 
0.1933,165.0,585.6,184.8,791.4,430.8,-43.5,79.2,-149.1,-1630.2,104.4,170.1,664.2,-1132.5,328.5,474.3,980.7,-7.2,-6.3,801.0,2276.1,-0.9,165.9,245.1,-1380.6,0,348,0,18,0, 
0.1967,88.5,582.6,183.6,782.1,32.7,-38.1,82.8,-149.4,-2593.5,106.5,172.2,-438.9,-1142.4,-52.5,58.2,966.6,-7.5,-6.0,-750.3,-535.2,-1.2,163.2,253.2,-1380.9,0,354,0,19,0, 
0.2000,75.9,586.8,183.9,782.4,-20.7,-38.7,86.4,-142.5,-2519.4,104.1,167.7,-1301.4,-1130.4,-109.8,-110.1,977.1,-7.2,-6.0,-1445.7,-2559.6,-0.9,156.3,250.5,-1380.0,0,360,0,20,0, 
0.2033,129.6,579.6,172.5,777.0,284.4,-52.2,77.4,-139.2,-1926.6,95.1,155.1,-570.9,-1147.5,231.3,214.5,984.3,-7.2,-5.7,-344.7,-1097.1,-0.9,151.5,244.8,-1393.5,0,366,0,21,0, 
0.2067,169.5,580.8,174.3,780.3,534.9,-45.9,79.8,-131.1,-1333.8,93.0,154.8,522.9,-1149.9,475.2,597.6,998.1,-6.9,-6.3,957.0,1765.8,-0.6,147.0,249.9,-1393.8,0,372,0,22,0, 
0.2100,135.3,572.7,179.1,787.2,469.8,-37.5,86.7,-116.7,-1778.4,103.8,162.0,593.7,-1137.9,328.2,527.7,999.9,-6.9,-6.0,855.3,2178.3,-1.2,160.8,257.4,-1384.2,0,378,0,23,0, 
0.2133,64.2,575.7,179.7,786.6,45.9,-35.4,92.4,-79.5,-2519.4,98.7,161.1,-516.9,-1141.8,-104.7,79.8,983.7,-6.9,-6.0,-596.7,-460.5,-0.6,159.0,259.2,-1377.0,0,384,0,24,0, 
0.2167,54.0,573.0,178.2,792.6,-80.1,-39.9,89.7,-42.9,-2519.4,100.2,160.5,-1344.9,-1138.2,-186.6,-141.6,979.5,-6.9,-5.7,-1435.8,-2584.5,-0.6,154.5,249.6,-1381.5,0,390,0,25,0, 
0.2200,122.7,576.6,177.6,804.6,224.1,-26.7,91.8,-17.7,-1852.5,101.1,161.1,-593.1,-1119.0,175.8,159.0,1000.5,-7.2,-5.7,-423.0,-1171.8,-1.2,156.0,255.3,-1377.3,0,396,0,26,0, 
0.2233,175.8,585.3,182.4,802.8,443.4,-33.3,85.8,-9.6,-1333.8,93.9,158.4,552.9,-1133.1,464.4,544.2,981.6,-6.9,-5.7,976.2,1734.9,-0.6,150.6,243.9,-1392.3,0,402,0,27,0, 
0.2267,133.5,576.9,172.2,785.1,298.2,-42.0,89.1,1.2,-1704.3,87.0,140.7,762.9,-1150.2,285.6,500.1,982.8,-7.2,-5.7,893.7,2248.5,-1.2,138.6,237.6,-1398.9,0,408,0,28,0, 
0.2300,72.0,580.2,183.0,794.7,-13.5,-36.9,93.9,28.5,-2445.3,95.4,158.1,-381.3,-1155.9,-54.3,75.0,972.3,-6.6,-5.7,-606.9,-419.4,-0.6,149.7,249.3,-1390.8,0,414,0,29,0, 
0.2333,74.1,582.3,181.2,795.3,-95.1,-38.1,92.4,42.3,-2519.4,96.6,162.9,-1274.4,-1151.1,-86.1,-71.1,985.2,-6.9,-5.7,-1424.1,-2568.9,-0.6,146.4,253.8,-1392.9,0,420,0,30,0, 
0.2367,146.1,582.6,175.8,803.1,292.5,-38.4,85.2,48.9,-1778.4,96.0,162.3,-466.8,-1143.0,261.0,246.0,997.5,-6.9,-6.0,-315.6,-1141.5,-0.3,150.6,246.6,-1400.4,0,426,0,31,0, 
0.2400,186.3,602.1,180.0,805.5,588.9,-38.4,90.3,55.5,-1259.7,92.1,165.9,681.0,-1137.9,435.0,646.2,991.5,-6.9,-5.7,981.6,1670.7,-0.9,155.4,251.4,-1396.5,0,432,0,32,0, 
0.2433,163.5,571.2,171.9,800.1,431.4,-40.2,83.7,57.9,-1852.5,92.4,159.3,708.3,-1130.7,224.7,490.2,985.2,-6.6,-5.7,859.2,2056.5,-0.6,156.0,249.0,-1395.6,0,438,0,33,0, 
0.2467,101.4,580.5,184.2,804.9,-1.2,-33.3,92.4,75.0,-2593.5,106.2,180.0,-465.3,-1134.3,-87.3,36.3,982.5,-6.9,-5.7,-598.2,-471.0,-0.6,171.0,249.9,-1383.6,0,444,0,34,0, 
0.2500,68.4,575.1,183.6,800.1,-125.4,-35.7,87.6,83.4,-2519.4,101.1,176.7,-1256.4,-1139.1,-189.3,-114.3,978.0,-6.6,-5.4,-1386.0,-2520.0,-0.9,171.3,247.2,-1387.8,0,450,0,35,0, 
0.2533,153.9,590.4,181.8,799.5,224.7,-36.9,91.2,91.8,-1852.5,93.6,171.6,-486.0,-1138.2,184.5,331.5,990.0,-7.2,-5.7,-304.5,-1095.6,-0.9,166.8,257.7,-1386.9,0,456,0,36,0, 
0.2567,176.1,579.9,174.0,811.8,528.0,-36.0,89.7,95.7,-1407.9,103.5,170.1,663.6,-1141.2,421.5,691.8,993.6,-6.9,-5.4,1042.5,1835.4,-0.9,163.5,261.9,-1390.2,0,462,0,37,0, 
0.2600,176.1,591.0,190.2,812.4,371.4,-32.7,93.6,112.2,-1630.2,103.8,179.1,665.1,-1149.0,295.2,570.3,983.7,-6.9,-5.7,914.4,2209.5,-0.9,165.3,267.6,-1379.1,0,468,0,38,0, 
0.2633,100.5,587.4,190.2,806.1,45.6,-26.4,100.5,127.8,-2445.3,114.0,184.5,-459.6,-1140.0,-84.3,146.4,987.6,-7.2,-6.3,-624.0,-284.4,-0.9,176.1,267.6,-1374.0,0,474,0,39,0, 
0.2667,62.1,591.6,190.8,810.9,-60.3,-26.1,99.9,145.5,-2519.4,100.8,177.9,-1155.6,-1148.1,-90.6,-54.9,989.7,-6.9,-5.7,-1361.4,-2371.8,-0.6,172.5,266.4,-1367.1,0,480,0,40,0, 
0.2700,139.5,588.6,184.5,809.1,226.2,-23.7,94.8,166.5,-1778.4,103.5,173.1,-464.4,-1139.1,242.1,306.3,994.2,-7.5,-6.0,-363.9,-1080.0,-0.9,167.1,260.1,-1370.4,0,486,0,41,0, 
0.2733,194.1,592.8,185.1,807.9,528.0,-25.8,100.2,188.1,-1407.9,97.8,176.4,735.3,-1134.0,481.5,831.9,1000.5,-6.9,-5.7,1091.4,1920.9,-0.9,169.5,256.8,-1370.4,0,492,0,42,0, 
0.2767,162.9,585.3,178.5,798.3,396.9,-30.3,93.0,194.7,-1704.3,102.3,169.5,770.4,-1143.0,264.6,700.5,977.7,-6.9,-5.7,954.9,2323.5,-0.9,173.7,254.4,-1379.7,0,498,0,43,0, 
0.2800,74.7,586.2,184.2,802.5,-17.1,-29.4,98.4,199.5,-2519.4,99.9,171.0,-500.1,-1143.6,-207.3,215.1,965.1,-6.9,-5.7,-608.4,-291.9,-0.9,172.5,262.8,-1377.6,0,504,0,44,0, 
0.2833,97.8,580.2,180.3,795.9,-96.3,-27.6,97.2,205.5,-2445.3,101.1,171.3,-1152.3,-1136.4,-185.4,-5.7,981.3,-6.9,-5.7,-1288.5,-2342.1,-0.6,172.2,262.8,-1379.4,0,510,0,45,0, 
0.2867,138.3,575.4,177.9,800.4,204.9,-27.9,98.1,207.0,-1852.5,93.6,169.8,-469.5,-1133.1,128.7,390.9,978.3,-6.6,-6.3,-385.8,-1068.9,-0.9,164.7,260.1,-1380.3,0,516,0,46,0, 
0.2900,194.4,575.7,169.8,794.7,515.1,-31.5,92.7,209.1,-1333.8,85.2,159.6,600.6,-1130.7,357.3,747.6,987.9,-7.2,-6.0,984.9,1725.6,-0.9,161.7,259.8,-1385.7,0,522,0,47,0, 
0.2933,162.3,560.4,167.4,786.6,431.1,-35.7,98.1,212.4,-1778.4,90.0,154.5,648.6,-1141.2,202.8,687.9,977.7,-6.9,-6.3,837.3,2319.9,-0.6,162.3,259.2,-1380.6,0,528,0,48,0, 
0.2967,68.1,563.1,167.1,772.8,-19.2,-39.3,96.3,218.4,-2445.3,88.8,159.3,-573.3,-1160.4,-285.3,189.6,951.9,-7.2,-6.0,-700.8,-490.8,-0.6,154.5,264.3,-1382.7,0,534,0,49,0, 
0.3000,56.7,562.2,171.0,779.7,-156.6,-33.9,90.0,220.8,-2445.3,94.2,162.3,-1325.1,-1157.1,-230.7,-6.0,971.4,-6.6,-6.0,-1434.9,-2434.8,-0.6,159.9,255.3,-1389.9,0,540,0,50,0, 
0.3033,111.3,571.5,171.9,792.0,170.4,-32.1,90.0,223.8,-1778.4,89.4,159.3,-551.1,-1150.8,99.3,367.8,973.2,-6.9,-6.0,-291.9,-1048.8,-0.6,160.2,250.8,-1389.6,0,546,0,51,0, 
0.3067,166.5,568.5,162.9,782.7,406.5,-39.3,91.8,220.5,-1407.9,80.7,150.3,496.2,-1155.6,338.7,725.7,984.3,-6.9,-6.0,994.2,1772.7,-0.9,152.4,253.5,-1395.0,0,552,0,52,0, 
0.3100,144.6,579.6,172.5,785.4,297.3,-38.1,90.6,229.5,-1704.3,86.7,153.0,585.3,-1167.0,208.8,660.6,971.4,-7.2,-5.7,902.1,2338.5,-0.6,151.2,254.7,-1392.9,0,558,0,53,0, 
0.3133,83.4,566.7,178.8,781.2,-40.5,-26.1,104.7,235.8,-2519.4,94.5,164.4,-543.9,-1146.6,-137.1,135.6,974.7,-6.9,-5.7,-631.2,-252.6,-0.6,166.8,260.7,-1378.8,0,564,0,54,0, 
0.3167,65.7,571.8,175.8,789.6,-91.8,-34.5,95.1,238.5,-2371.2,92.7,163.5,-1260.0,-1155.0,-149.7,-40.8,972.0,-6.9,-5.7,-1364.7,-2292.0,-0.9,161.4,258.3,-1378.5,0,570,0,55,0, 
0.3200,140.1,564.0,174.9,790.8,182.7,-33.0,96.3,239.4,-1852.5,89.1,161.4,-545.4,-1143.6,153.3,259.2,980.7,-7.2,-5.7,-336.3,-1009.5,-1.5,162.9,253.8,-1380.3,0,576,0,56,0, 
0.3233,187.2,565.8,170.4,788.7,451.2,-40.2,95.4,234.6,-1333.8,79.2,153.9,633.6,-1154.1,327.9,653.1,985.8,-7.2,-6.3,994.8,1828.5,-0.9,156.9,246.6,-1386.3,0,582,0,57,0, 
0.3267,150.3,564.6,168.3,776.7,369.0,-41.7,90.9,234.3,-1778.4,86.4,151.8,676.8,-1165.5,158.7,559.5,975.0,-6.9,-5.7,901.8,2227.8,-0.9,161.4,252.0,-1386.6,0,588,0,58,0, 
0.3300,88.5,574.5,173.7,774.6,51.0,-39.9,92.4,236.7,-2445.3,82.8,155.7,-409.8,-1166.1,-233.4,121.5,960.3,-7.2,-6.0,-499.8,-414.9,-0.9,162.0,255.6,-1387.5,0,594,0,59,0, 
0.3333,73.5,569.7,174.9,780.3,-101.1,-37.8,99.9,240.0,-2519.4,94.2,161.1,-1173.3,-1147.5,-307.2,-108.6,962.1,-6.9,-5.4,-1250.1,-2478.6,-0.9,162.0,264.0,-1384.2,0,600,0,60,0, 
0.3367,134.4,578.7,178.2,782.4,223.5,-33.0,97.8,239.7,-1852.5,99.3,164.4,-451.5,-1149.3,77.1,261.6,989.7,-6.9,-6.0,-242.1,-1077.0,-0.6,156.0,257.4,-1379.1,0,606,0,61,0, 
0.3400,187.2,581.7,179.7,777.9,618.9,-40.8,93.3,240.6,-1482.0,86.4,162.9,757.5,-1143.6,417.3,725.7,993.0,-7.2,-6.0,1203.9,1856.1,-0.9,156.3,262.5,-1392.3,0,612,0,62,0, 
0.3433,163.2,581.1,185.4,781.5,455.7,-37.5,94.8,246.6,-1704.3,98.1,166.5,822.3,-1142.4,302.7,611.1,986.1,-7.2,-6.0,1063.8,2264.1,-0.6,165.0,263.4,-1393.2,0,618,0,63,0, 
0.3467,64.2,580.5,184.5,785.1,-33.9,-36.6,95.4,246.3,-2445.3,95.1,171.9,-430.5,-1143.0,-101.7,67.2,967.2,-6.6,-5.7,-459.0,-556.2,-1.2,161.7,266.4,-1388.7,0,624,0,64,0, 
0.3500,59.4,583.8,185.4,790.8,-116.1,-44.4,96.3,249.0,-2371.2,90.3,170.4,-1141.2,-1153.5,-131.7,-138.9,969.0,-6.9,-6.0,-1131.9,-2597.7,-0.6,163.5,261.3,-1385.4,0,630,0,65,0, 
0.3533,133.5,586.5,183.0,793.8,207.3,-37.8,98.4,251.4,-1926.6,86.1,166.5,-417.9,-1133.7,303.3,220.5,995.4,-6.9,-5.4,-114.6,-1196.4,-0.9,162.0,266.7,-1384.2,0,636,0,66,0, 
0.3567,159.0,577.8,176.7,788.7,392.4,-31.5,95.4,246.3,-1259.7,89.1,164.4,541.5,-1144.5,432.9,606.3,985.5,-6.9,-5.7,1101.9,1447.8,-1.2,163.2,262.8,-1386.0,0,642,0,67,0, 
0.3600,77.4,573.0,179.7,777.0,-43.5,-41.1,95.4,247.8,-1778.4,89.4,163.2,14.7,-1154.1,-93.0,159.0,961.5,-6.6,-6.3,516.0,1344.0,-0.6,160.2,257.4,-1389.0,0,648,0,68,0, 
0.3633,50.4,572.7,171.3,774.0,-342.6,-46.8,94.8,243.9,-2519.4,89.4,162.0,-1051.2,-1149.9,-382.5,-244.5,951.9,-6.9,-6.0,-800.1,-1101.0,-0.6,164.7,256.8,-1389.3,0,654,0,69,0, 
0.3667,31.8,575.4,178.8,777.6,-349.8,-38.4,95.7,250.2,-2519.4,92.4,166.2,-1674.6,-1157.1,-418.5,-344.7,966.9,-7.5,-6.3,-1481.4,-2951.4,-0.6,161.7,261.0,-1383.0,0,660,0,70,0, 
0.3700,127.5,573.0,171.6,780.9,13.5,-39.6,90.0,241.2,-1778.4,89.1,155.7,-816.0,-1151.1,-6.6,95.7,972.0,-7.2,-6.0,-361.2,-1439.7,-0.6,158.1,256.5,-1391.4,0,666,0,71,0, 
0.3733,161.1,580.5,170.7,785.1,335.1,-36.9,92.7,245.4,-1407.9,88.2,162.0,346.2,-1153.8,254.4,506.7,969.6,-7.2,-5.7,1012.5,1449.0,-0.6,154.5,258.0,-1387.5,0,672,0,72,0, 
0.3767,131.4,576.3,172.2,787.5,191.7,-40.8,94.5,245.7,-1778.4,88.2,158.4,453.3,-1160.1,46.2,439.5,953.4,-6.6,-5.4,849.0,1993.8,-1.2,154.5,253.2,-1389.9,0,678,0,73,0, 
0.3800,48.3,586.5,179.1,784.8,-154.2,-40.8,99.0,250.8,-2519.4,98.7,167.1,-651.3,-1166.1,-277.2,30.3,967.8,-6.9,-6.0,-595.2,-621.9,-0.9,162.9,258.3,-1385.4,0,684,0,74,0, 
0.3833,48.9,578.7,174.6,782.1,-153.9,-42.3,94.2,249.6,-2519.4,95.7,161.1,-1184.4,-1144.8,-216.3,-91.2,964.8,-6.9,-5.7,-1221.9,-2536.8,-0.9,158.1,250.8,-1391.7,0,690,0,75,0, 
0.3867,112.5,592.5,177.0,789.3,161.1,-37.8,96.0,254.7,-1704.3,87.3,165.3,-549.0,-1134.0,151.2,290.1,976.2,-6.9,-5.7,-236.7,-1191.0,-0.6,152.4,251.1,-1392.0,0,696,0,76,0, 
0.3900,158.1,587.7,173.4,793.5,464.1,-37.2,91.8,252.6,-1407.9,85.5,162.6,682.8,-1137.6,340.5,750.6,969.6,-6.6,-5.7,1161.3,1752.6,-0.3,153.9,249.6,-1389.9,0,702,0,77,0, 
0.3933,130.5,589.2,183.0,788.7,356.7,-37.2,91.8,260.1,-1704.3,90.3,167.4,633.6,-1133.4,165.9,663.3,966.6,-6.6,-6.0,969.9,2238.6,-0.9,159.3,249.3,-1382.4,0,708,0,78,0, 
0.3967,38.1,585.6,178.5,778.8,-54.9,-43.8,89.4,257.4,-2519.4,86.4,166.8,-493.8,-1149.0,-255.0,192.0,950.7,-6.6,-5.7,-465.9,-375.0,-0.9,155.4,245.1,-1385.7,0,714,0,79,0, 
0.4000,39.0,578.4,179.7,776.1,-203.4,-43.5,88.2,258.0,-2445.3,92.1,168.9,-1295.7,-1145.7,-282.3,19.8,955.8,-6.6,-5.7,-1244.7,-2564.1,-0.9,154.8,243.0,-1388.4,0,720,0,80,0, 
0.4033,89.1,573.0,175.5,783.6,199.8,-45.6,90.0,253.8,-1926.6,78.6,161.4,-474.0,-1152.3,97.8,423.3,973.5,-6.9,-5.1,-63.9,-1050.9,-1.2,146.4,241.5,-1393.2,0,726,0,81,0, 
0.4067,141.9,572.1,171.6,777.3,438.6,-46.5,93.0,252.6,-1259.7,77.7,159.0,800.4,-1160.7,409.5,873.3,981.9,-6.3,-6.0,1270.5,1793.7,-0.6,153.0,242.4,-1393.5,0,732,0,82,0, 
0.4100,122.7,575.4,172.2,770.1,337.2,-49.8,88.2,249.9,-1704.3,78.6,154.5,813.3,-1170.0,166.8,783.6,964.5,-6.6,-5.7,1146.9,2224.5,-0.3,146.7,240.0,-1400.4,0,738,0,83,0, 
0.4133,53.7,570.3,180.6,780.3,-46.2,-37.2,93.9,254.7,-2519.4,89.7,167.4,-304.5,-1156.2,-274.2,280.8,973.2,-6.9,-6.0,-393.9,-507.9,-0.6,158.4,252.3,-1385.7,0,744,0,84,0, 
0.4167,47.7,567.9,180.6,772.5,-175.8,-38.1,94.5,260.4,-2445.3,82.5,162.0,-1055.1,-1152.0,-288.0,32.7,963.3,-6.9,-6.0,-1109.4,-2618.1,-0.6,159.9,249.0,-1389.3,0,750,0,85,0, 
0.4200,118.8,575.1,181.5,781.5,162.6,-30.9,95.7,258.3,-1778.4,85.2,164.4,-417.0,-1153.2,52.2,362.1,981.6,-7.2,-5.7,-57.0,-1218.3,-0.6,159.9,250.2,-1389.3,0,756,0,86,0, 
0.4233,156.0,581.1,187.8,792.9,519.9,-30.6,102.0,259.5,-1259.7,86.7,171.9,820.2,-1148.1,386.4,803.1,987.9,-7.2,-5.7,1351.5,1721.4,-0.9,158.4,255.3,-1383.3,0,762,0,87,0, 
0.4267,129.0,580.2,186.6,783.0,378.0,-34.5,92.1,257.4,-1704.3,85.5,174.0,672.0,-1143.9,180.6,693.0,982.2,-6.9,-6.3,1089.3,2065.5,-0.9,166.8,243.6,-1379.7,0,768,0,88,0, 
0.4300,67.2,580.2,188.7,785.7,53.7,-35.1,96.0,259.2,-2445.3,95.1,178.2,-370.8,-1157.1,-127.2,306.0,962.1,-6.9,-5.7,-356.4,-536.4,-0.6,162.9,252.3,-1386.9,0,774,0,89,0, 
0.4333,50.7,578.1,186.6,786.0,-99.3,-35.1,93.6,257.4,-2519.4,95.1,173.4,-1162.2,-1152.6,-192.6,41.1,969.6,-6.9,-5.7,-1123.8,-2608.5,-0.9,162.9,251.1,-1385.7,0,780,0,90,0, 
0.4367,118.2,588.3,181.5,784.5,183.9,-31.5,91.2,254.7,-1852.5,82.5,165.3,-397.8,-1155.6,149.7,399.0,956.1,-6.9,-6.0,-17.7,-1056.6,-0.6,157.2,257.4,-1392.3,0,786,0,91,0, 
0.4400,156.6,576.0,176.1,780.9,453.0,-41.4,85.5,251.4,-1333.8,82.5,159.6,695.4,-1146.3,405.6,799.2,979.2,-6.9,-6.0,1275.9,1846.5,-0.9,149.7,241.5,-1397.4,0,792,0,92,0, 
0.4433,129.9,573.6,176.7,780.0,324.0,-32.7,85.8,247.2,-1704.3,84.9,162.3,759.0,-1145.1,232.2,691.2,964.5,-6.9,-6.0,1053.0,2289.9,-0.9,153.3,251.1,-1396.5,0,798,0,93,0, 
0.4467,74.7,578.7,186.6,784.2,-31.8,-35.1,95.7,255.3,-2519.4,92.7,174.3,-454.2,-1152.3,-113.7,213.3,967.5,-7.2,-6.0,-459.0,-356.7,-0.6,164.7,255.6,-1386.9,0,804,0,94,0, 
0.4500,24.3,578.1,185.1,789.9,-183.0,-34.5,95.4,256.8,-2445.3,93.0,175.5,-1318.2,-1158.0,-289.2,-74.7,970.2,-6.9,-5.7,-1224.0,-2468.1,-0.9,163.8,253.2,-1388.1,0,810,0,95,0, 
0.4533,127.2,580.8,183.0,796.8,178.5,-30.6,99.3,258.3,-1704.3,97.8,174.9,-534.6,-1144.8,89.4,349.2,987.3,-6.9,-5.7,-223.2,-981.0,-1.5,173.4,260.4,-1388.1,0,816,0,96,0, 
0.4567,175.8,585.3,184.8,786.6,449.1,-33.3,93.6,255.6,-1259.7,93.3,177.3,690.9,-1143.9,375.3,755.7,994.2,-6.9,-5.7,1124.1,1839.9,-0.9,160.8,255.9,-1387.5,0,822,0,97,0, 
0.4600,124.8,588.6,186.9,777.6,374.1,-36.0,103.2,257.1,-1778.4,103.8,180.3,691.5,-1146.6,206.7,687.3,984.0,-7.2,-5.4,945.0,2322.9,-0.3,171.9,263.1,-1381.5,0,828,0,98,0, 
0.4633,74.7,575.7,186.0,777.6,22.2,-37.2,102.3,257.1,-2519.4,98.4,181.8,-476.1,-1142.4,-139.8,182.4,969.0,-6.9,-5.7,-539.7,-416.7,-0.9,172.5,258.0,-1382.1,0,834,0,99,0, 
0.4667,68.7,585.0,184.5,776.7,-59.7,-41.4,102.6,254.1,-2519.4,99.9,171.6,-1146.0,-1153.5,-198.0,46.8,982.2,-6.9,-6.0,-1317.6,-2416.8,-0.9,171.6,255.9,-1381.8,0,840,0,100,0, 
0.4700,141.6,577.5,180.9,782.4,148.8,-37.5,98.1,253.8,-1852.5,87.3,173.1,-432.0,-1136.7,170.1,324.6,1004.1,-6.9,-6.0,-277.8,-1113.6,-1.2,165.9,258.3,-1383.6,0,846,0,101,0, 
0.4733,177.3,582.3,177.9,776.1,472.2,-30.6,102.0,256.2,-1407.9,99.0,166.8,728.7,-1140.6,430.5,742.2,1009.8,-7.2,-6.0,1094.4,1824.0,-0.9,174.3,255.6,-1384.8,0,852,0,102,0, 
0.4767,144.6,582.0,183.0,779.1,348.3,-33.9,99.9,256.8,-1704.3,94.8,171.0,789.9,-1146.6,285.0,690.9,990.6,-6.6,-6.0,939.9,2204.1,-1.2,165.9,256.2,-1385.7,0,858,0,103,0, 
0.4800,51.3,585.6,182.4,774.3,-6.0,-37.8,99.9,259.2,-2445.3,96.0,176.7,-344.1,-1146.3,-109.5,186.3,970.8,-6.9,-6.0,-540.0,-511.2,-0.9,172.8,256.2,-1380.9,0,864,0,104,0, 
0.4833,51.3,581.7,181.2,787.2,-95.1,-38.7,93.9,255.3,-2371.2,87.9,175.5,-1150.8,-1146.3,-191.7,-17.1,969.0,-6.9,-6.0,-1278.3,-2555.7,-0.9,165.6,254.4,-1386.9,0,870,0,105,0, 
0.4867,126.9,576.6,172.2,782.4,219.9,-43.5,86.7,249.9,-1778.4,88.8,165.0,-405.9,-1146.3,124.5,243.3,984.9,-6.6,-6.0,-154.5,-1185.3,-0.9,153.6,247.2,-1394.1,0,876,0,106,0, 
0.4900,160.8,585.0,174.0,784.2,499.8,-38.4,90.3,251.7,-1407.9,86.1,168.9,749.4,-1144.5,390.6,666.0,980.7,-6.9,-5.7,1154.1,1728.0,-0.9,153.0,255.9,-1387.5,0,882,0,107,0, 
0.4933,147.6,573.6,173.4,784.8,349.5,-40.8,93.9,252.6,-1704.3,93.9,171.3,783.3,-1148.7,193.5,459.6,970.5,-7.2,-6.3,950.1,2014.2,-0.6,162.6,251.1,-1380.3,0,888,0,108,0, 
0.4967,82.2,579.9,177.0,772.8,-14.1,-42.3,94.5,255.6,-2445.3,89.4,168.3,-394.8,-1163.7,-170.7,89.7,963.9,-6.6,-6.3,-528.9,-582.6,-0.9,157.5,253.5,-1379.1,0,894,0,109,0, 
0.5000,84.9,574.8,179.1,784.2,-137.4,-37.8,94.8,259.5,-2519.4,90.0,176.7,-1173.0,-1155.9,-177.9,-135.9,975.9,-6.9,-6.0,-1179.6,-2610.9,-0.9,159.9,252.9,-1377.9,0,900,0,110,0, 
0.5033,150.0,583.8,182.1,792.0,203.4,-26.7,101.1,260.7,-1852.5,91.2,174.9,-385.8,-1137.0,173.1,207.0,986.7,-6.9,-6.0,-181.5,-1075.8,-1.2,166.8,259.2,-1378.5,0,906,0,111,0, 
0.5067,182.4,577.8,172.8,787.2,442.8,-29.4,98.4,252.3,-1407.9,91.8,171.9,781.2,-1131.3,378.3,632.7,983.1,-6.9,-6.0,1174.8,1857.9,-1.2,160.5,249.3,-1384.8,0,912,0,112,0, 
0.5100,165.6,579.3,179.1,783.6,352.8,-28.2,107.7,258.6,-1704.3,91.5,177.0,718.8,-1137.6,185.1,605.7,967.2,-7.2,-6.0,1007.7,2199.6,-0.9,166.8,261.9,-1377.6,0,918,0,113,0, 
0.5133,76.5,580.5,184.2,778.8,-48.0,-34.5,99.6,253.8,-2519.4,96.9,179.1,-453.6,-1142.7,-173.1,152.1,966.9,-7.5,-5.7,-528.9,-530.7,-1.2,165.9,252.0,-1377.9,0,924,0,114,0, 
0.5167,61.8,575.4,177.3,775.5,-158.7,-41.7,95.4,251.4,-2519.4,88.8,176.4,-1175.7,-1146.0,-172.8,-74.1,967.2,-6.9,-6.0,-1264.8,-2477.7,-1.2,157.5,252.9,-1383.3,0,930,0,115,0, 
0.5200,103.2,591.0,178.2,777.6,160.5,-46.8,94.2,252.6,-1926.6,88.5,170.4,-388.2,-1140.0,266.1,351.6,988.5,-6.6,-6.0,-157.5,-960.9,-0.9,150.6,247.5,-1396.5,0,936,0,116,0, 
0.5233,171.6,574.8,171.0,775.2,433.5,-42.0,96.6,250.8,-1259.7,91.8,171.6,724.8,-1130.1,505.5,728.7,978.9,-6.9,-5.7,1239.9,1903.5,-0.9,157.8,248.4,-1388.4,0,942,0,117,0, 
0.5267,120.0,576.3,164.1,772.5,327.9,-48.6,93.9,246.6,-1778.4,81.0,164.4,740.1,-1156.5,303.3,654.3,959.1,-6.9,-6.0,1046.7,2269.8,-0.6,152.7,245.7,-1389.0,0,948,0,118,0, 
0.5300,54.9,570.9,169.8,771.0,8.1,-46.5,90.6,247.2,-2445.3,83.1,169.8,-431.7,-1141.2,-179.7,138.3,949.8,-7.2,-6.0,-449.7,-459.0,-0.9,157.5,252.6,-1393.8,0,954,0,119,0, 
0.5333,45.0,573.9,171.3,771.6,-102.9,-42.6,94.8,252.0,-2445.3,90.3,166.5,-1283.7,-1143.9,-236.4,-79.5,965.4,-6.9,-5.7,-1219.8,-2514.6,-0.6,156.9,252.3,-1389.3,0,960,0,120,0, 
0.5367,95.1,579.6,166.5,766.5,197.7,-42.0,88.5,252.3,-1778.4,81.3,163.2,-432.0,-1144.2,159.3,306.0,971.4,-6.9,-6.0,-78.0,-1071.9,-0.9,143.7,250.8,-1399.8,0,966,0,121,0, 
0.5400,160.2,582.6,167.7,767.7,451.5,-46.2,85.2,245.1,-1333.8,80.4,160.5,812.4,-1136.7,459.9,785.7,973.2,-6.6,-6.0,1351.5,1845.9,-0.6,141.9,241.5,-1400.4,0,972,0,122,0, 
0.5433,137.4,584.4,169.8,773.1,348.3,-35.7,90.6,249.0,-1778.4,78.3,167.4,839.4,-1144.8,265.8,712.5,971.4,-6.9,-6.0,1155.6,2255.4,-0.9,147.6,240.6,-1389.0,0,978,0,123,0, 
0.5467,75.0,577.8,167.4,768.0,34.2,-33.0,89.4,250.5,-2519.4,94.8,165.9,-370.2,-1146.3,-124.5,217.2,951.3,-6.9,-6.0,-470.4,-408.9,-0.3,153.9,248.4,-1382.1,0,984,0,124,0, 
0.5500,45.0,588.9,174.9,774.9,-85.5,-38.4,93.6,252.3,-2371.2,85.8,174.0,-1162.5,-1156.2,-172.8,-4.2,965.4,-6.6,-5.7,-1197.9,-2526.3,-1.2,159.6,253.8,-1381.2,0,990,0,125,0, 
0.5533,107.4,589.8,172.5,780.6,211.8,-34.5,96.0,253.2,-1778.4,90.3,172.8,-469.5,-1133.4,121.2,390.9,978.9,-6.9,-6.0,-131.1,-1060.8,-0.6,164.1,261.0,-1377.9,0,996,0,126,0, 
0.5567,163.8,591.6,172.8,784.5,507.6,-33.9,92.1,249.9,-1407.9,86.7,172.5,714.0,-1131.9,473.1,836.1,980.4,-6.6,-5.7,1248.9,1875.3,-0.9,157.5,258.0,-1382.1,0,1002,0,127,0, 
0.5600,135.9,590.7,172.8,778.2,355.8,-36.9,93.6,249.3,-1704.3,84.6,171.3,778.2,-1146.6,209.1,715.5,975.6,-7.2,-6.0,1038.0,2292.3,-0.6,162.9,251.4,-1382.1,0,1008,0,128,0, 
0.5633,63.0,593.1,171.3,765.3,-23.1,-41.7,84.6,243.3,-2519.4,79.2,164.4,-407.1,-1158.3,-113.1,305.4,965.7,-6.9,-6.0,-459.6,-322.8,-1.2,151.5,243.6,-1392.9,0,1014,0,129,0, 
0.5667,60.6,578.7,166.2,770.4,-167.1,-46.5,87.6,244.2,-2445.3,91.5,167.4,-1108.8,-1135.2,-203.1,58.2,974.7,-7.2,-5.4,-1184.4,-2495.1,-0.9,149.4,245.1,-1395.6,0,1020,0,130,0, 
0.5700,113.7,585.3,163.2,770.4,143.7,-44.4,89.4,247.5,-1778.4,85.2,162.6,-361.8,-1145.7,207.0,478.2,965.4,-7.2,-5.4,-137.4,-982.5,-0.9,150.3,245.1,-1397.7,0,1026,0,131,0, 
0.5733,180.0,586.5,162.9,771.3,500.7,-43.2,92.7,243.6,-1333.8,84.6,162.3,865.2,-1145.1,470.7,866.7,977.7,-7.2,-6.0,1227.6,1920.9,-1.2,146.7,245.7,-1395.0,0,1032,0,132,0, 
0.5767,125.1,584.1,163.8,769.8,373.8,-46.2,92.4,243.6,-1852.5,78.3,164.7,720.6,-1148.7,262.5,732.9,963.9,-6.6,-6.0,1041.6,2151.6,-1.2,154.2,246.6,-1396.2,0,1038,0,133,0, 
0.5800,65.4,584.7,172.2,771.6,-16.5,-48.0,97.8,251.4,-2519.4,86.4,170.1,-424.2,-1154.4,-112.5,226.5,970.5,-6.9,-6.0,-516.9,-575.7,-1.2,157.5,254.1,-1392.6,0,1044,0,134,0, 
0.5833,63.0,594.0,173.4,783.6,-46.5,-44.4,98.4,252.0,-2445.3,84.9,172.8,-1150.8,-1146.3,-88.5,104.7,959.7,-7.2,-5.7,-1149.9,-2555.1,-0.9,150.9,255.9,-1387.2,0,1050,0,135,0, 
0.5867,147.0,598.8,170.7,778.2,287.1,-45.6,89.7,245.1,-1778.4,80.4,165.6,-390.3,-1140.3,213.9,459.3,973.8,-6.6,-5.7,-166.2,-1101.3,-0.6,141.3,244.2,-1404.3,0,1056,0,136,0, 
0.5900,164.4,576.9,159.0,783.9,528.9,-42.3,92.4,238.2,-1333.8,86.1,164.4,792.6,-1139.1,504.0,883.2,981.9,-6.9,-6.0,1279.5,1892.4,-0.6,153.3,248.4,-1389.6,0,1062,0,137,0, 
0.5933,131.4,587.4,169.5,777.9,374.1,-33.6,95.4,246.6,-1926.6,90.3,170.7,699.9,-1142.4,247.8,722.4,963.3,-6.9,-6.3,1027.2,2237.7,-0.9,162.0,249.3,-1387.5,0,1068,0,138,0, 
0.5967,48.0,582.3,172.8,781.5,-23.7,-34.8,93.9,241.8,-2519.4,90.9,173.4,-509.1,-1157.1,-219.9,282.9,952.5,-7.2,-6.3,-487.2,-480.9,-1.2,164.4,260.4,-1383.6,0,1074,0,139,0, 
0.6000,52.8,589.2,175.8,779.1,-57.9,-22.8,100.2,242.7,-2519.4,94.5,175.5,-1260.3,-1142.1,-223.5,112.8,954.3,-6.6,-5.4,-1227.3,-2555.7,-0.6,168.0,266.4,-1370.7,0,1080,0,140,0, 
0.6033,126.6,585.9,166.8,775.5,300.0,-34.8,93.6,202.2,-1852.5,92.7,174.9,-459.3,-1136.4,58.8,410.4,975.3,-6.9,-5.7,-171.9,-1042.8,-0.6,166.5,247.5,-1381.8,0,1086,0,141,0, 
0.6067,183.6,592.8,171.9,777.6,528.9,-26.7,96.9,186.3,-1333.8,91.8,172.8,705.6,-1132.2,372.0,853.8,978.9,-7.2,-5.7,1177.5,1761.3,-0.6,163.2,257.7,-1388.7,0,1092,0,142,0, 
0.6100,130.5,591.9,166.5,768.0,406.2,-40.2,93.0,168.9,-1630.2,92.1,170.4,755.4,-1137.3,192.3,668.4,974.1,-6.9,-6.0,943.5,2190.6,-0.3,157.8,248.1,-1392.3,0,1098,0,143,0, 
0.6133,50.4,592.2,169.2,767.4,21.9,-39.3,88.8,158.7,-2445.3,91.2,174.0,-504.0,-1137.9,-253.5,187.2,959.7,-7.2,-6.0,-562.8,-625.2,-0.9,161.7,255.9,-1390.8,0,1104,0,144,0, 
0.6167,48.6,594.6,163.8,763.5,-8.7,-40.8,87.0,147.9,-2519.4,91.8,168.3,-1286.4,-1155.9,-267.3,-18.9,965.1,-6.9,-6.0,-1267.2,-2610.0,-0.9,158.4,250.5,-1390.5,0,1110,0,145,0, 
0.6200,105.3,589.8,161.1,764.4,233.4,-42.9,79.2,137.4,-1852.5,86.7,164.7,-500.4,-1143.6,115.2,357.0,981.9,-7.2,-6.3,-138.9,-1076.1,-1.5,151.5,247.2,-1398.9,0,1116,0,146,0, 
0.6233,180.9,588.0,161.7,772.5,532.2,-38.1,86.4,133.8,-1333.8,91.2,171.0,688.8,-1123.5,451.2,797.1,982.2,-7.2,-6.3,1308.3,1889.1,-0.6,156.6,251.4,-1394.7,0,1122,0,147,0, 
0.6267,119.4,588.9,162.0,778.8,383.7,-36.3,85.8,129.3,-1778.4,88.2,167.7,636.6,-1137.3,270.0,679.5,968.1,-6.9,-5.4,1016.1,2232.3,-1.2,157.8,252.0,-1385.4,0,1128,0,148,0, 
0.6300,52.8,587.1,170.7,778.8,26.4,-29.7,90.6,117.6,-2445.3,87.3,174.3,-633.3,-1154.1,-195.9,126.6,968.4,-6.9,-6.0,-632.4,-503.4,-0.3,171.3,253.2,-1387.5,0,1134,0,149,0, 
0.6333,57.0,584.1,163.2,771.9,-86.1,-33.6,90.9,84.9,-2371.2,86.1,169.5,-1469.7,-1148.1,-280.8,-15.6,976.5,-6.9,-5.7,-1272.6,-2520.9,-0.9,167.1,253.5,-1383.0,0,1140,0,150,0, 
0.6367,120.9,591.3,163.5,783.0,282.0,-30.9,87.6,75.3,-1778.4,78.0,168.3,-723.3,-1155.0,91.2,267.3,974.1,-6.6,-6.6,-150.0,-979.8,-0.6,160.5,250.8,-1384.2,0,1146,0,151,0, 
0.6400,166.2,590.7,161.4,784.2,527.4,-38.1,86.4,55.8,-1333.8,84.3,165.6,551.7,-1144.5,345.6,634.8,969.9,-6.9,-5.7,1218.0,1932.6,-0.9,159.3,254.7,-1389.0,0,1152,0,152,0, 
0.6433,135.6,599.7,172.2,787.2,410.4,-29.1,96.6,54.3,-1704.3,84.6,171.6,573.0,-1147.8,182.7,597.9,968.4,-6.9,-6.3,969.3,2334.0,-0.9,161.1,255.6,-1382.7,0,1158,0,153,0, 
0.6467,75.9,581.1,165.6,787.2,34.5,-27.6,91.2,46.5,-2445.3,92.4,174.3,-557.4,-1137.9,-164.7,176.7,964.5,-7.2,-6.0,-549.3,-310.2,-0.9,158.1,258.3,-1372.8,0,1164,0,154,0, 
0.6500,80.4,589.5,172.2,779.1,-19.5,-29.4,91.8,40.2,-2667.6,89.4,172.2,-1356.3,-1142.7,-189.6,-36.0,972.9,-6.9,-5.7,-1273.8,-2452.2,-0.9,156.3,257.1,-1384.5,0,1170,0,155,0, 
0.6533,130.8,591.3,164.4,778.5,387.3,-30.6,86.1,29.7,-1926.6,82.2,168.6,-508.8,-1136.4,233.4,329.4,986.1,-6.9,-5.4,-90.3,-880.5,-0.9,151.2,253.5,-1390.5,0,1176,0,156,0, 
0.6567,185.1,587.7,168.6,780.0,573.3,-35.7,87.9,24.9,-1482.0,86.1,166.8,591.3,-1139.7,429.6,659.4,988.2,-6.6,-6.0,1097.7,1862.4,-0.9,150.3,249.9,-1390.8,0,1182,0,157,0, 
0.6600,201.6,592.5,165.6,784.2,737.7,-36.0,93.0,25.5,-1630.2,85.8,166.2,1134.3,-1133.1,534.0,880.5,983.4,-6.6,-5.7,1330.2,2697.9,-0.3,158.4,253.8,-1385.1,0,1188,0,158,0, 
0.6633,149.1,597.3,177.9,789.3,666.9,-29.7,96.9,24.6,-2593.5,91.8,180.3,407.4,-1136.7,484.2,723.6,976.2,-6.6,-6.0,276.0,688.5,-1.2,164.4,267.0,-1379.1,0,1194,0,159,0, 
0.6667,99.0,599.7,171.3,788.1,394.2,-29.7,94.8,21.0,-2519.4,89.1,174.9,-632.7,-1143.6,188.4,288.0,967.2,-6.9,-6.3,-740.1,-1723.2,-0.9,172.8,263.7,-1382.7,0,1200,0,160,0, 
0.6700,156.3,587.7,174.0,791.1,704.1,-30.0,90.3,15.0,-1778.4,97.5,178.8,90.0,-1115.1,573.9,668.7,975.0,-6.3,-5.7,417.0,-288.0,-0.9,164.4,261.6,-1391.7,0,1206,0,161,0, 
0.6733,183.3,590.7,167.1,787.8,849.0,-32.1,83.1,4.2,-1333.8,86.4,168.6,1100.7,-1134.0,726.0,968.4,969.3,-6.6,-6.0,1618.5,2410.5,-0.6,153.3,245.4,-1396.8,0,1212,0,162,0, 
0.6767,151.5,584.7,171.0,783.6,657.0,-33.3,87.9,6.0,-1778.4,90.6,174.6,1024.2,-1126.2,490.5,922.2,965.7,-7.2,-5.7,1371.3,2666.1,-0.9,157.5,252.9,-1383.3,0,1218,0,163,0, 
0.6800,94.2,586.5,171.6,774.0,240.6,-32.1,94.2,9.0,-2519.4,95.4,174.0,-273.3,-1138.2,25.5,316.5,954.0,-6.9,-6.3,-231.9,-125.1,-1.2,161.7,252.9,-1382.7,0,1224,0,164,0, 
0.6833,94.5,604.2,181.2,790.5,157.8,-35.4,92.4,9.6,-2519.4,100.2,173.4,-943.2,-1137.3,-24.9,132.3,960.6,-6.6,-6.0,-906.0,-2151.0,-0.6,163.2,255.3,-1383.9,0,1230,0,165,0, 
0.6867,145.8,590.4,174.0,786.9,412.2,-34.8,92.1,2.7,-1852.5,98.1,177.6,-263.7,-1131.9,320.7,445.8,974.1,-6.9,-6.0,115.2,-646.2,-1.2,164.1,248.7,-1384.5,0,1236,0,166,0, 
0.6900,179.1,585.0,164.7,788.1,721.8,-43.2,86.4,-8.1,-1333.8,90.0,166.5,850.5,-1137.3,594.6,847.8,978.9,-6.6,-5.7,1467.6,2172.6,-0.6,156.3,252.3,-1392.6,0,1242,0,167,0, 
0.6933,139.5,579.6,163.2,780.6,527.7,-42.6,88.5,-11.7,-1852.5,88.5,165.6,796.8,-1141.5,339.3,641.1,949.2,-6.9,-6.0,1189.5,2358.9,-1.2,153.9,248.7,-1383.0,0,1248,0,168,0, 
0.6967,74.4,583.2,167.7,762.9,134.4,-43.5,82.8,-12.6,-2519.4,87.9,164.1,-398.1,-1144.5,-54.3,144.6,951.6,-7.2,-5.7,-402.9,-341.7,-0.9,147.3,249.0,-1392.6,0,1254,0,169,0, 
0.7000,72.0,584.7,167.7,771.9,44.1,-36.0,87.9,-6.6,-2519.4,86.4,168.9,-1124.1,-1144.5,-104.4,-13.2,959.1,-6.9,-6.0,-1182.0,-2362.5,-0.6,149.4,249.9,-1386.9,0,1260,0,170,0, 
0.7033,117.6,583.5,166.2,785.7,274.5,-34.2,88.5,-13.5,-1926.6,87.3,159.9,-409.5,-1140.0,190.2,317.4,954.0,-6.9,-6.0,-99.9,-909.3,-1.2,144.3,257.4,-1394.1,0,1266,0,171,0, 
0.7067,178.8,585.6,162.3,786.6,558.6,-30.3,90.0,-12.9,-1407.9,81.9,171.3,824.1,-1135.8,520.8,732.9,972.3,-6.9,-5.7,1257.0,2011.5,-0.6,157.2,255.0,-1383.9,0,1272,0,172,0, 
0.7100,162.3,590.7,170.7,791.7,504.3,-33.6,88.8,-18.0,-1852.5,85.2,170.1,781.2,-1141.2,395.4,649.5,969.9,-6.9,-6.0,1096.8,2446.8,-0.9,153.9,241.5,-1384.5,0,1278,0,173,0, 
0.7133,66.3,591.3,169.8,789.6,74.1,-36.3,90.0,-23.1,-2445.3,87.3,171.0,-504.9,-1149.9,-109.8,42.9,950.1,-7.2,-5.7,-547.5,-389.4,-0.9,160.8,247.5,-1379.7,0,1284,0,174,0, 
0.7167,62.4,591.6,178.8,803.1,0.6,-34.8,92.4,-18.0,-2593.5,89.7,177.3,-1157.7,-1144.2,-28.8,-105.0,957.3,-6.9,-6.0,-1115.1,-2513.7,-0.6,159.6,246.6,-1377.3,0,1290,0,175,0, 
0.7200,109.2,595.5,178.5,806.7,295.8,-26.4,99.0,-16.5,-1704.3,95.7,186.3,-400.8,-1121.1,309.6,257.4,969.0,-7.8,-5.4,-7.8,-1065.9,-0.9,167.7,254.7,-1365.9,0,1296,0,176,0, 
0.7233,174.3,597.3,178.2,812.7,592.2,-30.6,96.6,-20.1,-1482.0,92.4,176.7,822.3,-1135.5,628.2,666.6,969.9,-6.6,-5.7,1308.0,1852.5,-1.2,159.6,243.9,-1371.6,0,1302,0,177,0, 
0.7267,151.8,596.4,175.5,807.3,462.6,-30.3,92.4,-27.6,-1778.4,92.4,178.5,877.2,-1130.1,453.3,548.4,960.0,-7.2,-5.7,1074.6,2266.8,-0.9,164.4,243.9,-1368.0,0,1308,0,178,0, 
0.7300,96.6,593.4,178.5,798.0,117.3,-32.4,90.3,-30.0,-2519.4,93.6,182.7,-362.1,-1135.2,5.7,87.3,945.0,-6.9,-5.7,-496.8,-561.9,-0.9,164.7,244.2,-1372.8,0,1314,0,179,0, 
0.7333,75.0,604.5,179.1,792.0,29.1,-27.3,94.8,-31.2,-2519.4,95.4,181.2,-1101.6,-1135.5,-137.1,-109.5,941.4,-7.2,-6.0,-1256.7,-2694.3,-0.9,165.3,246.9,-1365.3,0,1320,0,180,0, 
0.7367,118.8,591.0,165.9,788.7,335.7,-34.5,92.4,-40.8,-1852.5,87.3,169.8,-299.7,-1142.7,272.7,234.9,963.3,-6.6,-5.7,-60.0,-1140.9,-0.9,156.9,239.7,-1371.6,0,1326,0,181,0, 
0.7400,150.9,597.9,169.2,793.5,576.0,-33.6,88.2,-50.7,-1482.0,81.9,169.8,868.5,-1158.3,453.3,616.2,967.5,-6.9,-5.7,1239.3,1727.7,-1.2,156.6,246.9,-1368.3,0,1332,0,182,0, 
0.7433,121.5,592.8,172.5,786.6,444.3,-37.8,85.5,-51.6,-1778.4,91.8,171.3,848.1,-1140.3,189.9,521.4,948.3,-7.2,-6.3,1035.6,2043.3,-0.6,156.6,247.2,-1372.8,0,1338,0,183,0, 
0.7467,65.4,584.1,166.2,784.2,78.3,-37.2,85.8,-54.6,-2445.3,86.7,171.0,-352.8,-1140.9,-146.7,17.1,945.9,-7.2,-5.7,-432.3,-591.9,-0.9,163.8,243.9,-1372.2,0,1344,0,184,0, 
0.7500,53.1,594.6,165.9,787.5,-20.1,-43.2,85.8,-54.6,-2445.3,91.2,172.2,-1046.1,-1149.6,-142.5,-193.2,957.0,-6.9,-5.7,-1165.2,-2502.3,-0.6,154.2,243.6,-1379.4,0,1350,0,185,0, 
0.7533,126.0,586.5,162.0,788.7,267.6,-48.0,83.7,-63.9,-1778.4,91.5,169.2,-235.8,-1134.6,212.7,182.4,979.2,-7.5,-6.0,-104.1,-985.5,-0.9,155.7,243.6,-1378.5,0,1356,0,186,0, 
0.7567,163.5,588.0,163.5,791.1,596.1,-46.5,86.7,-61.5,-1407.9,93.0,167.4,871.8,-1140.9,462.0,564.9,977.7,-6.6,-6.3,1237.2,1848.6,-0.6,155.7,246.6,-1381.2,0,1362,0,187,0, 
0.7600,120.0,593.4,172.5,795.0,429.0,-45.6,87.9,-59.4,-1704.3,90.3,180.6,930.9,-1143.6,296.1,465.6,960.6,-7.2,-5.7,989.4,2130.9,-0.6,160.2,254.4,-1374.3,0,1368,0,188,0, 
0.7633,57.3,600.6,172.2,778.8,149.1,-44.1,89.7,-61.2,-2593.5,92.7,174.0,-232.2,-1159.5,-109.8,80.4,946.2,-7.2,-5.7,-529.8,-502.5,-0.6,163.8,253.8,-1371.6,0,1374,0,189,0, 
0.7667,46.5,593.7,166.8,783.0,-70.5,-47.7,88.8,-61.5,-2445.3,86.7,176.4,-1060.2,-1156.8,-255.6,-213.0,954.9,-7.2,-6.0,-1229.1,-2694.6,-0.6,154.8,250.2,-1384.5,0,1380,0,190,0, 
0.7700,110.4,593.7,169.5,793.2,356.4,-36.3,94.8,-55.2,-1778.4,95.4,179.4,-120.0,-1136.4,174.3,246.9,969.6,-6.9,-6.3,29.1,-910.2,-0.6,164.7,253.2,-1380.3,0,1386,0,191,0, 
0.7733,132.0,597.9,173.7,800.4,550.5,-37.8,98.1,-61.8,-1333.8,97.2,180.6,912.6,-1137.6,339.3,590.1,966.3,-6.9,-5.7,1280.1,1770.6,-0.6,160.2,258.6,-1381.5,0,1392,0,192,0, 
0.7767,137.1,596.7,176.4,797.1,473.7,-37.8,99.3,-60.6,-1704.3,95.4,185.4,942.3,-1140.9,258.9,556.2,960.6,-6.9,-6.3,1041.0,2148.6,-0.9,167.7,257.7,-1374.6,0,1398,0,193,0, 
0.7800,68.7,594.6,180.3,797.7,76.2,-37.8,100.2,-60.9,-2445.3,97.5,187.5,-300.3,-1136.4,-156.3,11.4,947.4,-6.6,-5.4,-480.9,-627.0,-0.6,165.3,255.9,-1371.0,0,1404,0,194,0, 
0.7833,86.7,597.9,176.4,795.9,-39.3,-34.5,97.5,-62.1,-2519.4,94.8,186.9,-1103.1,-1135.8,-164.7,-173.1,963.9,-7.2,-6.0,-1254.3,-2705.1,-0.6,165.6,256.5,-1365.6,0,1410,0,195,0, 
0.7867,134.1,606.0,178.2,800.4,236.1,-36.3,92.7,-60.3,-1778.4,94.5,180.6,-364.8,-1145.7,234.0,166.5,974.7,-6.9,-5.4,-156.6,-1104.6,-0.9,161.4,252.6,-1380.9,0,1416,0,196,0, 
0.7900,173.4,606.3,168.6,798.6,463.5,-34.8,91.8,-65.1,-1407.9,90.3,175.5,835.2,-1152.3,469.5,596.7,976.5,-6.9,-6.0,1164.3,1803.0,-0.6,161.7,252.9,-1376.7,0,1422,0,197,0, 
0.7933,141.9,593.7,170.7,791.1,382.5,-39.6,88.2,-71.1,-1926.6,86.7,176.7,838.5,-1146.6,315.0,480.6,963.6,-7.2,-6.0,905.1,2242.8,-0.9,156.9,245.7,-1379.7,0,1428,0,198,0, 
0.7967,61.2,595.2,170.7,790.2,-51.6,-42.3,88.8,-72.3,-2519.4,93.6,179.1,-402.0,-1133.7,-145.5,-66.9,953.7,-6.9,-6.0,-637.8,-523.2,-0.6,164.7,248.1,-1371.3,0,1434,0,199,0, 
0.8000,42.0,593.7,165.3,792.0,-77.7,-41.7,88.8,-74.1,-2445.3,96.6,177.3,-1035.3,-1137.9,-247.2,-261.0,962.7,-6.9,-5.7,-1309.2,-2412.3,-0.9,161.7,254.1,-1375.5,0,1440,0,200,0, 
0.8033,119.7,602.1,161.4,791.7,194.1,-38.7,91.2,-78.9,-1778.4,90.3,177.6,-220.2,-1137.9,120.3,178.8,982.2,-7.2,-6.0,-147.9,-835.2,-0.6,154.5,257.4,-1375.2,0,1446,0,201,0, 
0.8067,165.0,599.4,162.3,789.6,552.0,-33.6,93.0,-82.8,-1259.7,91.5,174.0,896.7,-1142.7,400.5,574.5,975.9,-7.2,-6.0,1264.8,2063.4,-0.6,156.9,258.3,-1379.7,0,1452,0,202,0, 
0.8100,135.0,596.1,165.9,786.6,497.7,-39.3,95.1,-81.0,-1852.5,94.8,180.3,963.6,-1149.6,187.5,502.5,962.1,-6.6,-5.4,1022.4,2358.0,-0.6,159.3,261.9,-1377.9,0,1458,0,203,0, 
0.8133,61.8,595.2,166.2,781.5,74.1,-41.4,87.0,-89.7,-2519.4,91.8,177.3,-333.3,-1150.2,-153.9,-12.6,946.5,-6.9,-6.0,-495.9,-332.4,-0.3,162.9,262.8,-1381.5,0,1464,0,204,0, 
0.8167,42.0,592.2,164.1,778.8,-58.8,-37.8,90.6,-93.9,-2519.4,90.0,172.5,-1121.1,-1148.7,-210.3,-153.3,952.2,-6.6,-5.7,-1232.4,-2377.8,-0.6,151.8,266.7,-1374.3,0,1470,0,205,0, 
0.8200,105.3,593.7,159.3,783.0,269.4,-42.0,86.7,-95.7,-1852.5,77.1,168.0,-270.6,-1164.3,147.9,192.9,957.6,-7.2,-6.0,-24.6,-773.1,-0.9,154.2,259.8,-1377.9,0,1476,0,206,0, 
0.8233,165.3,586.2,157.5,788.4,585.3,-34.5,89.7,-96.9,-1407.9,87.6,172.5,888.3,-1144.8,425.4,574.8,966.3,-6.9,-5.7,1316.1,2138.4,-0.9,153.0,265.8,-1379.1,0,1482,0,207,0, 
0.8267,120.0,582.9,154.8,777.9,425.4,-40.8,89.7,-100.8,-1926.6,74.1,165.9,777.0,-1159.2,229.5,494.7,952.8,-6.9,-6.0,1073.4,2370.3,-0.6,148.5,262.2,-1383.9,0,1488,0,208,0, 
0.8300,39.6,581.4,160.5,778.5,86.7,-40.2,90.3,-101.7,-2445.3,84.3,170.1,-339.3,-1146.0,-108.9,-14.7,945.6,-6.9,-6.0,-419.7,-477.6,-1.2,150.9,261.3,-1387.8,0,1494,0,209,0, 
0.8333,46.2,585.0,157.8,787.2,8.4,-37.5,90.9,-103.2,-2667.6,84.6,166.8,-1110.6,-1138.2,-110.1,-129.6,952.5,-6.6,-5.4,-1155.6,-2425.5,-0.3,149.7,257.7,-1384.8,0,1500,0,210,0, 
0.8367,127.8,592.2,161.4,789.0,250.2,-32.7,95.4,-103.2,-1778.4,80.7,168.9,-318.0,-1134.3,236.7,233.4,965.1,-6.6,-6.0,33.9,-815.7,-1.2,148.2,258.9,-1377.3,0,1506,0,211,0, 
0.8400,186.0,598.2,157.8,786.9,558.9,-30.0,91.8,-105.6,-1407.9,77.7,166.5,738.3,-1149.3,408.0,597.0,968.7,-6.6,-6.3,1354.5,2046.6,-1.2,143.7,255.3,-1387.8,0,1512,0,212,0, 
0.8433,149.1,614.1,167.4,785.4,471.9,-29.1,92.1,-102.6,-1704.3,84.6,168.3,828.6,-1141.5,288.0,499.2,959.1,-6.9,-5.7,1176.6,2372.4,-0.6,154.5,255.3,-1384.8,0,1518,0,213,0, 
0.8467,66.6,593.1,163.5,785.4,24.3,-31.8,94.8,-106.2,-2445.3,87.9,178.5,-391.8,-1141.8,-121.8,-49.5,942.0,-6.6,-6.0,-444.3,-331.2,-0.9,153.0,254.7,-1384.5,0,1524,0,214,0, 
0.8500,73.8,603.0,166.8,784.8,-75.0,-34.8,91.8,-105.3,-2371.2,84.3,175.2,-1059.0,-1134.9,-178.8,-229.2,943.8,-6.9,-6.0,-1146.0,-2277.3,-0.3,144.9,254.4,-1388.1,0,1530,0,215,0, 
0.8533,136.2,600.0,156.6,783.6,294.3,-37.2,90.9,-115.8,-1852.5,78.3,164.4,-261.9,-1139.4,232.8,236.1,956.1,-6.9,-5.7,85.2,-719.7,-0.6,145.5,251.1,-1393.5,0,1536,0,216,0, 
0.8567,183.9,609.9,167.7,795.3,550.8,-28.2,99.0,-112.8,-1407.9,84.9,177.6,846.3,-1122.6,519.9,615.0,969.6,-7.2,-5.7,1365.6,2025.6,-0.6,157.8,258.9,-1388.1,0,1542,0,217,0, 
0.8600,145.2,605.1,164.4,786.9,445.2,-32.7,93.6,-114.0,-1778.4,90.3,183.9,746.1,-1128.9,287.1,486.9,972.6,-7.2,-5.7,1052.1,2255.4,-0.9,158.7,258.6,-1386.0,0,1548,0,218,0, 
0.8633,64.2,599.1,166.2,789.0,155.7,-34.5,99.0,-113.1,-2519.4,90.3,180.9,-454.2,-1143.0,-78.0,27.6,953.7,-6.9,-6.0,-458.1,-435.0,-0.9,149.7,264.0,-1389.9,0,1554,0,219,0, 
0.8667,50.1,585.9,156.6,773.4,9.6,-43.5,91.2,-119.1,-2445.3,81.0,172.2,-1107.9,-1141.8,-105.3,-153.9,957.6,-7.2,-6.0,-1141.5,-2483.7,-0.9,143.7,259.8,-1394.1,0,1560,0,220,0, 
0.8700,119.1,585.6,152.4,775.8,350.7,-44.7,88.5,-124.8,-1704.3,78.3,159.0,-346.5,-1148.4,239.4,237.9,970.5,-6.9,-5.7,-27.3,-882.0,-0.6,135.3,260.4,-1401.0,0,1566,0,221,0, 
0.8733,153.6,578.4,148.2,767.7,638.4,-44.1,90.6,-126.3,-1333.8,68.1,160.2,810.6,-1152.6,550.5,619.8,970.8,-7.2,-6.0,1173.0,2008.2,-0.3,134.4,260.1,-1395.9,0,1572,0,222,0, 
0.8767,133.8,588.0,155.7,774.0,456.0,-38.1,90.3,-121.8,-1926.6,76.2,159.3,761.4,-1154.7,288.6,483.9,958.8,-6.9,-6.0,814.8,2272.8,-0.6,138.3,261.6,-1397.7,0,1578,0,223,0, 
0.8800,74.1,591.3,154.5,764.1,105.9,-42.9,90.3,-122.1,-2445.3,63.0,156.6,-573.6,-1173.6,-183.3,-31.5,950.1,-7.5,-5.4,-724.5,-525.0,-0.9,136.2,261.9,-1391.4,0,1584,0,224,0, 
0.8833,65.1,575.4,148.2,765.3,10.8,-32.7,93.6,-126.0,-2519.4,70.2,159.3,-1243.5,-1157.7,-149.7,-167.7,956.7,-6.6,-6.0,-1332.0,-2417.1,-0.6,139.8,267.3,-1392.3,0,1590,0,225,0, 
0.8867,142.5,584.7,143.4,771.9,357.0,-32.7,93.0,-134.1,-1630.2,58.8,156.0,-459.9,-1151.1,240.0,250.2,978.9,-7.2,-5.7,-173.1,-784.5,-0.9,137.1,260.7,-1391.4,0,1596,0,226,0, 
0.8900,177.3,580.8,139.8,773.4,570.6,-38.1,88.2,-137.7,-1333.8,63.9,156.3,590.1,-1151.4,435.0,652.2,977.1,-6.9,-5.4,1033.5,1867.8,-0.9,131.4,260.1,-1394.4,0,1602,0,227,0, 
0.8933,133.8,588.3,146.7,772.5,369.0,-33.9,86.1,-134.7,-1852.5,74.4,160.5,492.3,-1158.6,265.2,552.3,975.3,-6.9,-6.3,894.3,2221.8,-0.9,141.6,260.1,-1387.8,0,1608,0,228,0, 
0.8967,68.4,585.3,151.5,775.8,-91.2,-27.3,93.0,-132.6,-2519.4,78.0,162.9,-779.7,-1150.5,-80.7,46.2,962.4,-6.9,-6.0,-728.4,-544.8,-0.9,138.6,268.5,-1385.4,0,1614,0,229,0, 
0.9000,68.4,589.5,151.2,769.5,-80.1,-39.6,93.0,-129.9,-2445.3,71.1,165.6,-1534.5,-1165.8,-171.3,-82.8,971.4,-7.2,-5.7,-1344.9,-2513.7,-0.6,136.2,255.6,-1392.6,0,1620,0,230,0, 
0.9033,127.8,575.4,144.9,777.3,175.8,-43.5,89.7,-137.1,-1778.4,70.2,156.9,-639.9,-1156.8,218.1,194.1,984.0,-7.5,-5.7,-252.3,-936.3,-0.6,137.4,257.7,-1397.4,0,1626,0,231,0, 
0.9067,165.3,587.7,159.3,784.5,510.9,-36.6,90.9,-127.5,-1407.9,73.8,168.0,552.9,-1152.6,455.4,569.4,992.1,-6.9,-5.7,1078.5,1963.5,-1.2,138.3,263.4,-1395.9,0,1632,0,232,0, 
0.9100,148.8,591.6,163.5,778.8,372.3,-32.4,94.2,-120.9,-1704.3,89.4,171.3,529.8,-1152.0,328.8,469.8,995.7,-6.9,-6.0,903.3,2307.0,-0.9,147.0,263.4,-1389.0,0,1638,0,233,0, 
0.9133,44.1,593.7,171.0,781.8,-159.9,-27.6,94.2,-119.1,-2519.4,88.2,183.0,-929.7,-1155.9,-253.8,-232.2,968.7,-7.5,-5.7,-801.3,-755.4,-1.2,147.9,258.6,-1388.7,0,1644,0,234,0, 
0.9167,15.9,593.1,166.2,787.5,-492.3,-29.4,92.7,-114.6,-2519.4,86.7,179.1,-2065.5,-1153.2,-624.0,-736.8,966.9,-7.2,-5.1,-1762.5,-3297.3,-0.6,154.2,267.0,-1380.9,0,1650,0,235,0, 
0.9200,131.4,604.2,171.9,795.0,-36.9,-26.7,95.1,-113.7,-1778.4,79.5,178.2,-1047.6,-1132.2,-116.4,-201.6,990.6,-6.6,-6.0,-474.3,-1476.6,-0.6,149.7,261.3,-1389.9,0,1656,0,236,0, 
0.9233,153.9,594.9,165.3,790.5,336.6,-34.2,91.2,-113.7,-1333.8,77.7,174.6,211.2,-1143.0,152.4,261.0,992.4,-7.2,-5.7,894.6,1326.0,-0.6,148.5,259.2,-1386.0,0,1662,0,237,0, 
0.9267,135.0,598.8,175.2,794.1,130.2,-27.9,92.7,-107.4,-1778.4,77.7,178.8,237.0,-1141.8,24.0,181.8,979.5,-6.9,-5.7,675.6,1704.6,-0.9,154.5,258.3,-1382.1,0,1668,0,238,0, 
0.9300,73.2,595.5,168.3,783.0,-240.6,-29.7,96.3,-103.2,-2445.3,83.1,167.7,-923.7,-1143.0,-335.4,-293.4,964.5,-6.6,-5.4,-836.4,-914.1,-1.2,149.4,262.5,-1386.3,0,1674,0,239,0, 
0.9333,57.3,603.0,173.7,789.3,-245.7,-24.9,98.7,-99.9,-2519.4,88.5,171.3,-1477.2,-1144.8,-307.5,-406.8,984.9,-6.6,-6.3,-1443.3,-2806.8,-0.6,153.0,270.3,-1381.8,0,1680,0,240,0, 
0.9367,123.0,598.2,171.0,789.9,105.9,-30.9,91.2,-99.6,-1852.5,90.9,183.6,-570.0,-1134.0,74.1,10.5,988.2,-6.9,-6.0,-228.0,-1163.7,-1.2,149.7,258.6,-1394.1,0,1686,0,241,0, 
0.9400,176.1,603.3,169.5,786.6,384.6,-31.8,90.9,-85.2,-1259.7,86.4,172.8,573.0,-1150.2,221.1,381.9,1002.0,-6.9,-6.0,1161.3,1690.8,-0.3,140.7,260.4,-1395.6,0,1692,0,242,0, 
0.9433,137.4,591.0,173.4,789.9,240.3,-30.0,94.2,-73.2,-1926.6,99.3,184.8,533.7,-1139.7,-20.7,244.5,991.2,-6.9,-5.7,889.8,1955.7,-1.2,151.2,265.2,-1391.4,0,1698,0,243,0, 
0.9467,84.9,601.8,177.3,793.8,-44.7,-35.4,95.1,-60.6,-2445.3,96.3,183.6,-573.3,-1139.7,-340.5,-223.2,981.6,-7.2,-5.7,-567.9,-687.6,-0.9,150.0,261.0,-1389.3,0,1704,0,244,0, 
0.9500,54.6,602.7,178.2,789.3,-139.8,-39.0,94.8,-53.4,-2519.4,88.8,173.4,-1279.8,-1135.8,-290.4,-345.9,970.8,-7.2,-6.0,-1297.8,-2681.4,-0.9,143.1,254.4,-1400.1,0,1710,0,245,0, 
0.9533,102.6,610.8,175.8,793.8,127.2,-34.8,93.0,-25.5,-1778.4,92.1,180.6,-554.4,-1122.3,156.0,48.9,975.6,-6.9,-5.4,-100.8,-1131.6,-0.9,146.7,251.4,-1400.4,0,1716,0,246,0, 
0.9567,151.2,588.3,166.8,790.5,389.1,-40.5,90.0,-8.1,-1407.9,86.7,173.1,529.5,-1132.8,371.4,387.0,993.6,-7.2,-6.0,1149.0,1651.2,-0.9,141.9,250.8,-1407.6,0,1722,0,247,0, 
0.9600,125.1,597.0,171.9,780.6,253.2,-44.4,98.7,10.5,-1778.4,83.1,173.7,579.0,-1142.1,238.2,329.7,984.0,-6.9,-5.7,932.4,1976.1,-1.2,144.0,255.9,-1398.9,0,1728,0,248,0, 
0.9633,73.8,594.3,173.7,781.2,-97.5,-37.5,96.9,65.4,-2667.6,95.1,178.5,-603.9,-1135.2,-159.9,-140.4,969.3,-6.9,-6.0,-605.4,-815.1,-0.9,147.0,252.6,-1396.8,0,1734,0,249,0, 
0.9667,71.4,604.8,174.9,782.7,-188.1,-37.5,100.2,111.6,-2445.3,89.7,171.9,-1266.9,-1121.7,-153.3,-318.6,977.7,-6.6,-6.0,-1254.3,-2760.9,-0.6,147.9,255.9,-1393.8,0,1740,0,250,0, 
0.9700,153.3,600.6,169.8,786.0,180.9,-37.2,94.8,126.0,-1630.2,81.3,165.6,-551.1,-1133.4,149.1,-6.6,977.4,-7.2,-5.7,-170.7,-1207.8,-0.9,141.3,252.9,-1397.1,0,1746,0,251,0, 
0.9733,176.4,602.1,171.3,794.7,450.6,-35.7,88.5,142.2,-1333.8,78.0,169.5,646.8,-1121.1,445.2,385.8,985.8,-6.9,-5.7,1131.9,1635.6,-0.3,133.5,251.4,-1395.6,0,1752,0,252,0, 
0.9767,156.0,585.9,163.8,789.6,311.1,-33.9,93.0,151.2,-1778.4,85.5,164.4,662.7,-1117.5,173.4,328.8,970.8,-6.9,-6.3,969.0,1953.3,-0.6,133.8,248.7,-1392.9,0,1758,0,253,0, 
0.9800,63.0,593.1,175.8,785.7,-61.8,-30.6,95.1,169.5,-2445.3,82.8,170.1,-516.6,-1128.0,-171.9,-120.0,959.4,-6.6,-6.0,-576.0,-800.4,-0.6,141.3,250.5,-1395.9,0,1764,0,254,0, 
0.9833,81.6,595.2,176.7,777.3,-98.4,-33.0,96.0,176.7,-2445.3,88.8,174.6,-1104.6,-1132.2,-147.0,-207.3,969.9,-6.9,-5.7,-1101.0,-2677.5,-1.2,142.5,251.1,-1394.7,0,1770,0,255,0, 
0.9867,121.8,596.7,174.0,783.0,112.5,-39.3,92.4,182.7,-1852.5,84.3,171.9,-420.6,-1126.8,151.5,40.8,968.1,-6.6,-5.7,-47.1,-1263.0,-0.6,141.3,246.9,-1404.3,0,1776,0,0,0, 
0.9900,165.9,603.0,176.1,786.9,352.2,-26.1,96.0,194.1,-1259.7,82.8,171.0,767.1,-1126.8,383.4,498.0,980.7,-6.9,-5.4,1244.4,1633.5,-0.6,147.6,251.7,-1393.5,0,1782,0,1,0, 
0.9933,134.7,594.9,169.2,781.2,249.9,-31.2,91.8,192.0,-1852.5,83.7,168.0,743.4,-1146.3,261.6,416.7,956.1,-7.2,-5.7,1009.5,2129.1,-0.9,143.4,252.3,-1392.6,0,1788,0,2,0, 
0.9967,72.3,607.8,176.7,777.9,-89.4,-33.3,98.4,199.2,-2593.5,81.3,168.0,-523.2,-1158.6,-165.9,-103.8,925.8,-6.6,-6.0,-579.9,-654.0,-0.3,141.9,260.4,-1390.5,0,1794,0,3,0, 
1.0000,58.5,594.0,175.8,792.3,-156.3,-31.8,93.6,202.2,-2445.3,84.9,169.5,-1135.2,-1128.3,-195.0,-288.0,948.3,-6.6,-5.7,-1233.3,-2475.3,-0.6,152.4,253.8,-1393.5,0,1800,0,4,0, 
1.0033,131.4,591.9,165.6,785.4,134.7,-29.4,97.2,205.8,-1704.3,79.2,165.3,-441.3,-1134.3,89.4,123.0,962.1,-6.9,-6.0,-119.1,-952.8,-0.9,142.8,253.5,-1392.9,0,1806,0,5,0, 
1.0067,175.8,596.7,171.0,789.0,410.7,-26.7,93.0,206.7,-1407.9,77.4,165.9,634.2,-1134.6,336.9,509.4,977.4,-6.9,-5.7,1165.2,1830.0,-1.2,135.3,246.9,-1390.8,0,1812,0,6,0, 
1.0100,138.3,585.3,166.5,780.9,291.0,-25.8,100.2,212.1,-1778.4,82.2,167.1,609.0,-1136.1,162.9,372.3,966.3,-6.6,-6.0,904.5,2141.4,-0.9,136.8,253.8,-1389.3,0,1818,0,7,0, 
1.0133,57.9,584.4,168.6,775.2,-146.4,-27.9,97.5,216.0,-2519.4,89.4,171.9,-579.3,-1153.5,-220.5,-57.6,959.7,-6.6,-5.7,-645.3,-623.1,-1.2,136.5,260.7,-1386.9,0,1824,0,8,0, 
1.0167,62.7,586.8,165.3,768.3,-220.8,-38.4,93.0,216.0,-2519.4,79.5,163.8,-1288.2,-1144.2,-271.2,-226.5,966.9,-7.2,-5.4,-1304.7,-2494.5,-0.6,136.5,251.7,-1396.2,0,1830,0,9,0, 
1.0200,122.1,584.7,159.3,768.9,169.2,-36.9,92.7,218.1,-1926.6,78.6,162.0,-386.4,-1133.1,130.5,210.6,978.3,-6.9,-6.0,-186.3,-845.4,-0.6,133.8,254.1,-1397.4,0,1836,0,10,0, 
1.0233,163.8,585.3,160.5,775.5,444.9,-33.0,90.9,218.7,-1407.9,73.8,158.7,651.6,-1134.3,367.2,621.6,974.4,-6.9,-5.7,1050.3,1912.2,-0.6,133.8,252.3,-1398.0,0,1842,0,11,0, 
1.0267,136.5,579.9,162.3,775.5,310.8,-39.6,90.0,221.4,-1852.5,80.7,161.4,659.4,-1134.3,159.9,471.6,970.5,-6.9,-5.7,750.9,2160.3,-0.3,132.6,255.0,-1394.4,0,1848,0,12,0, 
1.0300,78.6,584.7,165.9,767.7,-78.9,-40.2,90.6,225.3,-2519.4,80.4,162.6,-485.1,-1144.8,-299.4,34.5,965.1,-7.2,-6.0,-722.4,-626.7,-0.9,123.9,252.0,-1397.4,0,1854,0,13,0, 
1.0333,45.0,595.5,161.7,770.1,-229.5,-46.2,92.7,223.2,-2519.4,76.2,160.2,-1185.0,-1144.2,-351.9,-141.3,982.5,-7.2,-6.0,-1444.2,-2541.9,-0.6,124.2,250.2,-1398.3,0,1860,0,14,0, 
1.0367,112.8,585.9,158.1,775.2,152.7,-42.9,92.7,225.0,-1852.5,62.7,157.2,-376.2,-1131.9,58.2,234.3,983.4,-6.3,-6.3,-320.1,-932.7,-0.9,122.1,250.2,-1401.9,0,1866,0,15,0, 
1.0400,157.5,580.5,153.9,775.2,378.9,-45.6,90.0,224.7,-1407.9,72.0,156.0,698.4,-1143.6,323.4,623.7,987.9,-7.2,-6.3,973.5,1806.9,-0.6,129.0,257.1,-1395.3,0,1872,0,16,0, 
1.0433,129.0,586.5,166.8,777.3,361.8,-43.5,96.6,232.5,-1778.4,75.0,165.0,810.3,-1142.4,154.5,562.5,981.9,-7.2,-5.4,860.7,2170.5,-0.6,132.6,256.5,-1391.7,0,1878,0,17,0, 
1.0467,45.0,574.5,159.9,768.9,-42.0,-41.7,98.4,234.0,-2519.4,69.0,162.3,-468.9,-1157.7,-213.3,45.9,970.5,-7.2,-6.0,-732.6,-651.6,-0.9,137.1,259.5,-1392.6,0,1884,0,18,0, 
1.0500,46.8,585.0,164.1,771.3,-115.8,-40.5,102.9,235.2,-2445.3,78.0,166.2,-1195.8,-1159.2,-209.1,-66.6,981.0,-6.9,-5.7,-1297.5,-2626.5,-0.6,134.7,263.4,-1390.8,0,1890,0,19,0, 
1.0533,111.6,593.7,166.8,772.8,237.6,-44.7,95.7,237.6,-1778.4,66.3,158.4,-378.0,-1151.1,215.7,248.7,985.8,-6.9,-6.0,-64.8,-878.4,-0.9,129.0,254.7,-1398.3,0,1896,0,20,0, 
1.0567,156.6,580.5,161.1,770.7,498.3,-42.3,99.3,240.6,-1407.9,75.6,165.9,807.9,-1131.9,444.0,642.6,989.7,-6.9,-6.3,1176.6,1916.4,-0.6,133.8,256.8,-1393.8,0,1902,0,21,0, 
1.0600,107.1,581.1,160.8,768.0,323.4,-34.2,97.5,236.4,-1852.5,74.4,159.6,717.3,-1152.6,135.0,446.7,972.9,-7.2,-5.4,862.8,2108.4,-0.3,131.7,250.8,-1386.0,0,1908,0,22,0, 
1.0633,50.7,585.0,167.1,764.1,19.8,-40.8,100.2,242.7,-2519.4,79.8,164.4,-375.9,-1149.3,-160.2,64.5,972.3,-6.9,-5.7,-601.2,-620.1,-0.6,132.3,250.8,-1394.7,0,1914,0,23,0, 
1.0667,60.0,597.9,173.1,765.9,-99.3,-35.7,96.9,248.1,-2445.3,76.8,165.6,-1048.8,-1149.3,-244.2,-121.5,976.2,-6.9,-5.7,-1290.0,-2620.2,-0.6,138.6,248.1,-1382.1,0,1920,0,24,0, 
1.0700,137.4,588.0,169.5,780.6,257.7,-35.1,96.3,243.9,-1778.4,77.7,165.3,-259.5,-1147.5,201.0,333.9,988.8,-6.9,-5.7,-129.3,-985.5,-0.9,141.9,249.0,-1382.7,0,1926,0,25,0, 
1.0733,168.3,585.9,165.3,779.4,484.8,-30.9,99.9,243.9,-1333.8,80.7,166.8,923.4,-1149.0,483.0,711.0,990.0,-6.9,-5.7,1149.6,1795.8,-1.2,141.0,252.6,-1376.1,0,1932,0,26,0, 
1.0767,123.9,578.4,161.4,770.7,319.8,-37.2,96.3,240.6,-1704.3,83.7,167.1,886.8,-1154.7,274.2,613.2,970.2,-7.2,-6.0,861.9,2106.6,-0.9,137.1,258.3,-1377.6,0,1938,0,27,0, 
1.0800,81.0,583.8,163.8,759.0,-56.1,-38.4,92.1,239.7,-2445.3,84.3,166.5,-407.1,-1158.6,-134.7,140.1,956.1,-6.6,-6.0,-653.7,-499.8,-0.6,141.9,250.8,-1383.6,0,1944,0,28,0, 
1.0833,50.4,583.2,165.9,771.0,-128.4,-32.1,92.1,246.0,-2445.3,86.1,171.9,-1204.2,-1159.8,-216.9,-72.6,975.3,-6.9,-5.7,-1284.9,-2445.6,-0.9,146.4,243.0,-1379.4,0,1950,0,29,0, 
1.0867,114.6,585.3,158.7,768.3,251.7,-41.1,90.0,237.9,-1852.5,82.5,160.2,-403.8,-1158.3,153.6,359.4,986.1,-6.9,-5.7,-98.7,-812.1,-1.2,138.6,246.9,-1386.3,0,1956,0,30,0, 
1.0900,168.0,580.5,156.6,770.7,474.6,-37.2,96.3,239.4,-1333.8,84.0,161.7,667.2,-1149.6,429.3,728.4,996.3,-7.2,-5.7,1155.9,1965.9,-0.9,139.8,245.7,-1377.0,0,1962,0,31,0, 
1.0933,153.0,585.6,163.5,763.2,372.9,-38.4,93.0,240.0,-1852.5,83.4,161.4,644.4,-1152.0,270.3,638.7,982.8,-7.2,-6.0,942.0,2271.3,-0.9,141.3,253.8,-1381.2,0,1968,0,32,0, 
1.0967,63.9,592.5,161.7,760.8,-44.4,-40.2,94.5,236.7,-2445.3,85.2,164.7,-660.9,-1146.3,-246.3,105.0,967.8,-6.9,-5.7,-711.3,-630.0,-1.2,137.7,249.0,-1382.1,0,1974,0,33,0, 
1.1000,54.9,603.3,160.8,753.6,-153.6,-47.7,93.9,237.3,-2445.3,81.6,161.4,-1353.0,-1149.6,-254.7,-69.9,964.8,-6.6,-6.3,-1367.1,-2565.3,-1.2,139.8,245.7,-1385.4,0,1980,0,34,0, 
1.1033,123.9,620.1,159.3,766.5,226.8,-40.2,98.4,247.2,-1778.4,81.9,164.4,-382.8,-1146.6,176.1,351.9,993.3,-6.9,-6.3,-174.3,-834.9,-0.3,142.8,257.4,-1377.3,0,1986,0,35,0, 
1.1067,163.8,615.6,156.0,770.1,574.5,-45.6,92.4,240.3,-1333.8,81.6,163.5,714.3,-1144.8,496.5,721.2,990.9,-6.9,-5.4,1103.1,2102.1,-0.6,138.6,252.3,-1383.3,0,1992,0,36,0, 
1.1100,122.4,618.3,160.5,762.9,414.6,-41.4,93.9,243.6,-1852.5,75.3,157.2,713.4,-1150.5,145.2,527.4,987.0,-6.9,-6.0,722.4,2244.6,-0.3,133.5,243.3,-1387.2,0,1998,0,37,0, 
1.1133,69.3,607.5,159.9,756.3,106.5,-40.2,96.9,241.5,-2519.4,81.0,156.0,-424.5,-1149.6,-97.5,81.3,965.7,-6.9,-6.0,-687.0,-546.0,-0.9,141.3,244.2,-1383.3,0,2004,0,38,0, 
1.1167,65.4,621.0,161.4,758.1,-27.3,-42.9,93.6,243.0,-2519.4,79.8,156.6,-1125.3,-1157.4,-139.5,-56.1,966.3,-6.9,-6.3,-1333.2,-2396.4,-0.3,137.4,245.4,-1386.3,0,2010,0,39,0, 
1.1200,140.7,626.1,159.0,766.5,299.1,-45.3,88.2,247.5,-1704.3,78.0,156.9,-393.3,-1156.8,216.9,411.6,982.8,-6.6,-6.0,-254.4,-794.4,-0.6,135.0,241.8,-1388.7,0,2016,0,40,0, 
1.1233,191.1,606.9,162.0,773.7,551.1,-40.5,94.5,249.0,-1407.9,83.4,166.2,723.6,-1138.2,501.6,695.1,980.4,-6.9,-6.0,1071.6,1940.4,-0.6,143.7,252.9,-1377.9,0,2022,0,41,0, 
1.1267,154.5,609.6,160.5,764.1,450.3,-41.7,92.4,245.7,-1852.5,85.8,161.1,702.6,-1152.6,322.8,582.9,977.4,-6.9,-5.7,821.4,2218.5,-0.6,144.3,248.7,-1379.7,0,2028,0,42,0, 
1.1300,80.4,612.3,169.5,761.4,87.9,-42.6,92.4,250.5,-2519.4,76.2,163.8,-537.9,-1167.3,-193.2,77.4,970.2,-7.2,-6.0,-725.1,-710.4,-0.6,141.0,247.5,-1381.8,0,2034,0,43,0, 
1.1333,87.6,629.7,175.8,766.8,15.6,-41.7,96.9,257.1,-2445.3,85.8,165.6,-1200.9,-1157.7,-148.5,-42.3,980.4,-6.6,-5.7,-1219.5,-2475.3,-0.6,142.5,252.6,-1379.7,0,2040,0,44,0, 
1.1367,147.0,619.2,166.8,780.6,238.2,-45.9,95.7,250.8,-1704.3,79.2,167.4,-434.7,-1149.0,137.1,371.7,992.1,-6.9,-6.0,-176.4,-993.9,-0.3,139.2,249.0,-1380.3,0,2046,0,45,0, 
1.1400,182.7,620.4,166.2,780.6,571.8,-43.2,89.7,246.9,-1407.9,81.9,163.8,839.7,-1149.6,501.3,807.6,996.6,-7.2,-6.0,1179.9,1937.4,-0.9,137.4,238.5,-1383.9,0,2052,0,46,0, 
1.1433,138.3,617.7,167.7,766.2,388.5,-47.1,90.9,240.6,-1852.5,82.2,169.5,693.6,-1153.8,166.5,642.3,980.4,-6.9,-6.0,896.1,2163.6,-0.9,141.3,237.3,-1382.7,0,2058,0,47,0, 
1.1467,72.3,618.0,171.6,765.9,23.7,-42.3,96.3,244.8,-2593.5,87.6,171.0,-617.1,-1151.1,-190.8,146.1,971.4,-6.9,-5.4,-642.3,-652.5,-1.2,140.4,241.2,-1381.5,0,2064,0,48,0, 
1.1500,74.4,626.7,175.2,780.6,-48.3,-36.3,96.0,248.7,-2519.4,93.0,179.1,-1255.8,-1150.2,-186.3,-25.8,973.8,-6.9,-5.7,-1297.5,-2525.4,-0.6,149.1,249.6,-1378.5,0,2070,0,49,0, 
1.1533,147.9,628.2,173.1,784.8,293.1,-33.3,96.3,255.3,-1852.5,92.1,174.6,-421.2,-1150.8,178.8,348.3,1008.6,-7.2,-5.7,-129.0,-921.0,-1.2,148.2,249.9,-1380.3,0,2076,0,50,0, 
1.1567,160.2,631.2,169.8,780.6,514.5,-33.9,90.9,250.2,-1333.8,79.5,174.6,847.2,-1154.7,446.7,669.0,1005.3,-6.9,-5.4,1104.3,1858.8,-0.6,137.7,236.1,-1383.0,0,2082,0,51,0, 
1.1600,141.3,625.5,171.6,771.9,356.4,-41.4,88.5,247.2,-1926.6,86.7,168.9,723.9,-1157.4,286.5,594.6,991.8,-6.9,-6.0,835.5,2083.5,-1.2,137.7,231.9,-1386.6,0,2088,0,52,0, 
1.1633,79.5,623.1,176.7,778.2,-9.3,-40.2,91.2,248.7,-2519.4,84.9,174.3,-470.1,-1159.5,-144.3,94.5,985.2,-7.5,-6.3,-673.5,-700.2,-0.3,144.3,234.0,-1380.6,0,2094,0,53,0, 
1.1667,81.6,624.6,175.5,776.1,-111.3,-45.3,95.1,249.6,-2445.3,90.6,173.4,-1148.1,-1146.9,-201.3,-58.5,995.4,-6.6,-5.7,-1236.9,-2505.9,-0.9,143.4,236.1,-1379.7,0,2100,0,54,0, 
1.1700,140.4,637.8,180.9,791.1,235.5,-48.0,90.9,250.5,-1704.3,84.0,175.8,-244.8,-1145.4,210.6,328.2,996.3,-6.9,-6.3,-92.4,-874.8,-0.9,140.1,231.6,-1392.9,0,2106,0,55,0, 
1.1733,175.2,631.2,175.2,787.5,473.4,-48.3,87.6,247.2,-1407.9,92.1,175.2,797.7,-1132.8,458.1,658.2,999.0,-6.9,-5.4,1212.9,1758.9,-0.6,141.3,226.2,-1392.0,0,2112,0,56,0, 
1.1767,160.8,635.1,182.4,796.5,383.4,-33.9,97.8,252.9,-1852.5,95.4,184.5,913.5,-1134.0,272.4,630.0,994.8,-6.9,-5.7,987.0,2074.8,-0.6,146.1,238.5,-1382.4,0,2118,0,57,0, 
1.1800,90.6,641.7,180.3,785.4,-57.3,-32.1,99.3,256.2,-2593.5,100.2,184.8,-468.3,-1129.5,-171.3,89.4,980.4,-6.6,-5.7,-564.0,-756.9,-0.9,152.4,241.8,-1380.3,0,2124,0,58,0, 
1.1833,115.8,643.2,183.9,792.3,-110.7,-31.8,104.4,258.6,-2519.4,97.2,183.9,-1114.5,-1138.8,-130.8,-5.4,989.7,-6.9,-6.0,-1206.9,-2535.6,-0.9,155.7,245.1,-1377.9,0,2130,0,59,0, 
1.1867,152.1,631.8,183.0,790.8,240.6,-33.3,99.9,256.2,-1704.3,102.6,188.7,-374.4,-1108.2,319.5,382.8,1002.9,-6.9,-5.7,-87.9,-951.9,-0.9,154.2,237.9,-1382.4,0,2136,0,60,0, 
1.1900,181.5,637.8,182.4,794.4,510.0,-32.1,101.4,256.2,-1333.8,101.1,187.8,760.2,-1120.8,462.9,873.3,999.9,-6.6,-6.0,1165.8,1839.0,-0.9,159.3,241.2,-1380.0,0,2142,0,61,0, 
1.1933,149.1,633.6,180.3,782.7,327.9,-35.1,102.3,255.0,-1852.5,103.5,190.5,651.3,-1124.4,255.3,662.1,991.8,-6.9,-6.0,858.9,2104.2,-0.6,158.7,245.4,-1381.2,0,2148,0,62,0, 
1.1967,78.0,639.3,187.2,779.1,-11.7,-38.7,104.4,260.1,-2371.2,105.0,191.7,-548.7,-1133.4,-232.8,159.6,982.8,-6.9,-5.7,-628.8,-724.5,-0.3,160.5,255.6,-1374.9,0,2154,0,63,0, 
1.2000,100.2,645.9,190.2,788.1,-37.5,-35.7,105.6,260.4,-2445.3,106.2,193.2,-1151.7,-1125.9,-196.5,86.7,991.8,-6.9,-5.7,-1158.3,-2558.1,-0.9,159.3,254.7,-1377.0,0,2160,0,64,0, 
1.2033,145.2,642.9,181.2,782.4,279.9,-39.0,100.5,253.2,-1704.3,95.4,186.9,-283.8,-1128.3,171.0,480.9,999.6,-7.2,-6.0,-80.7,-884.4,-0.9,153.0,248.4,-1378.8,0,2166,0,65,0, 
1.2067,170.1,642.6,183.6,786.9,531.6,-35.4,104.1,252.6,-1259.7,98.4,190.8,884.4,-1122.6,406.5,816.6,996.9,-6.6,-6.0,1227.9,1980.9,-0.9,151.5,249.3,-1379.4,0,2172,0,66,0, 
1.2100,150.3,649.5,188.7,793.5,373.8,-34.2,101.1,252.3,-1926.6,103.2,190.5,844.2,-1131.6,188.4,711.9,982.2,-6.9,-6.3,899.4,2158.5,-0.9,157.2,249.0,-1371.6,0,2178,0,67,0, 
1.2133,90.0,634.5,183.9,787.2,21.9,-38.1,102.0,259.8,-2297.1,105.6,191.7,-419.1,-1131.9,-184.8,169.2,972.6,-6.9,-5.7,-620.4,-646.8,-0.6,162.3,245.7,-1367.1,0,2184,0,68,0, 
1.2167,93.0,638.7,180.0,774.6,-106.2,-40.5,99.0,252.9,-2519.4,97.8,187.2,-1113.6,-1137.3,-256.8,70.8,971.7,-6.6,-5.7,-1223.1,-2522.1,-0.6,148.8,243.9,-1376.1,0,2190,0,69,0, 
1.2200,153.3,643.2,179.1,779.1,168.0,-36.3,101.1,257.1,-1704.3,102.3,189.0,-443.1,-1118.1,75.0,363.9,986.1,-6.9,-5.4,-136.5,-930.9,-1.2,153.6,250.8,-1378.2,0,2196,0,70,0, 
1.2233,182.1,643.5,172.2,771.9,483.3,-40.2,96.9,250.5,-1556.1,92.4,181.2,695.7,-1142.7,284.1,768.0,981.9,-7.2,-6.0,1211.4,1834.2,-0.9,152.7,241.8,-1379.7,0,2202,0,71,0, 
1.2267,162.9,628.2,175.2,765.0,381.6,-32.7,96.3,252.3,-1704.3,96.0,183.0,663.9,-1140.9,86.4,547.5,980.7,-6.9,-6.0,957.3,2093.1,-1.2,159.3,241.5,-1375.8,0,2208,0,72,0, 
1.2300,97.2,633.6,185.7,776.1,90.6,-26.1,101.4,256.5,-2445.3,101.4,189.3,-533.7,-1138.8,-270.3,121.2,969.6,-7.5,-6.0,-608.4,-705.3,-0.9,156.6,249.9,-1367.4,0,2214,0,73,0, 
1.2333,93.3,631.8,181.8,775.2,7.5,-30.9,101.7,256.2,-2371.2,100.8,187.5,-1229.1,-1126.8,-291.3,-23.7,981.6,-6.6,-6.3,-1198.2,-2552.1,-0.6,150.0,247.8,-1369.5,0,2220,0,74,0, 
1.2367,146.4,629.4,173.7,780.3,293.7,-36.9,93.3,252.0,-1778.4,93.3,186.3,-404.1,-1116.9,101.7,338.1,977.7,-6.6,-6.0,-62.7,-983.4,-0.6,150.9,241.2,-1374.0,0,2226,0,75,0, 
1.2400,186.6,633.9,176.1,783.6,556.2,-39.0,95.4,257.7,-1259.7,96.9,187.2,809.7,-1114.5,336.0,753.6,990.3,-6.9,-6.0,1336.8,1952.7,-0.9,157.8,245.1,-1381.2,0,2232,0,76,0, 
1.2433,161.4,625.2,170.1,770.7,452.1,-39.3,91.5,251.1,-1778.4,99.6,187.2,842.1,-1119.9,221.4,688.8,969.6,-7.2,-6.0,1125.6,2232.3,-0.6,152.4,238.8,-1380.6,0,2238,0,77,0, 
1.2467,90.9,627.6,168.9,759.0,104.4,-44.1,90.6,247.8,-2593.5,86.1,178.2,-434.4,-1149.3,-200.7,199.8,946.8,-6.9,-5.7,-378.9,-618.6,-0.9,143.1,249.6,-1380.6,0,2244,0,78,0, 
1.2500,107.1,623.4,165.6,764.7,6.3,-40.2,94.5,248.7,-2371.2,90.9,183.0,-1024.2,-1137.6,-242.1,-9.0,951.9,-6.9,-6.0,-1116.9,-2534.4,-0.3,152.1,243.0,-1376.4,0,2250,0,79,0, 
1.2533,162.9,618.6,165.3,771.3,255.3,-39.3,102.3,254.1,-1704.3,99.0,188.1,-251.1,-1120.2,155.7,407.7,982.5,-6.6,-5.7,-75.9,-936.0,-1.2,153.3,237.9,-1377.6,0,2256,0,80,0, 
1.2567,213.9,640.5,177.6,780.9,529.5,-29.4,103.2,258.3,-1407.9,95.4,191.1,970.5,-1119.0,409.5,786.0,974.4,-6.9,-6.3,1320.3,2034.9,-0.6,155.1,241.2,-1368.9,0,2262,0,81,0, 
1.2600,156.6,626.1,173.7,767.1,343.5,-40.2,96.9,253.2,-1926.6,87.3,187.2,783.9,-1125.6,208.5,666.0,952.8,-6.9,-5.7,988.8,2136.6,-0.6,147.0,232.5,-1378.5,0,2268,0,82,0, 
1.2633,113.4,631.5,177.9,769.8,4.8,-35.4,93.6,250.8,-2519.4,92.7,193.8,-417.0,-1124.4,-159.3,197.4,952.5,-6.9,-5.7,-478.8,-641.4,-0.9,150.6,230.7,-1373.1,0,2274,0,83,0, 
1.2667,111.3,635.4,183.6,778.8,-102.3,-30.3,97.2,257.4,-2519.4,98.1,196.5,-1182.3,-1126.5,-240.0,-4.8,972.9,-7.2,-6.0,-1245.0,-2499.9,-1.2,153.3,234.0,-1371.0,0,2280,0,84,0, 
1.2700,168.9,630.9,173.7,784.2,143.1,-34.2,92.4,252.0,-1778.4,96.6,193.5,-391.2,-1120.5,171.0,381.9,967.2,-6.9,-6.0,-85.2,-889.2,-0.6,156.9,234.6,-1372.5,0,2286,0,85,0, 
1.2733,216.3,626.1,173.7,783.9,434.4,-33.9,92.1,246.6,-1407.9,89.1,190.8,771.9,-1118.4,390.6,794.1,978.6,-6.9,-6.0,1159.8,1950.0,-1.2,149.7,234.3,-1381.8,0,2292,0,86,0, 
1.2767,168.6,622.5,170.4,772.2,246.9,-36.0,90.6,243.9,-1704.3,89.7,186.3,732.9,-1125.3,182.1,635.1,965.1,-6.9,-6.3,934.5,2142.0,-0.9,149.4,237.0,-1379.4,0,2298,0,87,0, 
1.2800,115.5,630.6,178.5,776.1,-78.6,-28.5,95.1,252.0,-2445.3,104.1,193.2,-443.1,-1117.8,-226.8,163.2,968.4,-7.2,-6.0,-564.9,-661.5,-0.3,160.5,234.9,-1369.5,0,2304,0,88,0, 
1.2833,98.4,633.6,177.3,776.1,-171.0,-37.2,89.7,249.9,-2445.3,94.5,190.2,-1092.0,-1123.2,-246.3,25.5,971.1,-6.6,-6.0,-1131.0,-2477.4,-0.6,155.7,237.6,-1377.0,0,2310,0,89,0, 
1.2867,168.3,634.2,172.8,774.6,166.8,-37.5,88.5,253.5,-1852.5,96.0,189.3,-247.2,-1117.5,207.6,443.1,987.3,-7.2,-5.7,128.4,-843.9,-0.6,152.4,235.8,-1382.4,0,2316,0,90,0, 
1.2900,187.5,633.0,173.7,777.3,404.1,-36.3,92.1,251.7,-1259.7,94.2,187.8,818.4,-1114.5,422.1,760.8,989.1,-6.6,-6.0,1387.2,1913.4,-1.2,152.4,237.0,-1383.3,0,2322,0,91,0, 
1.2933,162.9,634.8,178.5,782.4,379.2,-35.7,97.5,253.8,-1926.6,105.6,199.2,703.8,-1125.3,213.0,618.6,986.1,-7.2,-5.7,1107.6,2070.6,-0.3,157.5,242.1,-1383.0,0,2328,0,92,0, 
1.2967,124.5,639.0,180.0,772.2,-23.7,-33.0,99.6,254.1,-2445.3,108.9,195.3,-539.1,-1148.7,-160.5,135.0,973.8,-6.9,-6.0,-535.8,-847.5,-0.9,160.8,244.8,-1378.5,0,2334,0,93,0, 
1.3000,105.6,634.8,177.9,773.4,-118.2,-37.5,93.9,254.1,-2519.4,91.2,198.9,-1201.2,-1131.3,-189.6,-22.5,977.1,-6.9,-6.0,-1198.5,-2777.7,-0.6,156.0,243.3,-1382.7,0,2340,0,94,0, 
1.3033,166.5,647.4,180.3,780.3,236.4,-37.8,94.2,252.0,-1556.1,86.7,192.6,-425.4,-1140.6,260.4,431.1,991.2,-6.6,-6.0,3.3,-968.4,-0.9,153.9,240.3,-1384.5,0,2346,0,95,0, 
1.3067,207.3,631.5,180.3,782.4,445.2,-37.2,96.6,252.0,-1333.8,97.5,193.5,803.1,-1107.6,514.2,781.5,996.6,-6.6,-6.0,1322.1,1904.7,-0.9,152.1,241.5,-1383.0,0,2352,0,96,0, 
1.3100,181.5,635.4,178.5,778.2,199.2,-38.7,95.4,250.8,-1778.4,101.1,193.8,648.9,-1122.0,186.6,603.0,972.0,-6.9,-6.0,878.7,1997.7,-1.2,150.6,243.3,-1384.8,0,2358,0,97,0, 
1.3133,163.2,640.8,182.4,785.7,81.3,-40.2,98.4,254.4,-2371.2,101.7,195.0,-210.6,-1113.6,10.8,343.8,981.6,-6.9,-6.0,-354.6,-483.0,-0.6,152.1,246.0,-1391.7,0,2364,0,98,0, 
1.3167,183.3,646.8,174.6,788.1,511.2,-36.3,97.5,249.6,-2445.3,99.3,196.2,-207.6,-1109.4,459.9,648.3,1006.2,-6.9,-5.7,-317.1,-1629.6,-0.9,155.4,246.3,-1381.5,0,2370,0,99,0, 
1.3200,208.2,643.5,172.2,786.3,592.2,-34.8,97.5,249.6,-1778.4,92.4,185.1,316.8,-1105.2,575.4,813.6,1002.3,-6.9,-6.0,555.9,-321.3,-0.9,146.1,237.3,-1385.4,0,2376,0,100,0, 
1.3233,249.3,637.2,169.2,784.8,783.0,-35.1,96.6,244.8,-1333.8,88.8,180.0,1402.8,-1110.6,709.2,1136.7,1006.2,-6.9,-5.7,1750.8,2552.7,-0.6,142.5,232.2,-1391.1,0,2382,0,101,0, 
1.3267,219.3,634.5,172.5,778.8,639.3,-39.6,96.6,240.0,-1926.6,90.9,187.5,1323.0,-1122.3,480.9,954.6,996.3,-6.9,-6.0,1328.4,2517.9,-0.9,144.3,232.2,-1389.3,0,2388,0,102,0, 
1.3300,137.7,635.4,175.2,777.9,235.2,-43.8,99.6,243.0,-2593.5,97.8,188.4,-10.8,-1116.6,105.6,405.6,984.0,-6.9,-5.7,-283.2,-435.9,-0.6,147.9,239.4,-1380.6,0,2394,0,103,0, 
1.3333,135.3,639.6,177.6,781.8,166.5,-36.0,92.4,225.3,-2593.5,99.0,193.8,-727.8,-1124.7,66.3,244.8,986.4,-6.6,-5.7,-980.4,-2358.3,-0.9,152.1,242.7,-1377.9,0,2400,0,104,0, 
1.3367,174.9,640.2,171.0,786.3,420.9,-48.0,90.6,198.9,-1630.2,90.9,186.6,19.8,-1123.2,346.5,530.4,997.5,-6.9,-6.0,71.4,-817.5,-0.6,147.6,233.1,-1382.7,0,2406,0,105,0, 
1.3400,219.0,640.2,171.3,788.7,622.2,-45.9,87.9,179.4,-1482.0,90.3,187.5,1053.0,-1120.5,490.8,820.2,994.5,-6.9,-6.3,1417.5,2049.9,-0.6,150.9,229.8,-1378.8,0,2412,0,106,0, 
1.3433,184.8,649.2,180.3,784.2,476.4,-39.3,93.6,171.0,-1852.5,97.8,194.1,868.8,-1119.3,300.3,682.2,990.0,-7.2,-6.0,1027.2,2230.5,-0.9,160.5,234.9,-1372.5,0,2418,0,107,0, 
1.3467,113.1,642.3,178.2,768.6,65.7,-44.1,89.7,162.6,-2519.4,93.0,192.3,-385.5,-1124.7,-85.5,211.5,982.2,-6.9,-5.7,-539.7,-573.3,-0.9,156.0,240.6,-1374.9,0,2424,0,108,0, 
1.3500,111.9,637.8,177.0,777.6,-36.9,-45.6,91.8,154.5,-2519.4,99.3,192.0,-1113.3,-1118.1,-186.9,36.3,993.6,-7.2,-6.0,-1166.4,-2471.4,-0.6,158.7,238.8,-1380.9,0,2430,0,109,0, 
1.3533,187.5,650.4,175.5,780.0,396.9,-47.7,96.6,147.6,-1630.2,93.6,195.6,-145.2,-1121.7,276.6,558.3,1008.3,-7.2,-6.0,3.6,-725.7,-0.9,152.1,238.8,-1380.6,0,2436,0,110,0, 
1.3567,211.5,645.9,172.8,778.5,653.4,-41.7,98.7,136.2,-1333.8,99.9,190.2,935.4,-1113.3,537.3,784.8,1003.5,-6.9,-6.0,1323.9,2115.6,-0.9,155.7,244.8,-1386.0,0,2442,0,111,0, 
1.3600,184.2,643.5,173.4,767.1,527.4,-50.4,93.0,128.1,-1852.5,87.0,188.4,768.0,-1125.6,243.0,716.1,991.5,-7.2,-5.7,1005.9,2175.0,-0.9,148.8,239.4,-1385.7,0,2448,0,112,0, 
1.3633,106.5,636.9,180.6,774.0,125.7,-48.6,102.6,117.3,-2519.4,105.6,195.6,-430.5,-1113.3,-151.8,276.3,988.5,-7.2,-6.0,-509.1,-706.2,-1.2,156.9,243.6,-1375.8,0,2454,0,113,0, 
1.3667,92.1,637.8,174.9,768.9,80.4,-54.0,91.5,82.8,-2445.3,92.4,190.8,-1046.7,-1123.8,-121.2,104.1,992.7,-7.2,-6.0,-1126.5,-2483.1,-0.9,152.4,230.7,-1377.3,0,2460,0,114,0, 
1.3700,166.5,636.0,170.1,776.1,411.3,-51.9,92.1,70.5,-1852.5,99.0,190.5,-242.4,-1115.4,283.8,477.3,1003.8,-7.2,-6.0,60.0,-796.8,-0.9,157.8,236.1,-1375.8,0,2466,0,115,0, 
1.3733,213.0,644.4,176.7,772.5,685.5,-49.2,91.2,59.4,-1407.9,84.3,190.5,990.0,-1115.4,437.7,807.0,994.5,-6.9,-6.0,1329.0,2031.0,-0.9,153.3,231.3,-1379.7,0,2472,0,116,0, 
1.3767,169.8,637.8,171.3,761.7,418.5,-51.3,96.0,50.1,-1926.6,95.1,190.8,868.2,-1115.7,225.9,600.9,982.5,-7.2,-6.0,926.4,1995.6,-0.9,153.9,236.4,-1372.5,0,2478,0,117,0, 
1.3800,88.8,641.1,176.4,767.4,52.5,-50.1,97.8,40.5,-2445.3,93.9,194.7,-385.2,-1118.7,-143.4,117.9,982.5,-6.9,-6.3,-577.2,-697.2,-0.9,157.5,238.8,-1373.7,0,2484,0,118,0, 
1.3833,99.0,641.7,173.7,767.7,59.7,-61.5,90.0,34.8,-2519.4,96.0,189.0,-874.2,-1110.6,-80.1,-22.5,990.6,-7.2,-6.0,-1115.1,-2594.1,-0.6,151.8,231.0,-1384.2,0,2490,0,119,0, 
1.3867,170.1,642.9,173.7,768.9,421.2,-60.9,88.2,24.6,-1704.3,89.4,188.1,-125.4,-1119.0,229.8,422.7,1004.7,-7.5,-6.0,30.3,-865.2,-0.6,146.1,226.8,-1385.1,0,2496,0,120,0, 
1.3900,214.5,640.5,171.0,766.2,662.1,-63.0,88.5,15.9,-1333.8,93.0,184.5,1028.1,-1121.4,446.7,835.5,994.8,-6.6,-5.4,1299.9,1948.2,-1.2,145.8,229.2,-1387.2,0,2502,0,121,0, 
1.3933,163.5,639.0,168.3,768.9,411.9,-65.1,90.6,9.9,-1852.5,96.9,186.9,851.1,-1127.4,253.2,690.0,971.7,-6.9,-5.4,860.7,1932.0,-0.6,147.6,232.5,-1385.7,0,2508,0,122,0, 
1.3967,110.4,633.3,169.8,762.6,118.2,-60.9,90.3,3.3,-2519.4,91.2,187.8,-310.5,-1126.5,-139.8,224.1,978.6,-6.6,-5.7,-607.8,-853.8,-0.6,153.6,233.7,-1390.2,0,2514,0,123,0, 
1.4000,102.3,632.4,168.6,766.5,92.7,-56.4,90.9,5.7,-2445.3,89.4,185.7,-932.7,-1131.3,-105.6,106.2,984.0,-7.2,-6.3,-1212.9,-2562.9,-0.3,151.5,231.9,-1383.6,0,2520,0,124,0, 
1.4033,160.2,630.6,162.3,765.6,396.9,-56.7,95.7,-2.7,-1852.5,82.5,177.9,-170.7,-1128.6,238.2,463.2,995.7,-6.9,-5.7,-20.7,-914.7,-0.9,144.6,230.1,-1382.7,0,2526,0,125,0, 
1.4067,189.3,631.5,165.0,767.7,601.5,-54.9,94.2,-3.0,-1333.8,86.4,180.9,850.8,-1125.3,442.2,866.1,983.4,-6.9,-5.7,1280.7,1938.3,-0.9,147.0,235.2,-1377.9,0,2532,0,126,0, 
1.4100,142.2,628.5,167.4,764.7,503.1,-54.3,93.9,-4.2,-1926.6,81.6,184.5,793.2,-1118.1,276.0,724.8,984.0,-6.9,-6.3,959.4,2038.8,-0.6,141.9,234.9,-1376.7,0,2538,0,127,0, 
1.4133,60.0,631.8,165.0,756.6,180.6,-51.3,96.3,-8.1,-2593.5,86.1,181.2,-380.4,-1120.8,-86.4,278.1,973.5,-6.9,-5.7,-555.0,-726.0,-0.9,150.9,235.2,-1377.6,0,2544,0,128,0, 
1.4167,91.2,626.7,165.0,763.2,109.8,-48.3,97.8,-12.9,-2593.5,87.6,183.3,-1068.3,-1120.5,-101.1,85.2,985.5,-6.9,-6.0,-1178.1,-2537.7,-0.3,148.8,239.1,-1375.8,0,2550,0,129,0, 
1.4200,140.1,629.4,162.6,756.3,414.9,-56.7,92.1,-11.4,-1704.3,88.5,177.3,-242.4,-1125.6,245.4,484.2,999.3,-7.2,-6.0,-143.1,-852.6,-0.9,143.4,231.0,-1382.4,0,2556,0,130,0, 
1.4233,180.0,635.7,161.7,760.2,721.8,-51.0,88.2,-21.0,-1407.9,75.9,171.3,972.0,-1130.1,338.1,889.5,990.0,-7.2,-6.0,1185.3,2069.4,-0.9,135.6,222.3,-1384.8,0,2562,0,131,0, 
1.4267,154.2,630.3,162.6,755.1,507.3,-44.7,96.6,-18.0,-1852.5,88.8,179.4,853.2,-1142.1,253.2,731.4,974.4,-6.9,-6.3,879.0,2218.8,-0.6,147.3,231.0,-1382.4,0,2568,0,132,0, 
1.4300,47.1,612.6,156.6,747.6,139.8,-50.1,92.7,-26.1,-2519.4,82.5,173.4,-435.3,-1138.5,-117.3,229.8,971.7,-6.9,-6.0,-639.6,-630.9,-0.9,144.9,226.8,-1386.9,0,2574,0,133,0, 
1.4333,66.6,624.0,158.7,759.0,78.3,-44.7,95.7,-24.6,-2371.2,78.9,173.4,-1168.5,-1141.8,-114.9,121.2,980.4,-7.5,-6.3,-1238.1,-2468.1,-0.9,143.1,223.5,-1380.6,0,2580,0,134,0, 
1.4367,135.0,616.2,148.2,758.1,446.4,-51.6,96.3,-28.8,-1778.4,78.6,166.2,-262.2,-1134.0,281.4,567.0,1004.4,-7.2,-5.4,34.8,-616.8,-0.6,133.2,224.1,-1388.1,0,2586,0,135,0, 
1.4400,177.6,626.7,150.0,760.2,644.4,-51.9,93.0,-30.3,-1333.8,77.1,174.6,774.9,-1135.2,447.6,887.7,985.2,-6.9,-6.0,1292.1,2088.0,-0.3,132.6,221.7,-1382.4,0,2592,0,136,0, 
1.4433,127.5,617.4,145.5,753.6,499.5,-56.1,86.4,-41.1,-1704.3,79.5,171.6,685.5,-1138.2,243.9,729.9,992.1,-6.9,-6.0,967.8,2154.9,-0.6,129.0,217.5,-1385.1,0,2598,0,137,0, 
1.4467,59.4,621.9,152.4,750.3,146.7,-55.5,92.1,-39.6,-2445.3,85.2,176.1,-540.9,-1142.4,-135.3,221.4,981.9,-6.9,-6.0,-603.6,-657.0,-0.9,139.5,224.7,-1374.3,0,2604,0,138,0, 
1.4500,62.1,622.2,153.6,753.9,127.8,-50.1,90.3,-38.7,-2445.3,86.4,179.1,-1233.3,-1131.3,-131.7,69.9,1001.4,-7.2,-6.0,-1212.0,-2438.4,-1.2,136.2,225.6,-1378.2,0,2610,0,139,0, 
1.4533,124.2,626.7,155.4,763.2,427.5,-48.9,101.4,-42.9,-1778.4,88.2,182.1,-402.9,-1127.1,259.5,447.3,1002.0,-6.9,-6.0,-24.0,-750.0,-0.6,136.2,233.7,-1383.6,0,2616,0,140,0, 
1.4567,156.6,621.0,154.5,761.1,639.6,-51.6,93.0,-45.9,-1407.9,79.2,179.7,775.2,-1122.6,425.7,833.7,1008.0,-7.2,-6.3,1155.6,2063.4,-0.9,132.9,219.3,-1383.6,0,2622,0,141,0, 
1.4600,128.7,625.8,158.4,755.1,472.8,-49.2,96.6,-44.7,-1778.4,90.0,181.8,627.9,-1127.1,210.6,718.5,993.0,-6.9,-5.7,874.8,2244.3,-0.6,137.4,232.8,-1379.7,0,2628,0,142,0, 
1.4633,50.1,620.7,153.3,739.8,76.8,-52.2,100.2,-48.9,-2593.5,83.1,175.2,-596.7,-1139.4,-192.0,258.3,990.6,-7.2,-6.0,-554.1,-521.1,-0.9,130.2,236.7,-1375.5,0,2634,0,143,0, 
1.4667,57.9,619.5,152.1,740.1,18.3,-56.1,94.5,-54.0,-2445.3,84.3,173.1,-1193.7,-1127.7,-152.4,120.3,1005.9,-7.2,-6.0,-1127.1,-2395.8,-0.6,135.6,227.7,-1379.4,0,2640,0,144,0, 
1.4700,126.6,631.2,154.2,746.7,333.3,-52.8,96.9,-56.1,-1704.3,86.7,173.4,-335.1,-1117.8,182.4,534.9,1011.0,-7.2,-6.3,-34.2,-698.4,-0.6,139.2,229.8,-1382.4,0,2646,0,145,0, 
1.4733,178.5,633.6,158.4,763.2,637.2,-48.9,93.3,-57.0,-1407.9,90.9,181.8,890.4,-1114.5,490.2,897.9,1022.1,-6.9,-5.7,1317.0,2224.2,-0.6,137.1,228.6,-1382.4,0,2652,0,146,0, 
1.4767,150.6,634.2,162.9,759.9,498.0,-52.8,94.5,-60.0,-1852.5,87.6,183.3,784.5,-1117.8,249.0,746.7,999.6,-7.2,-5.7,916.2,2300.4,-0.9,141.3,231.9,-1380.0,0,2658,0,147,0, 
1.4800,84.9,627.6,160.5,751.8,50.7,-51.3,92.1,-58.8,-2519.4,92.1,184.2,-407.7,-1127.4,-138.6,234.9,981.6,-6.9,-6.0,-653.4,-708.9,-0.9,151.5,233.4,-1374.6,0,2664,0,148,0, 
1.4833,101.1,644.4,167.4,759.0,25.8,-58.5,90.9,-58.2,-2445.3,85.2,181.8,-1036.5,-1123.8,-144.0,23.4,987.0,-7.2,-5.7,-1241.1,-2511.3,-0.9,147.3,225.9,-1374.9,0,2670,0,149,0, 
1.4867,162.6,643.5,163.8,771.9,376.8,-53.7,89.4,-61.2,-1852.5,96.6,187.5,-121.8,-1119.9,210.3,436.5,998.7,-6.9,-6.0,-7.2,-857.1,-0.6,156.6,230.1,-1373.7,0,2676,0,150,0, 
1.4900,191.7,647.4,165.9,778.5,613.5,-52.8,92.1,-65.7,-1407.9,86.1,181.2,910.5,-1113.6,476.7,857.4,995.7,-6.6,-6.3,1268.7,2105.7,-0.9,151.8,228.0,-1376.4,0,2682,0,151,0, 
1.4933,132.0,623.7,156.0,772.8,362.7,-51.3,92.7,-72.3,-1852.5,92.7,179.4,712.8,-1120.8,193.8,622.2,987.0,-7.2,-6.0,858.0,2114.7,-1.2,148.8,226.5,-1377.3,0,2688,0,152,0, 
1.4967,82.8,627.0,164.4,761.4,80.4,-49.8,90.6,-74.1,-2519.4,90.9,180.9,-462.9,-1123.8,-153.6,146.7,971.7,-6.6,-6.0,-709.2,-704.1,-0.9,145.5,224.4,-1377.0,0,2694,0,153,0, 
1.5000,75.3,627.9,158.4,757.8,-25.2,-51.6,90.6,-77.7,-2593.5,87.9,177.3,-1110.3,-1125.6,-129.9,30.9,981.6,-6.9,-5.7,-1247.7,-2459.1,-0.6,147.3,230.7,-1372.2,0,2700,0,154,0, 
1.5033,144.6,629.7,153.3,772.8,276.3,-47.4,89.4,-80.1,-1704.3,84.0,176.1,-260.4,-1127.1,294.0,399.3,999.3,-6.3,-5.7,-70.2,-562.8,-0.6,141.9,225.9,-1377.6,0,2706,0,155,0, 
1.5067,162.0,626.4,153.6,766.5,563.7,-52.8,86.1,-88.8,-1333.8,76.2,174.3,897.0,-1131.9,535.8,738.3,1002.6,-6.6,-6.0,1167.6,2207.4,-0.9,142.5,222.3,-1383.0,0,2712,0,156,0, 
1.5100,148.5,630.6,152.4,751.8,417.0,-59.1,90.9,-88.8,-1778.4,81.6,176.1,776.1,-1127.4,267.3,645.6,985.8,-6.9,-5.7,781.2,2277.3,-0.9,148.5,226.5,-1380.0,0,2718,0,157,0, 
1.5133,89.1,627.9,153.0,748.8,83.4,-59.7,96.6,-84.6,-2593.5,88.8,176.1,-399.0,-1135.8,-183.0,134.1,991.5,-7.5,-6.0,-734.7,-531.3,-0.9,149.1,223.5,-1382.7,0,2724,0,158,0, 
1.5167,88.8,630.0,155.7,753.0,20.1,-48.3,92.1,-86.7,-2445.3,86.1,175.5,-1104.6,-1129.8,-290.7,-36.9,990.9,-7.2,-5.7,-1437.0,-2494.5,-0.9,150.0,230.7,-1375.8,0,2730,0,159,0, 
1.5200,159.9,628.5,151.2,763.8,417.9,-58.2,94.8,-89.1,-1778.4,81.3,171.6,-143.1,-1133.1,152.1,381.3,1000.5,-6.9,-6.3,-248.7,-713.4,-0.9,141.9,231.6,-1385.1,0,2736,0,160,0, 
1.5233,199.5,623.7,148.2,755.1,621.6,-60.3,88.8,-94.5,-1333.8,74.4,167.7,918.0,-1148.1,366.0,719.4,1010.7,-7.2,-5.7,1012.5,2124.6,-0.9,141.6,228.3,-1382.4,0,2742,0,161,0, 
1.5267,160.8,627.9,150.3,753.3,512.4,-59.1,93.3,-97.5,-1778.4,81.0,170.4,874.5,-1151.1,204.6,623.7,986.4,-6.9,-6.0,749.7,2284.5,-1.2,140.4,219.3,-1377.9,0,2748,0,162,0, 
1.5300,63.0,627.6,150.9,752.1,90.6,-55.8,90.6,-97.2,-2519.4,72.9,172.5,-365.7,-1153.8,-171.6,105.0,965.7,-7.2,-6.0,-685.8,-534.9,-0.9,135.3,222.3,-1381.8,0,2754,0,163,0, 
1.5333,71.7,631.5,152.7,763.2,44.4,-53.7,90.6,-93.9,-2593.5,78.9,174.9,-1154.4,-1145.1,-328.8,-106.5,985.5,-6.9,-6.0,-1337.4,-2457.0,-0.6,137.1,224.1,-1377.9,0,2760,0,164,0, 
1.5367,142.8,636.6,151.2,765.6,325.8,-49.8,87.0,-92.4,-1630.2,83.1,176.1,-309.0,-1146.6,74.4,312.0,998.4,-7.2,-6.0,-131.7,-597.0,-0.6,139.5,229.8,-1379.1,0,2766,0,165,0, 
1.5400,187.5,633.6,152.1,770.1,548.4,-46.5,88.8,-91.2,-1259.7,82.8,178.5,789.9,-1140.0,316.8,651.9,988.2,-7.2,-5.7,1191.9,2241.9,-0.3,139.8,230.1,-1381.8,0,2772,0,166,0, 
1.5433,156.6,633.6,150.0,758.4,369.6,-52.8,93.3,-96.6,-1852.5,81.9,179.4,705.0,-1146.6,177.3,549.9,982.5,-6.9,-6.3,827.7,2291.4,-0.9,148.5,231.0,-1374.0,0,2778,0,167,0, 
1.5467,80.7,633.3,150.6,756.6,-22.2,-55.8,91.5,-103.8,-2519.4,87.3,179.1,-502.2,-1160.1,-269.4,63.3,983.4,-6.9,-6.0,-647.1,-527.4,-0.6,148.8,230.4,-1366.5,0,2784,0,168,0, 
1.5500,66.3,625.8,153.9,762.9,-78.0,-51.9,95.1,-105.6,-2445.3,88.2,186.9,-1189.8,-1144.5,-254.7,-125.7,964.8,-7.2,-5.7,-1259.1,-2441.1,-0.9,151.5,237.3,-1365.6,0,2790,0,169,0, 
1.5533,138.6,641.7,149.1,764.4,290.1,-54.3,87.0,-107.1,-1704.3,84.6,184.2,-291.6,-1140.3,141.3,330.9,988.5,-7.2,-6.0,-55.8,-526.2,-0.9,151.8,230.4,-1371.3,0,2796,0,170,0, 
1.5567,198.0,630.9,151.2,774.0,626.1,-51.6,86.7,-105.9,-1259.7,87.0,189.6,960.6,-1114.5,389.1,801.3,992.4,-7.2,-5.4,1185.0,2244.0,-0.9,152.4,236.1,-1369.2,0,2802,0,171,0, 
1.5600,138.6,630.0,152.1,758.7,393.9,-46.2,87.6,-110.7,-1926.6,98.1,187.8,768.0,-1127.7,160.5,592.5,985.8,-7.2,-6.0,749.1,2262.9,-0.9,156.6,237.0,-1372.2,0,2808,0,172,0, 
1.5633,83.1,646.2,163.2,769.5,10.8,-41.4,95.1,-100.8,-2445.3,106.5,195.9,-424.8,-1121.4,-207.0,124.5,982.8,-7.2,-5.7,-716.4,-584.7,-0.9,160.5,244.5,-1356.3,0,2814,0,173,0, 
1.5667,74.4,643.2,163.5,771.6,-32.4,-42.0,93.0,-105.3,-2371.2,105.9,195.0,-1043.7,-1113.9,-117.6,12.6,994.8,-6.6,-6.0,-1248.6,-2434.8,-0.6,159.0,239.4,-1362.0,0,2820,0,174,0, 
1.5700,158.1,647.7,157.5,774.0,243.6,-43.5,95.4,-108.6,-1704.3,111.9,197.1,-270.0,-1110.0,300.9,382.5,1003.8,-6.9,-5.4,-36.6,-810.9,-0.9,163.8,237.6,-1356.9,0,2826,0,175,0, 
1.5733,180.6,654.0,155.7,769.2,551.4,-45.3,91.2,-117.0,-1333.8,103.2,190.2,951.0,-1115.7,536.7,693.0,997.5,-6.9,-6.0,1247.7,2111.1,-0.9,162.9,234.0,-1367.4,0,2832,0,176,0, 
1.5767,159.0,650.1,158.4,761.7,417.9,-45.3,91.5,-117.6,-1778.4,111.9,194.1,829.2,-1112.7,295.8,543.3,999.0,-6.9,-5.7,822.0,2204.1,-0.9,167.7,236.7,-1371.0,0,2838,0,177,0, 
1.5800,78.6,641.1,155.4,756.0,0.3,-48.9,90.0,-121.5,-2593.5,103.2,190.5,-432.0,-1120.2,-16.5,24.3,990.9,-7.2,-5.7,-605.7,-719.1,-0.6,162.9,235.5,-1372.8,0,2844,0,178,0, 
1.5833,66.3,647.1,158.7,756.9,-27.6,-52.2,87.3,-120.0,-2519.4,102.3,191.7,-1099.5,-1110.6,-34.2,-124.2,984.9,-6.9,-6.0,-1162.2,-2509.8,-1.2,162.3,233.7,-1375.8,0,2850,0,179,0, 
1.5867,119.1,647.4,149.4,754.5,279.6,-54.6,85.2,-127.5,-1704.3,96.6,183.6,-351.3,-1119.0,324.0,199.8,985.2,-6.9,-5.4,-4.2,-827.4,-0.9,153.0,224.4,-1381.2,0,2856,0,180,0, 
1.5900,203.4,656.7,153.9,766.5,530.1,-50.7,91.8,-126.0,-1407.9,105.6,186.3,789.3,-1108.5,495.3,573.6,994.5,-7.2,-6.0,1205.7,2014.2,-0.6,152.4,235.5,-1372.2,0,2862,0,181,0, 
1.5933,155.1,651.9,155.4,770.1,409.5,-51.3,96.0,-130.8,-1852.5,104.1,184.8,663.6,-1119.3,308.4,498.6,986.4,-6.6,-6.3,894.6,2161.5,-1.2,154.8,232.5,-1371.3,0,2868,0,182,0, 
1.5967,79.8,645.3,151.8,757.8,-2.4,-56.1,96.9,-132.9,-2667.6,106.2,185.7,-485.4,-1122.3,-56.7,44.4,978.3,-7.2,-5.7,-609.0,-620.4,-0.9,153.3,228.0,-1383.3,0,2874,0,183,0, 
1.6000,81.6,654.3,156.3,763.2,-34.5,-56.4,92.4,-132.0,-2445.3,102.9,185.7,-1083.9,-1130.7,-40.2,-128.4,987.6,-6.9,-6.0,-1149.0,-2478.0,-0.6,162.6,228.6,-1377.6,0,2880,0,184,0, 
1.6033,114.9,639.3,149.4,769.5,95.1,-59.7,83.7,-135.9,-1778.4,100.2,179.7,-503.4,-1127.1,55.5,67.8,986.1,-7.5,-5.7,-121.8,-966.0,-0.6,156.3,228.6,-1382.4,0,2886,0,185,0, 
1.6067,133.2,640.5,151.5,767.1,147.3,-55.8,87.3,-139.2,-1407.9,98.1,180.0,191.1,-1125.3,-12.6,235.5,978.6,-6.6,-6.3,669.9,1313.7,-1.2,154.8,225.0,-1380.3,0,2892,0,186,0, 
1.6100,124.2,651.3,149.7,771.0,75.3,-56.7,92.7,-139.8,-1926.6,101.4,180.3,183.0,-1129.2,-126.6,223.5,983.4,-7.2,-5.7,455.7,1560.3,-1.2,158.7,231.3,-1380.6,0,2898,0,187,0, 
1.6133,57.9,636.6,156.0,761.1,-203.7,-54.3,92.1,-141.0,-2593.5,94.8,188.4,-995.1,-1126.2,-463.8,-184.2,973.8,-6.9,-6.0,-1012.5,-1115.7,-0.9,156.9,229.5,-1377.9,0,2904,0,188,0, 
1.6167,52.5,644.1,153.0,767.7,-123.3,-57.3,93.6,-140.7,-2371.2,104.1,180.0,-1513.5,-1129.5,-368.7,-267.3,971.1,-7.2,-6.0,-1586.7,-2817.3,-1.2,158.7,238.5,-1375.2,0,2910,0,189,0, 
1.6200,145.2,633.0,143.4,767.1,148.8,-53.4,92.1,-146.4,-1778.4,92.4,177.3,-674.1,-1117.2,-4.8,86.7,984.0,-6.9,-5.7,-342.3,-1000.2,-0.6,150.6,231.0,-1380.9,0,2916,0,190,0, 
1.6233,191.7,641.7,150.0,770.7,381.3,-54.9,92.7,-148.2,-1407.9,88.8,179.7,468.3,-1121.4,161.7,468.0,986.7,-6.9,-6.0,905.1,1861.2,-0.6,150.9,228.0,-1385.4,0,2922,0,191,0, 
1.6267,138.3,641.4,145.5,766.8,276.0,-59.7,93.3,-147.0,-1926.6,96.0,178.8,452.1,-1117.5,67.2,350.4,972.6,-7.2,-5.7,636.9,2060.7,-0.9,148.8,232.8,-1379.1,0,2928,0,192,0, 
1.6300,68.7,644.4,153.3,768.6,-134.7,-51.6,96.3,-146.1,-2593.5,100.5,182.1,-850.5,-1121.4,-303.9,-153.3,972.3,-6.6,-5.7,-874.8,-820.5,-0.6,152.1,232.5,-1375.8,0,2934,0,193,0, 
1.6333,74.7,648.3,151.2,765.3,-176.7,-54.0,95.1,-148.8,-2371.2,93.6,179.7,-1380.9,-1120.2,-366.3,-191.7,981.9,-7.2,-6.0,-1341.0,-2683.2,-0.9,149.4,227.4,-1373.7,0,2940,0,194,0, 
1.6367,139.8,644.4,150.9,775.8,145.5,-52.8,92.7,-153.9,-1556.1,91.2,180.0,-446.4,-1114.5,22.5,222.3,987.6,-6.9,-5.7,-264.6,-889.5,-0.6,146.1,229.8,-1376.7,0,2946,0,195,0, 
1.6400,196.5,643.5,144.9,771.3,329.4,-54.9,86.4,-157.5,-1482.0,84.3,175.2,527.4,-1111.5,180.9,559.5,982.5,-6.9,-6.3,910.5,1867.8,-0.9,141.0,221.7,-1382.1,0,2952,0,196,0, 
1.6433,167.1,642.0,147.9,772.8,237.0,-51.6,87.0,-157.8,-1778.4,88.2,175.2,470.1,-1102.8,30.0,444.3,967.2,-7.2,-5.7,567.0,2031.6,-1.2,145.8,222.0,-1383.9,0,2958,0,197,0, 
1.6467,96.9,645.3,156.0,771.6,-143.1,-48.9,88.5,-149.4,-2593.5,88.2,183.0,-727.5,-1114.2,-378.3,-8.1,975.9,-7.2,-5.7,-932.4,-826.2,-0.9,153.6,232.2,-1382.7,0,2964,0,198,0, 
1.6500,97.8,644.4,153.9,765.0,-190.8,-52.2,91.5,-150.6,-2593.5,90.3,176.4,-1304.7,-1118.7,-269.1,-159.3,979.5,-6.9,-6.0,-1491.0,-2645.4,-0.6,144.6,230.1,-1385.4,0,2970,0,199,0, 
1.6533,146.1,642.0,148.8,765.6,198.6,-53.4,83.4,-150.9,-1704.3,82.5,171.6,-445.2,-1122.6,162.6,184.2,990.6,-7.2,-6.0,-344.7,-964.5,-0.3,135.9,218.1,-1388.7,0,2976,0,200,0, 
1.6567,198.0,647.1,154.8,772.8,481.2,-44.4,90.6,-147.9,-1407.9,89.7,173.7,723.0,-1119.6,412.8,607.8,989.7,-6.9,-5.7,944.1,1924.5,-0.6,141.9,227.7,-1385.7,0,2982,0,201,0, 
1.6600,136.2,639.6,153.3,771.3,281.1,-48.9,86.1,-147.6,-1926.6,85.2,179.7,452.7,-1135.8,53.4,384.6,967.8,-7.5,-5.7,551.4,1965.9,-0.9,143.4,223.2,-1381.2,0,2988,0,202,0, 
1.6633,97.8,645.6,159.9,774.3,-71.7,-48.6,94.5,-138.3,-2519.4,98.1,182.1,-696.3,-1126.8,-199.2,-44.4,970.2,-6.6,-6.3,-841.5,-779.7,-0.6,146.1,226.2,-1383.9,0,2994,0,203,0, 
1.6667,84.3,637.5,150.0,767.4,-152.1,-52.5,91.2,-144.0,-2593.5,86.1,179.7,-1448.7,-1131.6,-260.1,-207.9,958.5,-6.9,-6.0,-1509.6,-2718.6,-0.9,140.4,221.1,-1390.8,0,3000,0,204,0, 
1.6700,148.8,641.7,142.2,762.0,157.8,-54.9,93.3,-141.9,-1852.5,80.4,172.2,-479.1,-1130.4,152.7,182.1,988.5,-6.9,-6.0,-247.8,-877.2,-0.9,149.4,219.9,-1388.4,0,3006,0,205,0, 
1.6733,185.4,641.4,143.1,758.1,423.0,-55.2,85.2,-148.5,-1407.9,66.3,166.2,676.2,-1145.4,336.3,521.1,977.7,-6.6,-6.0,1030.2,1855.5,-1.2,126.0,214.5,-1397.7,0,3012,0,206,0, 
1.6767,139.5,621.9,136.5,752.7,275.1,-58.8,83.7,-147.6,-1778.4,75.0,163.5,554.7,-1140.9,100.8,367.8,971.7,-6.6,-6.0,672.3,1933.2,-0.9,136.8,218.7,-1395.6,0,3018,0,207,0, 
1.6800,81.3,626.1,143.1,750.0,-137.4,-53.4,90.3,-143.7,-2519.4,81.0,173.7,-572.4,-1137.9,-284.4,-99.6,960.9,-6.9,-5.4,-770.4,-816.6,-0.9,138.0,220.8,-1396.8,0,3024,0,208,0, 
1.6833,82.5,630.3,142.5,747.3,-137.4,-56.1,86.1,-138.3,-2445.3,76.5,167.4,-1064.1,-1132.5,-240.6,-150.9,982.2,-6.9,-5.7,-1281.6,-2555.4,-1.2,134.1,223.2,-1389.6,0,3030,0,209,0, 
1.6867,157.5,629.7,147.9,763.8,122.4,-51.6,89.1,-131.1,-1778.4,78.9,168.0,-246.9,-1134.6,168.6,215.4,997.8,-7.2,-6.0,-152.4,-881.7,-0.9,131.1,222.9,-1392.6,0,3036,0,210,0, 
1.6900,189.6,630.0,141.9,752.7,372.6,-54.0,91.2,-122.1,-1482.0,80.1,166.8,812.1,-1138.8,420.9,573.6,996.9,-6.6,-5.4,1087.5,1854.0,-0.9,132.9,223.2,-1389.6,0,3042,0,211,0, 
1.6933,152.4,630.9,145.8,752.1,251.4,-48.3,88.8,-120.6,-1778.4,77.7,167.4,801.0,-1141.5,219.6,492.6,975.3,-7.2,-6.0,846.3,2147.4,-1.2,135.6,223.5,-1384.2,0,3048,0,212,0, 
1.6967,71.4,634.5,149.7,753.6,-128.4,-50.4,90.6,-108.6,-2519.4,78.6,174.6,-469.8,-1148.4,-239.4,38.1,958.5,-6.9,-6.0,-659.4,-720.9,-0.6,141.0,225.6,-1385.4,0,3054,0,213,0, 
1.7000,74.4,622.2,144.6,753.6,-193.2,-53.4,86.4,-106.5,-2371.2,80.4,164.7,-1215.3,-1143.3,-217.8,-139.2,963.9,-6.6,-6.0,-1294.2,-2517.0,-0.6,136.8,219.9,-1390.8,0,3060,0,214,0, 
1.7033,138.6,625.8,147.0,763.2,125.7,-49.2,86.1,-93.3,-1704.3,75.9,164.4,-395.4,-1134.0,116.1,279.0,992.4,-6.9,-6.0,-120.0,-773.4,-0.3,131.7,223.5,-1393.2,0,3066,0,215,0, 
1.7067,191.7,627.3,144.9,764.7,373.5,-51.0,84.0,-84.9,-1407.9,72.3,169.8,706.5,-1126.8,324.0,593.7,993.9,-7.2,-6.0,1134.9,1901.1,-0.9,127.8,218.1,-1386.6,0,3072,0,216,0, 
1.7100,124.8,627.0,145.2,753.0,222.3,-56.7,88.5,-77.4,-1852.5,76.8,166.8,699.3,-1138.2,63.3,526.5,984.0,-6.6,-6.0,878.7,2077.8,-0.9,125.7,222.3,-1386.0,0,3078,0,217,0, 
1.7133,87.9,627.9,147.6,752.1,-165.9,-51.9,91.8,-55.8,-2519.4,79.2,168.6,-546.6,-1135.8,-233.1,12.9,978.0,-7.2,-6.0,-614.4,-764.1,-1.2,137.4,226.8,-1378.2,0,3084,0,218,0, 
1.7167,78.0,630.0,146.1,749.4,-176.4,-54.6,95.1,-19.8,-2371.2,78.6,165.3,-1249.2,-1136.1,-329.4,-139.2,980.1,-6.6,-6.0,-1255.8,-2690.7,-0.3,135.0,222.9,-1379.1,0,3090,0,219,0, 
1.7200,128.4,633.3,136.8,748.2,234.6,-56.1,88.2,-2.1,-1630.2,77.1,164.7,-373.8,-1137.6,105.3,293.4,993.6,-6.9,-5.7,-72.0,-896.7,-0.9,128.4,220.2,-1389.0,0,3096,0,220,0, 
1.7233,180.0,636.9,145.5,758.4,461.4,-55.2,86.4,22.5,-1333.8,74.7,166.2,694.2,-1127.1,360.6,602.4,993.3,-6.9,-5.7,1106.1,1814.7,-0.9,132.9,221.1,-1387.2,0,3102,0,221,0, 
1.7267,137.4,636.3,142.2,752.1,364.8,-51.9,90.0,40.8,-1778.4,75.0,173.1,652.2,-1141.2,158.4,497.1,986.4,-6.9,-5.7,823.5,1985.1,-0.9,134.4,227.4,-1382.4,0,3108,0,222,0, 
1.7300,73.8,644.4,151.5,742.8,-58.8,-48.0,95.4,62.1,-2371.2,83.1,172.2,-511.8,-1149.3,-212.4,-19.2,969.6,-6.9,-6.0,-711.9,-878.1,-0.9,142.8,235.8,-1372.8,0,3114,0,223,0, 
1.7333,73.5,631.5,151.5,739.2,-147.9,-57.0,90.6,68.1,-2371.2,82.8,178.2,-1025.4,-1140.6,-177.9,-112.5,983.1,-7.5,-6.0,-1218.0,-2613.0,-0.9,140.7,233.1,-1382.1,0,3120,0,224,0, 
1.7367,144.9,638.4,154.8,751.2,142.8,-57.0,87.9,86.1,-1852.5,78.0,175.2,-204.0,-1131.0,158.4,232.2,991.5,-7.2,-6.0,-78.9,-879.9,-1.2,131.7,230.1,-1384.8,0,3126,0,225,0, 
1.7400,178.2,624.6,150.0,758.7,398.4,-49.8,90.0,125.4,-1407.9,87.3,179.7,832.8,-1125.9,372.3,567.0,999.9,-6.9,-6.0,1039.5,1866.9,-0.6,136.5,226.8,-1379.4,0,3132,0,226,0, 
1.7433,161.7,632.1,151.8,750.9,334.8,-56.4,86.4,147.3,-1852.5,83.4,176.1,786.0,-1128.9,119.1,459.0,984.3,-6.9,-6.0,718.2,2069.4,-1.5,134.7,222.0,-1383.0,0,3138,0,227,0, 
1.7467,79.2,630.9,154.2,744.0,-80.1,-57.0,91.2,157.5,-2519.4,87.6,182.1,-545.4,-1139.4,-331.2,-0.9,976.5,-7.2,-6.0,-789.0,-677.7,-0.9,144.9,229.2,-1383.3,0,3144,0,228,0, 
1.7500,90.3,621.9,144.9,747.3,-71.4,-62.7,85.2,162.9,-2445.3,72.3,168.0,-1176.3,-1143.6,-288.3,-33.3,975.9,-6.9,-5.7,-1291.8,-2468.4,-1.2,135.9,225.3,-1387.5,0,3150,0,229,0, 
1.7533,144.3,619.5,136.8,748.5,267.0,-54.0,87.6,171.3,-1778.4,72.3,166.5,-275.4,-1144.8,204.3,399.9,992.1,-7.2,-6.6,-87.9,-705.9,-0.6,132.6,224.4,-1389.3,0,3156,0,230,0, 
1.7567,168.9,625.5,139.8,748.8,444.0,-61.8,84.0,181.2,-1482.0,71.7,163.5,678.6,-1151.7,341.1,668.7,988.8,-7.2,-6.0,979.8,1927.5,-0.9,129.0,219.9,-1389.3,0,3162,0,231,0, 
1.7600,146.4,624.6,139.2,746.4,333.9,-59.7,80.7,186.0,-2000.7,65.7,163.8,603.9,-1149.9,189.9,601.5,981.9,-6.6,-5.7,745.5,2148.9,-0.9,123.9,219.0,-1384.8,0,3168,0,232,0, 
1.7633,85.5,624.0,146.7,750.9,-63.9,-55.2,89.4,197.7,-2519.4,76.8,166.2,-628.8,-1158.0,-252.0,68.4,984.0,-6.9,-5.7,-691.5,-745.2,-0.9,135.6,225.9,-1376.7,0,3174,0,233,0, 
1.7667,99.9,635.1,155.7,762.0,-70.2,-47.1,94.8,210.0,-2445.3,71.4,175.8,-1154.4,-1148.1,-160.2,-44.1,987.9,-6.9,-6.0,-1215.3,-2446.5,-0.9,138.3,227.4,-1373.4,0,3180,0,234,0, 
1.7700,153.6,633.0,155.1,762.6,209.4,-51.0,94.5,209.7,-1852.5,76.2,173.1,-405.6,-1141.2,152.1,331.5,989.1,-6.6,-6.0,-134.1,-957.9,-0.9,132.9,222.3,-1379.1,0,3186,0,235,0, 
1.7733,189.3,632.4,153.9,766.5,501.6,-52.2,90.0,208.5,-1407.9,66.9,169.2,707.1,-1139.7,472.8,753.0,994.2,-6.9,-6.0,1134.6,1760.7,-0.6,129.6,222.0,-1378.5,0,3192,0,236,0, 
1.7767,174.9,630.9,153.3,760.8,383.1,-57.6,88.2,206.4,-1778.4,64.5,162.6,584.1,-1148.4,170.4,580.2,974.4,-6.9,-5.7,765.3,1870.2,-0.9,132.9,217.2,-1382.4,0,3198,0,237,0, 
1.7800,102.3,627.6,159.9,754.2,-47.7,-58.5,91.5,212.7,-2371.2,72.0,174.9,-607.5,-1145.1,-220.2,84.0,969.6,-6.6,-5.7,-682.8,-812.7,-0.9,139.2,224.7,-1372.8,0,3204,0,238,0, 
1.7833,91.2,633.6,155.1,751.5,-168.6,-51.0,88.2,216.0,-2519.4,72.9,168.9,-1346.4,-1144.5,-268.2,-89.7,971.1,-6.9,-5.7,-1231.8,-2616.3,-0.9,131.4,226.2,-1376.7,0,3210,0,239,0, 
1.7867,165.0,636.0,154.5,756.9,192.3,-56.4,87.9,219.0,-1778.4,63.6,166.8,-475.2,-1138.5,102.3,319.2,984.0,-6.9,-6.3,-112.2,-926.1,-0.9,133.8,224.7,-1383.3,0,3216,0,240,0, 
1.7900,199.2,642.6,160.5,765.9,497.1,-51.3,88.5,220.5,-1482.0,71.1,172.8,594.9,-1122.3,377.1,737.7,992.4,-6.9,-6.0,1080.3,1826.7,-0.9,136.2,228.6,-1375.5,0,3222,0,241,0, 
1.7933,153.0,647.1,171.0,757.5,299.1,-47.7,93.3,227.1,-1852.5,79.2,178.2,431.7,-1120.8,216.3,513.6,993.0,-6.9,-6.0,722.1,1889.1,-0.6,137.4,229.5,-1371.0,0,3228,0,242,0, 
1.7967,98.4,649.8,172.2,761.7,-42.9,-39.0,93.9,231.6,-2445.3,81.0,179.4,-610.2,-1128.3,-125.1,100.5,979.5,-6.6,-6.0,-753.9,-804.9,-0.9,143.7,232.8,-1364.7,0,3234,0,243,0, 
1.8000,109.5,651.6,170.1,763.2,-79.5,-43.2,91.8,237.9,-2593.5,78.0,177.6,-1217.4,-1137.3,-135.0,-114.9,990.6,-6.6,-6.0,-1302.3,-2610.0,-0.9,140.1,229.2,-1367.4,0,3240,0,244,0, 
1.8033,156.0,647.1,160.8,762.0,192.9,-41.7,92.1,234.0,-1778.4,74.1,171.6,-343.5,-1126.5,249.3,298.8,991.8,-7.2,-5.7,-138.6,-936.0,-0.6,140.7,233.7,-1372.8,0,3246,0,245,0, 
1.8067,185.4,634.8,161.7,765.3,435.0,-42.0,91.5,237.9,-1407.9,73.2,177.0,774.9,-1120.5,499.2,705.9,995.4,-7.2,-5.7,1076.1,1866.6,-0.6,134.4,230.7,-1378.8,0,3252,0,246,0, 
1.8100,151.2,633.9,160.2,762.0,272.1,-45.3,86.7,234.9,-1926.6,72.6,171.6,612.6,-1134.0,188.4,575.4,987.6,-6.6,-5.7,766.5,2010.0,-0.9,139.8,220.5,-1375.8,0,3258,0,247,0, 
1.8133,95.4,633.6,163.8,755.4,-94.8,-47.4,83.7,234.6,-2593.5,77.7,177.9,-591.6,-1132.2,-240.0,66.6,962.1,-6.9,-6.0,-693.0,-715.8,-0.3,140.7,221.1,-1383.0,0,3264,0,248,0, 
1.8167,90.9,634.5,162.9,758.7,-128.7,-50.1,83.7,235.8,-2519.4,78.3,177.3,-1187.7,-1134.3,-392.7,-106.2,967.2,-6.9,-5.7,-1250.7,-2467.8,-0.3,135.9,220.5,-1379.7,0,3270,0,249,0, 
1.8200,161.1,634.8,162.3,768.0,201.6,-45.0,83.7,241.8,-1852.5,82.2,177.0,-391.5,-1127.4,71.1,237.3,994.5,-6.9,-6.0,-126.6,-766.8,-1.2,136.2,224.4,-1374.9,0,3276,0,250,0, 
1.8233,182.7,639.9,163.8,765.0,373.5,-46.8,86.7,238.2,-1333.8,75.0,172.2,679.2,-1130.1,260.1,612.6,979.2,-7.2,-6.3,1053.3,1984.2,-0.6,131.4,218.1,-1381.2,0,3282,0,251,0, 
1.8267,147.3,630.9,156.0,757.2,249.6,-45.0,83.4,232.2,-1926.6,62.1,150.0,618.3,-1145.4,51.3,445.8,966.9,-6.9,-6.0,691.8,2049.6,-0.9,118.5,219.0,-1386.9,0,3288,0,252,0, 
1.8300,89.1,637.2,169.8,771.0,-84.3,-46.5,90.6,241.5,-2519.4,80.7,187.8,-573.3,-1125.6,-279.9,35.4,960.6,-7.2,-6.3,-662.1,-735.6,-0.6,143.7,229.5,-1371.6,0,3294,0,253,0, 
1.8333,99.9,630.0,168.3,765.6,-106.2,-49.8,85.8,239.1,-2371.2,84.0,195.9,-1182.3,-1126.8,-329.7,-97.8,964.5,-6.9,-6.0,-1148.7,-2456.7,-0.9,147.6,222.9,-1373.4,0,3300,0,254,0, 
1.8367,148.5,628.5,167.1,773.4,238.5,-45.6,89.4,242.4,-1556.1,74.1,188.7,-282.3,-1127.4,71.4,301.8,971.7,-6.9,-6.0,30.0,-650.1,-0.6,137.1,219.9,-1379.7,0,3306,0,255,0, 
1.8400,195.6,636.3,169.2,777.3,517.5,-47.4,90.6,240.6,-1482.0,81.3,200.1,876.0,-1118.1,301.2,649.2,973.2,-7.5,-6.0,1244.1,2071.5,-0.9,144.3,219.0,-1371.0,0,3312,0,0,0, 
1.8433,152.4,636.6,172.2,772.8,428.1,-51.9,89.4,237.3,-1704.3,81.9,203.4,769.2,-1138.8,141.9,513.3,960.0,-7.5,-6.0,915.3,2233.2,-0.6,144.0,219.9,-1375.5,0,3318,0,1,0, 
1.8467,82.2,640.2,174.6,768.0,90.9,-45.0,91.5,243.6,-2519.4,78.3,198.0,-466.2,-1143.6,-177.9,21.3,954.0,-6.6,-6.0,-618.9,-716.7,-0.9,147.0,219.6,-1373.4,0,3324,0,2,0, 
1.8500,84.3,623.7,167.4,769.8,77.4,-41.7,94.8,243.9,-2371.2,83.4,208.8,-996.3,-1113.9,-152.1,-71.7,969.0,-6.6,-5.7,-1056.0,-2287.8,-0.9,150.9,225.9,-1368.3,0,3330,0,3,0, 
1.8533,133.5,633.3,162.9,775.2,332.7,-43.8,89.4,240.3,-1778.4,80.7,202.8,-346.8,-1116.9,198.6,278.4,980.7,-6.9,-5.7,-154.2,-858.6,-0.9,142.5,217.2,-1374.9,0,3336,0,4,0, 
1.8567,165.0,628.5,158.7,768.6,546.6,-45.0,88.2,238.2,-1333.8,73.8,199.5,720.0,-1125.0,362.1,638.4,982.5,-6.9,-6.0,1047.9,1954.2,-0.9,141.9,220.8,-1377.6,0,3342,0,5,0, 
1.8600,128.7,633.9,156.3,757.5,433.2,-46.5,87.3,240.3,-1852.5,69.0,186.9,592.5,-1142.1,168.3,486.3,962.1,-6.9,-5.7,771.6,2064.0,-0.9,132.9,217.2,-1377.9,0,3348,0,6,0, 
1.8633,54.0,618.9,157.2,753.0,29.1,-39.3,89.4,237.3,-2593.5,69.6,193.2,-548.7,-1146.0,-200.7,-82.5,946.5,-6.9,-6.0,-620.4,-629.7,-0.6,132.9,218.4,-1385.7,0,3354,0,7,0, 
1.8667,87.9,633.3,155.7,747.6,24.3,-43.5,87.6,241.5,-2519.4,74.4,190.2,-1085.7,-1146.6,-190.2,-171.3,962.7,-6.9,-5.7,-1227.9,-2357.1,-0.6,131.1,218.1,-1380.9,0,3360,0,8,0, 
1.8700,134.1,628.8,154.8,751.2,307.2,-45.6,82.8,242.4,-1926.6,73.5,187.5,-298.8,-1130.4,136.8,171.0,976.5,-6.9,-6.0,-109.2,-648.6,-0.9,134.7,215.7,-1382.7,0,3366,0,9,0, 
1.8733,173.1,627.9,153.3,750.3,609.0,-50.1,83.7,244.5,-1482.0,64.8,190.8,807.6,-1140.0,274.2,593.4,993.6,-6.9,-6.0,1120.2,2049.9,-0.9,125.4,210.6,-1390.8,0,3372,0,10,0, 
1.8767,130.2,621.9,158.1,748.5,436.5,-43.8,90.9,244.5,-1926.6,73.5,191.1,688.2,-1140.0,56.7,493.5,979.2,-6.9,-6.0,845.1,2176.5,-1.2,136.8,219.6,-1388.1,0,3378,0,11,0, 
1.8800,59.7,624.6,163.8,747.6,63.6,-41.7,89.4,247.2,-2593.5,81.6,197.4,-532.2,-1134.3,-251.4,25.8,974.7,-7.5,-5.4,-692.4,-707.7,-1.2,134.1,221.1,-1384.8,0,3384,0,12,0, 
1.8833,68.4,627.9,165.3,752.1,-51.0,-41.4,87.6,246.6,-2519.4,82.5,194.4,-1182.6,-1123.2,-191.1,-159.3,970.8,-7.2,-6.3,-1203.3,-2478.6,-0.6,138.0,230.7,-1381.8,0,3390,0,13,0, 
1.8867,146.1,624.0,164.7,756.9,309.3,-48.9,81.3,246.3,-1704.3,71.7,198.6,-358.5,-1124.1,154.8,222.0,982.5,-6.9,-5.7,-22.5,-757.5,-0.6,135.6,224.4,-1381.8,0,3396,0,14,0, 
1.8900,165.9,625.2,162.6,755.7,495.9,-46.5,84.6,246.0,-1407.9,79.5,191.7,683.7,-1119.0,318.6,574.5,981.3,-6.9,-6.0,1123.5,1925.1,-0.6,141.6,230.7,-1380.3,0,3402,0,15,0, 
1.8933,143.4,625.8,160.2,745.8,343.5,-50.7,83.4,246.3,-1852.5,74.4,191.7,623.7,-1133.1,90.6,537.3,969.0,-6.9,-5.7,871.5,1990.8,-0.9,139.2,224.7,-1380.3,0,3408,0,16,0, 
1.8967,69.9,625.5,163.2,749.4,-22.8,-42.3,90.3,247.8,-2445.3,81.3,193.5,-527.1,-1133.7,-277.5,62.4,956.4,-7.5,-5.7,-632.4,-756.9,-0.9,142.2,229.2,-1371.3,0,3414,0,17,0, 
1.9000,76.5,633.3,170.7,756.6,-88.5,-41.7,95.4,252.0,-2519.4,81.0,200.4,-1023.0,-1134.9,-318.0,-27.3,960.6,-7.2,-6.0,-1233.6,-2521.5,-1.2,141.6,231.6,-1373.4,0,3420,0,18,0, 
1.9033,128.7,633.9,159.9,757.5,210.3,-46.5,88.2,243.9,-1704.3,79.2,191.1,-312.3,-1130.1,99.0,310.2,973.2,-6.9,-5.7,-115.2,-870.0,-0.6,137.1,226.2,-1385.4,0,3426,0,19,0, 
1.9067,180.9,623.1,157.2,753.0,407.7,-50.4,93.3,244.5,-1482.0,69.0,190.8,735.3,-1137.0,259.2,600.9,978.9,-6.9,-6.0,992.4,1765.2,-1.2,132.3,224.7,-1382.7,0,3432,0,20,0, 
1.9100,160.8,627.0,160.2,751.2,284.1,-49.2,90.9,243.6,-1926.6,72.3,186.0,654.3,-1137.0,123.3,569.1,973.5,-7.2,-6.0,721.8,1928.7,-0.6,135.3,228.0,-1384.2,0,3438,0,21,0, 
1.9133,93.9,632.1,160.5,741.9,-178.8,-46.8,86.4,243.0,-2593.5,77.1,187.8,-708.6,-1144.5,-303.3,25.5,954.9,-7.2,-5.7,-749.4,-878.4,-0.6,132.9,223.5,-1385.4,0,3444,0,22,0, 
1.9167,89.4,630.0,163.8,757.2,-178.8,-40.5,93.3,248.4,-2445.3,80.4,196.8,-1173.9,-1128.0,-232.2,-51.3,948.6,-6.9,-5.7,-1186.5,-2682.3,-0.9,133.8,227.4,-1379.1,0,3450,0,23,0, 
1.9200,132.0,620.7,154.5,750.0,61.2,-43.5,88.5,242.7,-1704.3,70.5,185.4,-412.5,-1136.1,10.2,222.0,955.5,-7.2,-6.3,-198.6,-1023.9,-0.6,128.7,228.6,-1380.9,0,3456,0,24,0, 
1.9233,198.3,639.0,161.1,750.6,359.7,-41.7,81.9,249.3,-1482.0,65.7,187.8,699.6,-1137.0,286.5,638.7,962.1,-6.6,-6.0,1128.0,1651.5,-0.9,130.2,219.0,-1393.5,0,3462,0,25,0, 
1.9267,151.2,625.5,161.4,756.3,279.0,-39.9,85.8,247.5,-1852.5,72.3,191.1,575.7,-1137.9,82.5,525.9,958.5,-6.9,-5.7,816.6,1791.9,-0.3,132.3,222.9,-1394.4,0,3468,0,26,0, 
1.9300,70.8,622.2,164.4,753.0,-14.1,-39.0,92.4,252.0,-2593.5,78.6,198.9,-533.4,-1130.4,-217.2,105.9,942.3,-6.9,-6.0,-569.1,-1009.5,-0.6,133.2,231.9,-1386.9,0,3474,0,27,0, 
1.9333,74.4,635.4,162.3,750.9,-56.1,-45.0,87.6,248.4,-2223.0,70.2,192.0,-1056.3,-1131.3,-156.0,-37.2,959.1,-6.9,-5.7,-1001.1,-2672.1,-0.6,139.8,228.3,-1387.8,0,3480,0,28,0, 
1.9367,130.2,624.0,151.2,751.5,134.1,-55.5,84.9,241.8,-1778.4,62.1,180.6,-378.3,-1141.8,117.6,281.4,963.9,-6.9,-6.3,-39.0,-1046.4,-0.6,125.4,219.6,-1395.3,0,3486,0,29,0, 
1.9400,231.6,630.3,147.0,759.6,759.3,-48.6,85.8,241.8,-1333.8,61.5,174.6,1160.1,-1125.9,709.8,1003.5,987.9,-7.2,-5.7,1626.0,2345.7,-0.9,119.4,221.1,-1400.4,0,3492,0,30,0, 
1.9433,199.5,638.7,155.1,755.4,841.2,-48.9,90.6,246.6,-1852.5,65.1,181.5,1504.8,-1125.3,775.5,1129.2,966.3,-7.2,-6.3,1739.7,2978.4,-0.9,125.1,228.9,-1399.5,0,3498,0,31,0, 
1.9467,89.1,624.6,148.8,748.8,231.0,-60.9,89.1,242.1,-2519.4,69.3,180.3,-51.3,-1140.9,105.6,430.8,950.7,-6.6,-6.0,-65.4,-214.5,-0.6,125.1,229.2,-1399.5,0,3504,0,32,0, 
1.9500,108.9,625.5,153.0,750.9,121.5,-57.9,89.4,244.2,-2371.2,71.7,184.8,-753.0,-1133.4,116.7,232.2,945.9,-6.6,-6.0,-659.4,-2090.4,-0.9,127.8,230.1,-1400.1,0,3510,0,33,0, 
1.9533,168.0,621.9,149.7,752.7,405.6,-61.2,88.2,240.0,-1630.2,62.1,180.3,45.3,-1135.2,421.8,575.1,956.1,-7.2,-6.0,496.8,-422.7,-0.9,120.0,226.5,-1399.5,0,3516,0,34,0, 
1.9567,187.2,622.2,154.2,749.4,596.1,-57.0,90.0,242.4,-1407.9,68.4,183.6,1025.7,-1139.7,539.7,802.5,954.6,-7.2,-6.0,1516.8,2178.6,-1.2,117.6,231.3,-1401.6,0,3522,0,35,0, 
1.9600,149.7,613.5,147.6,744.6,395.1,-53.7,85.8,239.1,-1926.6,64.5,182.1,948.6,-1148.1,277.2,653.4,935.7,-6.9,-6.0,1061.1,2250.9,-0.9,119.1,227.4,-1404.3,0,3528,0,36,0, 
1.9633,73.2,622.2,156.3,739.2,12.9,-59.7,87.0,241.5,-2519.4,69.6,184.2,-293.1,-1158.3,-191.1,132.0,942.3,-7.2,-5.7,-489.3,-648.9,-0.9,128.1,234.9,-1394.1,0,3534,0,37,0, 
1.9667,101.4,616.2,152.7,740.4,4.8,-59.4,89.4,238.2,-2519.4,71.4,186.0,-767.4,-1150.5,-80.4,13.5,936.0,-6.9,-5.7,-967.8,-2283.6,-0.3,133.5,234.6,-1389.3,0,3540,0,38,0, 
1.9700,138.6,629.7,161.7,749.7,244.8,-61.5,85.8,241.8,-1630.2,71.1,191.7,-67.2,-1152.6,282.6,366.0,953.4,-6.6,-6.0,105.9,-650.4,-0.9,128.1,232.5,-1395.6,0,3546,0,39,0, 
1.9733,183.0,626.4,150.6,748.8,540.3,-60.6,84.0,237.9,-1556.1,69.9,183.3,1013.4,-1150.2,519.6,764.7,963.0,-6.9,-6.0,1229.1,2072.4,-1.2,122.7,228.9,-1402.8,0,3552,0,40,0, 
1.9767,141.6,632.7,152.4,741.9,388.8,-68.1,83.4,239.1,-1852.5,67.2,182.7,756.9,-1161.3,190.2,595.8,948.6,-6.9,-6.0,827.4,2049.9,-1.2,122.1,222.3,-1400.4,0,3558,0,41,0, 
1.9800,78.9,613.2,149.4,728.1,0.0,-61.2,86.4,235.8,-2519.4,72.6,182.4,-586.8,-1146.9,-184.8,151.8,940.5,-6.9,-6.0,-611.4,-718.5,-0.6,125.4,228.0,-1397.7,0,3564,0,42,0, 
1.9833,60.9,619.2,149.4,734.7,-106.2,-58.5,87.3,233.7,-2445.3,75.0,183.9,-1177.5,-1142.1,-234.0,34.8,948.6,-6.6,-5.7,-1205.4,-2492.4,-0.9,127.5,230.1,-1393.5,0,3570,0,43,0, 
1.9867,141.9,622.2,148.2,729.0,148.2,-62.7,83.7,226.2,-1852.5,72.3,179.4,-364.5,-1138.5,34.2,339.0,960.6,-7.2,-5.7,-195.0,-941.7,-0.9,121.5,227.4,-1409.7,0,3576,0,44,0, 
1.9900,177.9,625.5,141.9,730.8,463.2,-64.8,86.1,224.7,-1333.8,59.1,177.3,714.3,-1137.6,345.3,777.0,961.8,-6.9,-6.0,1124.4,1988.4,-0.9,126.3,224.4,-1403.7,0,3582,0,45,0, 
1.9933,140.4,627.0,149.1,730.5,343.8,-59.7,84.3,228.3,-1852.5,65.1,178.8,677.4,-1146.0,200.7,595.2,948.0,-6.9,-5.7,746.4,2122.5,-0.6,130.2,228.3,-1400.7,0,3588,0,46,0, 
1.9967,76.8,614.7,152.7,726.3,-49.2,-54.9,90.3,238.5,-2445.3,78.0,189.9,-548.7,-1142.4,-115.8,104.4,947.7,-6.6,-6.0,-599.1,-634.2,-1.2,141.0,234.0,-1389.0,0,3594,0,47,0, 
2.0000,88.2,617.4,154.8,732.9,-152.4,-57.3,88.8,237.0,-2593.5,73.2,184.5,-1233.0,-1147.5,-127.8,-50.7,955.2,-6.6,-6.0,-1259.7,-2411.7,-0.9,135.9,229.5,-1393.2,0,3600,0,48,0, 
2.0033,177.3,628.2,151.5,744.6,195.3,-61.8,86.7,237.3,-1778.4,70.5,188.7,-376.2,-1133.1,279.0,391.2,977.1,-6.6,-6.0,-49.2,-709.8,-0.9,133.2,222.3,-1395.3,0,3606,0,49,0, 
2.0067,217.2,630.3,148.5,739.8,450.3,-62.4,83.4,236.7,-1482.0,72.6,185.4,761.1,-1131.9,435.9,757.2,962.4,-6.9,-6.3,1150.8,2005.5,-0.6,131.4,224.7,-1401.3,0,3612,0,50,0, 
2.0100,193.2,624.9,147.3,733.2,328.8,-59.7,85.2,235.8,-1778.4,71.7,185.1,684.3,-1134.0,225.6,681.0,946.2,-6.9,-5.7,825.6,2082.3,-0.6,132.9,230.7,-1400.7,0,3618,0,51,0, 
2.0133,115.8,623.7,152.1,736.2,-46.8,-60.0,88.2,235.8,-2593.5,71.7,187.8,-597.6,-1136.4,-255.9,135.0,940.5,-6.9,-6.0,-671.1,-772.5,-0.9,129.0,232.8,-1392.3,0,3624,0,52,0, 
2.0167,99.0,619.8,149.4,729.9,-96.3,-57.3,90.6,235.8,-2445.3,69.0,180.0,-1208.4,-1136.1,-234.3,-52.8,952.2,-6.9,-5.7,-1153.8,-2572.2,-0.6,122.1,233.1,-1395.6,0,3630,0,53,0, 
2.0200,156.9,628.8,147.0,733.8,173.1,-59.1,85.8,235.8,-1704.3,67.2,182.4,-324.0,-1137.0,149.4,308.7,959.7,-6.6,-6.0,-42.3,-838.5,-0.6,126.6,227.4,-1392.9,0,3636,0,54,0, 
2.0233,208.5,629.7,149.7,732.9,423.9,-61.5,90.9,238.5,-1407.9,67.2,184.8,684.3,-1138.2,360.9,746.1,970.8,-7.2,-6.0,1110.6,1914.0,-0.9,125.4,222.9,-1396.8,0,3642,0,55,0, 
2.0267,169.8,618.3,145.2,727.5,283.8,-65.7,89.7,234.3,-1852.5,58.2,175.8,584.4,-1154.4,177.3,601.8,951.9,-6.6,-6.3,740.1,2038.5,-1.2,118.8,231.0,-1399.2,0,3648,0,56,0, 
2.0300,105.6,621.0,153.0,724.8,-91.8,-61.5,84.3,229.2,-2519.4,60.3,177.3,-545.1,-1153.5,-184.2,187.8,933.0,-6.6,-5.7,-691.8,-768.9,-0.6,120.9,222.9,-1401.0,0,3654,0,57,0, 
2.0333,113.1,627.0,149.7,731.1,-171.3,-60.6,85.8,231.0,-2593.5,64.8,181.8,-1181.4,-1154.7,-238.2,32.1,946.8,-7.2,-6.0,-1327.5,-2502.3,-0.3,131.4,229.5,-1395.9,0,3660,0,58,0, 
2.0367,179.7,622.8,151.8,734.4,233.1,-60.9,78.0,229.5,-1704.3,62.1,183.9,-267.6,-1142.4,152.4,447.3,966.0,-7.2,-6.0,-126.3,-650.4,-0.9,122.1,223.5,-1396.8,0,3666,0,59,0, 
2.0400,219.9,616.2,149.1,744.6,510.3,-62.1,78.6,226.8,-1333.8,62.4,177.3,768.3,-1132.2,378.6,759.6,961.2,-6.9,-5.7,1031.7,2120.1,-0.6,121.8,221.1,-1396.8,0,3672,0,60,0, 
2.0433,159.0,625.2,155.4,738.6,360.9,-57.3,82.8,234.0,-1852.5,63.3,186.6,663.3,-1140.0,148.2,557.7,957.6,-7.2,-6.0,737.4,2097.6,-0.9,126.6,224.7,-1392.6,0,3678,0,61,0, 
2.0467,102.9,627.0,155.7,734.4,11.7,-57.0,82.8,234.0,-2519.4,71.1,187.8,-485.4,-1142.4,-247.2,74.4,942.6,-7.2,-5.7,-711.3,-675.3,-0.9,132.0,233.1,-1384.8,0,3684,0,62,0, 
2.0500,101.4,634.2,158.4,739.8,-63.0,-52.2,85.5,237.6,-2593.5,73.2,194.7,-1080.9,-1136.1,-243.3,-42.6,942.0,-6.9,-6.0,-1237.2,-2492.7,-1.2,132.3,232.2,-1391.4,0,3690,0,63,0, 
2.0533,177.0,632.7,153.0,741.6,261.6,-55.8,86.4,236.1,-1630.2,64.5,186.3,-211.8,-1130.1,120.6,363.0,948.3,-6.9,-5.7,-46.5,-675.0,-0.9,127.5,225.6,-1397.4,0,3696,0,64,0, 
2.0567,203.4,628.8,151.2,739.8,545.7,-54.3,89.4,224.7,-1630.2,62.7,183.0,845.1,-1138.5,302.4,782.1,950.4,-6.6,-5.7,1197.3,2138.4,-0.9,122.4,228.9,-1395.6,0,3702,0,65,0, 
2.0600,165.9,625.2,151.8,740.1,270.9,-59.4,86.7,219.0,-1852.5,61.5,187.5,681.9,-1139.1,19.2,627.9,931.5,-6.9,-6.0,763.8,2099.7,-0.9,128.1,226.5,-1388.1,0,3708,0,66,0, 
2.0633,82.5,620.1,154.2,738.3,-46.8,-63.6,84.9,214.2,-2593.5,66.9,190.5,-527.4,-1150.5,-367.2,204.9,930.9,-6.9,-6.0,-713.4,-701.1,-0.6,131.4,226.2,-1386.9,0,3714,0,67,0, 
2.0667,91.2,619.8,152.1,738.0,-33.9,-62.1,83.7,210.0,-2445.3,66.6,187.8,-1202.4,-1149.0,-382.2,70.5,937.5,-6.6,-5.7,-1283.1,-2473.5,-0.6,128.4,228.3,-1386.0,0,3720,0,68,0, 
2.0700,140.1,612.9,143.1,739.2,183.6,-64.2,80.7,205.8,-1852.5,60.0,179.7,-307.5,-1152.0,-19.8,438.3,954.9,-7.2,-6.6,-145.8,-725.4,-0.6,123.6,224.4,-1390.8,0,3726,0,69,0, 
2.0733,171.3,616.2,145.8,738.9,469.2,-63.0,80.7,198.3,-1482.0,57.6,179.4,741.0,-1146.0,302.4,794.4,955.5,-6.9,-6.0,1074.6,1957.2,-0.9,122.1,229.5,-1394.4,0,3732,0,70,0, 
2.0767,133.5,617.1,144.3,734.1,286.2,-72.6,81.6,164.1,-1852.5,57.6,175.8,560.1,-1161.9,5.4,635.7,946.5,-6.6,-6.0,700.8,1986.3,-1.2,118.5,221.7,-1399.5,0,3738,0,71,0, 
2.0800,76.8,617.4,147.6,729.3,-93.9,-65.1,80.7,151.5,-2593.5,61.2,178.2,-520.8,-1157.7,-288.9,203.1,935.4,-6.6,-6.0,-692.7,-674.1,-0.9,120.3,218.7,-1396.2,0,3744,0,72,0, 
2.0833,78.6,617.7,147.3,735.9,-185.4,-63.0,80.1,143.1,-2593.5,59.4,181.8,-1214.4,-1158.3,-369.9,88.5,936.3,-7.2,-6.0,-1268.4,-2461.2,-0.9,114.9,216.9,-1397.7,0,3750,0,73,0, 
2.0867,139.5,623.1,142.5,735.0,186.9,-70.2,73.2,130.8,-1778.4,52.5,170.7,-254.4,-1151.7,48.0,460.5,939.3,-6.9,-5.7,-114.9,-610.2,-1.2,110.1,214.8,-1410.6,0,3756,0,74,0, 
2.0900,198.3,618.6,140.1,731.1,462.9,-72.0,70.2,121.5,-1482.0,44.7,163.8,805.8,-1149.3,305.4,829.5,927.0,-6.9,-5.7,1190.1,2207.1,-0.6,102.0,214.2,-1407.3,0,3762,0,75,0, 
2.0933,173.1,618.3,147.6,723.9,288.3,-68.4,76.2,116.1,-1852.5,50.1,173.1,602.4,-1146.0,194.4,609.3,914.4,-6.9,-6.0,786.6,2202.3,-0.6,115.2,217.2,-1401.9,0,3768,0,76,0, 
2.0967,93.0,618.9,149.1,725.1,-83.1,-73.8,81.0,116.7,-2519.4,50.1,172.8,-679.5,-1157.4,-201.6,80.1,915.6,-6.9,-6.0,-663.6,-610.8,-0.9,111.0,215.4,-1399.8,0,3774,0,77,0, 
2.1000,106.2,617.4,152.1,733.2,-107.4,-64.8,82.8,114.6,-2297.1,62.4,180.0,-1219.5,-1149.9,-163.8,-68.1,925.8,-6.6,-6.0,-1196.4,-2342.1,-0.9,117.0,221.4,-1393.8,0,3780,0,78,0, 
2.1033,166.5,621.0,141.6,740.4,250.2,-68.4,79.2,106.2,-1852.5,58.2,174.0,-321.6,-1151.4,229.5,363.9,939.3,-7.2,-6.3,-25.5,-652.8,-0.9,114.0,217.8,-1392.3,0,3786,0,79,0, 
2.1067,210.0,618.0,147.0,739.8,544.2,-69.0,81.3,106.5,-1407.9,56.1,177.6,736.5,-1144.2,438.0,722.7,942.9,-6.6,-6.0,1193.1,2031.0,-0.9,116.4,216.3,-1392.3,0,3792,0,80,0, 
2.1100,166.8,617.4,145.5,735.3,426.9,-73.8,79.8,98.7,-1852.5,49.5,174.9,575.4,-1155.3,221.7,640.2,926.4,-7.2,-5.4,903.6,2141.1,-0.9,118.5,208.8,-1394.4,0,3798,0,81,0, 
2.1133,100.2,624.6,150.6,732.9,54.0,-64.5,84.9,103.5,-2519.4,56.7,184.8,-642.9,-1158.0,-158.7,153.3,919.2,-6.6,-6.0,-669.3,-641.1,-0.9,122.4,225.6,-1386.0,0,3804,0,82,0, 
2.1167,96.6,627.0,151.8,736.8,-41.7,-68.7,84.0,101.4,-2445.3,66.3,183.9,-1233.6,-1157.1,-119.1,-4.2,933.6,-7.2,-6.0,-1260.3,-2311.5,-0.9,123.9,225.0,-1387.5,0,3810,0,83,0, 
2.1200,162.0,641.1,153.3,744.6,250.2,-70.2,82.8,96.3,-1778.4,63.3,188.1,-430.8,-1149.6,257.7,360.3,942.6,-6.9,-6.0,-126.9,-566.1,-0.9,125.1,217.2,-1391.1,0,3816,0,84,0, 
2.1233,198.9,627.6,147.3,751.5,537.3,-73.5,82.8,85.5,-1482.0,65.1,184.8,676.5,-1150.2,414.3,772.5,952.8,-7.2,-5.7,1078.2,2031.0,-1.2,119.1,214.5,-1389.3,0,3822,0,85,0, 
2.1267,168.3,620.1,156.6,748.2,411.3,-70.8,88.8,84.6,-1852.5,70.2,196.2,626.7,-1138.5,243.0,632.7,953.4,-6.9,-6.0,815.1,2064.0,-0.6,132.9,226.8,-1381.8,0,3828,0,86,0, 
2.1300,100.8,616.8,160.2,749.1,48.0,-71.4,93.9,59.7,-2519.4,75.6,198.0,-469.2,-1140.9,-92.4,171.6,945.3,-6.9,-5.7,-681.9,-656.4,-1.2,136.5,224.7,-1378.2,0,3834,0,87,0, 
2.1333,115.5,613.2,157.8,750.3,-40.8,-70.2,93.0,43.2,-2519.4,69.0,189.6,-1122.0,-1144.8,-52.8,6.3,949.5,-6.9,-5.7,-1277.4,-2529.9,-0.9,128.7,226.2,-1378.8,0,3840,0,88,0, 
2.1367,147.9,608.1,148.8,746.4,290.4,-66.9,85.2,22.2,-1852.5,60.6,183.9,-273.9,-1143.0,244.8,411.6,956.4,-6.9,-5.7,-45.0,-722.7,-1.2,120.0,220.2,-1388.7,0,3846,0,89,0, 
2.1400,192.9,614.7,145.8,751.5,628.5,-74.1,85.8,15.0,-1482.0,60.9,185.1,920.4,-1146.6,510.0,810.3,957.9,-6.6,-6.0,1192.5,2153.1,-0.6,126.3,219.3,-1391.7,0,3852,0,90,0, 
2.1433,102.0,614.1,150.6,739.5,152.1,-72.9,82.2,6.0,-1852.5,66.0,184.5,271.5,-1163.4,-16.8,344.1,932.7,-6.9,-6.0,490.5,1677.0,-0.9,128.1,217.8,-1386.0,0,3858,0,91,0, 
2.1467,50.1,611.4,151.5,732.3,-298.5,-77.7,85.2,-1.5,-2741.7,62.4,182.7,-1068.0,-1166.1,-485.4,-226.5,918.9,-7.2,-6.0,-1227.9,-1345.2,-0.6,125.7,218.7,-1393.5,0,3864,0,92,0, 
2.1500,50.4,619.8,157.2,738.0,-303.6,-71.4,82.2,-5.4,-2593.5,65.7,186.9,-1585.2,-1150.2,-364.2,-246.0,926.1,-6.9,-6.0,-1633.5,-3063.9,-0.6,120.6,222.6,-1391.4,0,3870,0,93,0, 
2.1533,146.1,622.8,152.4,734.7,146.1,-70.8,78.6,-8.7,-1852.5,54.9,180.3,-491.7,-1142.1,142.2,215.7,942.3,-6.9,-5.7,-350.1,-1068.0,-0.6,115.2,219.0,-1392.3,0,3876,0,94,0, 
2.1567,188.4,622.5,155.1,738.9,506.4,-63.6,83.1,-13.8,-1407.9,60.6,190.8,647.1,-1134.3,431.4,564.6,933.9,-7.2,-6.3,914.1,1830.9,-0.6,116.7,215.7,-1396.8,0,3882,0,95,0, 
2.1600,150.9,626.4,158.7,738.0,309.3,-67.8,82.2,-16.2,-1852.5,65.7,186.9,569.4,-1141.8,192.9,451.2,928.2,-6.9,-6.3,543.0,1771.2,-0.3,123.3,218.1,-1390.8,0,3888,0,96,0, 
2.1633,83.1,620.4,162.0,735.3,-52.8,-69.6,82.8,-17.1,-2519.4,72.9,191.4,-672.0,-1144.2,-183.3,14.7,932.4,-6.6,-5.7,-993.3,-1009.8,-0.9,128.1,226.5,-1384.5,0,3894,0,97,0, 
2.1667,75.9,621.3,160.2,748.5,-83.7,-65.7,82.8,-21.3,-2371.2,72.6,193.8,-1190.7,-1142.7,-207.9,-99.6,936.0,-6.9,-5.7,-1431.6,-2657.1,-0.9,133.2,227.1,-1392.0,0,3900,0,98,0, 
2.1700,152.7,614.4,155.7,750.3,236.7,-66.6,80.7,-26.1,-1704.3,60.3,185.1,-362.4,-1137.0,217.8,277.5,952.2,-6.9,-5.7,-239.7,-703.8,-1.2,124.8,226.5,-1400.1,0,3906,0,99,0, 
2.1733,191.1,618.3,145.8,743.4,544.5,-70.8,76.5,-32.4,-1407.9,60.0,177.0,974.1,-1139.7,531.0,660.6,954.9,-6.6,-6.0,1061.4,2028.0,-0.6,123.0,222.9,-1402.2,0,3912,0,100,0, 
2.1767,165.6,620.7,159.3,749.7,346.8,-65.1,84.0,-26.4,-1926.6,66.0,188.4,721.2,-1139.7,236.1,493.8,949.2,-7.2,-5.7,713.7,1906.5,-1.2,135.3,233.4,-1387.5,0,3918,0,101,0, 
2.1800,86.7,617.1,155.1,740.1,26.4,-69.0,79.5,-33.9,-2445.3,66.6,184.2,-387.6,-1153.2,-132.6,1.5,943.5,-6.9,-6.0,-751.2,-858.0,-0.9,127.2,226.8,-1392.9,0,3924,0,102,0, 
2.1833,87.0,625.5,156.3,737.7,-4.5,-75.3,79.8,-35.7,-2445.3,53.7,184.5,-1078.2,-1147.2,-140.1,-131.4,954.6,-6.9,-5.7,-1226.1,-2649.0,-0.9,114.3,223.5,-1397.4,0,3930,0,103,0, 
2.1867,144.6,621.9,145.5,738.6,333.9,-72.0,74.7,-44.1,-1704.3,56.7,173.4,-249.6,-1153.5,208.2,304.8,954.3,-6.6,-5.7,-125.1,-813.6,-0.6,117.0,227.7,-1400.4,0,3936,0,104,0, 
2.1900,172.5,621.9,144.6,739.5,534.0,-76.8,70.5,-48.0,-1407.9,48.0,174.0,734.1,-1154.7,335.7,669.9,958.5,-7.2,-6.0,1155.0,1882.2,-0.6,112.5,222.9,-1403.4,0,3942,0,105,0, 
2.1933,152.4,621.9,150.3,733.2,379.2,-66.6,76.5,-44.7,-1926.6,56.4,178.2,634.2,-1145.4,179.7,574.5,939.0,-7.2,-5.7,880.8,1975.5,-0.9,117.9,227.7,-1397.1,0,3948,0,106,0, 
2.1967,72.3,606.3,147.6,736.5,38.1,-72.6,78.0,-44.4,-2519.4,57.3,179.1,-441.9,-1146.9,-195.0,120.9,927.9,-6.9,-6.0,-646.5,-729.9,-0.9,118.2,220.8,-1395.0,0,3954,0,107,0, 
2.2000,72.9,635.4,157.8,742.8,-40.2,-64.8,87.0,-40.5,-2371.2,53.7,185.1,-1122.6,-1164.0,-222.3,-17.7,930.9,-6.9,-6.0,-1279.5,-2568.0,-0.9,126.0,228.0,-1390.5,0,3960,0,108,0, 
2.2033,123.9,626.4,149.1,737.4,262.5,-69.6,78.0,-52.8,-1630.2,53.4,177.6,-148.2,-1146.0,111.0,385.2,946.8,-7.2,-5.7,-66.3,-665.4,-0.6,116.7,224.4,-1401.0,0,3966,0,109,0, 
2.2067,195.0,628.5,147.3,740.7,514.2,-61.2,87.3,-49.8,-1333.8,54.6,176.7,928.8,-1140.3,342.3,785.1,940.8,-6.9,-6.0,1202.4,2117.4,-0.9,117.0,229.8,-1401.3,0,3972,0,110,0, 
2.2100,145.5,618.9,139.8,723.3,330.0,-78.0,72.9,-65.4,-1926.6,53.4,170.1,746.7,-1152.0,116.4,542.4,926.7,-7.5,-6.0,791.1,2106.9,-0.6,106.5,217.2,-1408.8,0,3978,0,111,0, 
2.2133,109.8,630.9,152.1,731.7,-37.8,-69.6,84.3,-56.1,-2593.5,57.6,179.7,-480.9,-1154.4,-232.2,95.7,923.7,-6.9,-5.4,-682.8,-771.3,-0.9,120.6,223.5,-1395.3,0,3984,0,112,0, 
2.2167,87.3,627.3,150.0,734.4,-89.7,-72.0,80.4,-63.3,-2445.3,55.2,177.3,-1089.0,-1155.0,-282.3,-31.8,930.0,-6.9,-5.4,-1213.2,-2517.3,-0.9,117.9,223.2,-1398.6,0,3990,0,113,0, 
2.2200,151.8,632.1,149.4,741.3,266.7,-79.2,83.4,-64.2,-1704.3,56.1,180.0,-258.9,-1149.6,128.7,422.7,933.3,-6.6,-5.4,45.3,-599.4,-0.9,111.0,216.3,-1403.4,0,3996,0,114,0, 
2.2233,194.7,630.6,145.8,734.1,554.4,-71.4,88.5,-68.1,-1482.0,61.5,174.6,840.3,-1149.3,390.0,756.3,951.6,-6.9,-5.4,1346.1,2132.7,-0.6,114.9,220.8,-1396.5,0,4002,0,115,0, 
2.2267,153.3,626.7,147.0,736.5,408.3,-67.8,85.8,-64.2,-1926.6,57.0,177.6,648.6,-1158.9,130.2,601.5,921.0,-7.2,-6.0,905.1,2064.3,-1.2,113.1,234.0,-1388.4,0,4008,0,116,0, 
2.2300,94.5,621.0,149.1,734.1,-42.3,-68.7,87.6,-69.9,-2593.5,63.6,174.0,-535.8,-1152.9,-231.9,106.5,930.9,-6.6,-6.0,-651.0,-849.6,-0.9,111.6,227.1,-1388.4,0,4014,0,117,0, 
2.2333,99.9,620.1,138.9,726.0,-78.6,-71.4,81.6,-80.4,-2445.3,49.8,168.6,-1111.8,-1146.0,-221.1,-47.7,936.9,-7.2,-6.0,-1143.0,-2526.3,-0.9,103.5,221.1,-1390.5,0,4020,0,118,0, 
2.2367,177.9,618.6,138.9,738.0,222.0,-63.9,83.1,-80.7,-1778.4,46.5,168.6,-222.6,-1153.5,152.1,322.2,945.9,-6.9,-5.4,49.2,-651.3,-0.6,100.8,222.0,-1391.4,0,4026,0,119,0, 
2.2400,200.1,622.2,137.7,743.7,495.6,-64.2,84.3,-79.8,-1333.8,44.1,163.5,866.1,-1172.4,396.0,727.8,944.4,-6.6,-6.0,1230.9,2001.3,-0.9,106.2,228.3,-1393.8,0,4032,0,120,0, 
2.2433,157.8,604.2,137.7,738.3,346.2,-63.9,85.2,-83.7,-1852.5,44.1,167.7,717.6,-1159.2,123.3,557.7,941.7,-6.6,-6.0,858.0,1986.9,-0.3,110.7,234.0,-1388.4,0,4038,0,121,0, 
2.2467,78.6,613.2,143.1,737.1,-59.7,-64.5,94.2,-84.6,-2593.5,54.9,173.7,-508.2,-1161.0,-236.7,68.1,942.3,-7.2,-5.7,-687.9,-856.8,-0.9,113.1,231.6,-1389.3,0,4044,0,122,0, 
2.2500,102.6,627.3,147.6,746.7,-31.5,-58.5,91.8,-82.5,-2519.4,49.8,175.5,-1095.0,-1155.3,-278.7,-38.4,945.3,-6.9,-5.7,-1246.8,-2556.3,-1.2,113.4,235.8,-1392.9,0,4050,0,123,0, 
2.2533,157.2,622.2,139.5,742.8,293.4,-62.1,86.4,-88.5,-1704.3,41.1,171.9,-139.5,-1148.4,140.7,302.1,959.1,-6.9,-6.0,-9.6,-723.0,-0.9,109.8,229.2,-1391.7,0,4056,0,124,0, 
2.2567,196.8,615.6,138.3,737.4,543.3,-69.9,83.7,-92.7,-1482.0,48.3,168.6,908.7,-1151.7,384.0,687.3,948.9,-6.3,-5.7,1186.5,2125.5,-1.2,114.3,232.5,-1390.2,0,4062,0,125,0, 
2.2600,147.3,621.3,143.4,739.8,366.9,-63.3,86.1,-95.7,-1852.5,53.4,176.7,848.1,-1150.8,132.0,546.9,942.6,-6.6,-6.0,824.7,2143.5,-0.3,116.4,229.5,-1385.7,0,4068,0,126,0, 
2.2633,81.3,630.0,155.7,734.4,15.6,-67.2,86.4,-96.0,-2667.6,57.3,180.3,-368.1,-1156.5,-315.9,27.6,923.4,-7.2,-6.0,-736.5,-703.5,-0.9,115.8,225.3,-1388.1,0,4074,0,127,0, 
2.2667,100.5,630.0,149.7,743.7,55.5,-64.2,87.0,-93.3,-2445.3,62.4,183.9,-913.8,-1137.9,-204.6,-51.6,939.3,-6.9,-5.7,-1229.7,-2331.3,-0.6,119.4,232.8,-1387.2,0,4080,0,128,0, 
2.2700,179.1,633.3,147.6,744.0,342.6,-65.4,85.2,-99.3,-1778.4,52.8,178.8,-152.4,-1146.3,66.0,312.3,942.6,-7.2,-6.0,-137.1,-612.3,-0.9,121.8,231.3,-1392.3,0,4086,0,129,0, 
2.2733,199.5,630.9,148.5,753.0,618.0,-71.1,84.9,-106.2,-1333.8,51.9,177.3,1019.1,-1149.6,337.5,678.3,946.2,-6.9,-5.4,1153.2,2232.6,-1.2,121.5,229.2,-1394.7,0,4092,0,130,0, 
2.2767,168.6,621.6,146.4,736.8,417.0,-70.5,80.1,-109.8,-1852.5,56.4,176.1,949.2,-1156.2,150.9,543.6,941.7,-7.2,-6.3,776.7,2064.6,-0.9,117.6,225.9,-1395.3,0,4098,0,131,0, 
2.2800,87.9,626.7,153.9,740.4,108.3,-66.9,88.8,-108.3,-2667.6,62.1,179.1,-320.1,-1155.9,-148.2,61.5,930.6,-6.9,-6.0,-644.1,-754.2,-1.2,122.4,227.4,-1388.1,0,4104,0,132,0, 
2.2833,101.4,634.2,155.7,743.4,35.7,-66.0,89.1,-106.5,-2445.3,59.7,186.0,-983.7,-1151.4,-174.3,-56.7,942.3,-6.6,-6.0,-1301.4,-2493.6,-0.9,128.1,230.1,-1384.2,0,4110,0,133,0, 
2.2867,158.1,631.8,153.3,750.9,395.4,-55.8,84.9,-112.5,-1704.3,61.5,183.0,-79.2,-1151.1,185.7,312.9,948.3,-6.6,-5.7,-29.4,-572.4,-1.2,127.5,231.3,-1379.4,0,4116,0,134,0, 
2.2900,195.3,630.0,153.9,743.7,619.5,-59.7,81.9,-118.2,-1482.0,53.4,184.2,1040.4,-1143.9,378.0,643.5,949.2,-6.9,-6.0,1214.7,2160.0,-0.6,117.3,232.8,-1386.9,0,4122,0,135,0, 
2.2933,141.6,622.8,150.3,743.4,430.5,-58.5,84.6,-123.9,-1852.5,57.6,180.3,888.3,-1156.8,135.9,511.2,945.6,-6.9,-6.0,767.7,2134.2,-0.9,123.6,235.8,-1386.9,0,4128,0,136,0, 
2.2967,82.8,622.5,149.1,744.9,16.5,-59.1,86.7,-127.8,-2593.5,63.9,182.4,-319.5,-1170.0,-311.7,18.9,929.1,-6.9,-6.3,-833.7,-756.6,-0.6,125.4,237.3,-1378.2,0,4134,0,137,0, 
2.3000,91.5,633.9,153.3,747.6,-117.9,-57.6,86.7,-126.6,-2371.2,61.2,186.9,-963.0,-1158.3,-257.1,-33.0,927.0,-6.9,-5.4,-1347.9,-2433.9,-1.2,120.3,242.4,-1382.1,0,4140,0,138,0, 
2.3033,160.8,633.0,149.7,744.0,251.4,-55.8,79.2,-134.4,-1778.4,59.1,188.7,4.8,-1152.0,214.5,354.3,951.9,-6.9,-5.7,-54.6,-371.7,-0.6,125.4,236.4,-1386.9,0,4146,0,139,0, 
2.3067,188.4,644.7,150.6,749.7,494.1,-56.4,83.4,-129.0,-1407.9,64.5,186.9,1060.2,-1152.0,408.9,669.9,951.6,-6.9,-5.4,1189.2,2297.1,-0.6,126.6,232.2,-1387.5,0,4152,0,140,0, 
2.3100,167.1,639.6,149.1,747.0,277.5,-60.6,84.3,-133.8,-1926.6,58.8,181.5,901.2,-1168.5,161.7,473.1,930.6,-7.2,-6.0,855.6,2143.5,-1.2,127.2,231.9,-1387.5,0,4158,0,141,0, 
2.3133,119.7,634.8,151.5,737.7,-63.0,-59.7,85.5,-129.6,-2593.5,68.1,191.4,-393.3,-1147.8,-217.5,26.1,936.3,-6.9,-6.0,-686.4,-699.6,-0.3,130.5,234.6,-1385.7,0,4164,0,142,0, 
2.3167,109.8,628.5,141.3,733.2,-115.5,-59.1,81.6,-140.1,-2519.4,59.4,177.6,-1005.0,-1150.2,-198.9,-99.0,941.1,-7.2,-5.7,-1209.0,-2421.6,-0.9,123.9,232.5,-1391.7,0,4170,0,143,0, 
2.3200,168.9,632.1,137.4,740.7,264.6,-56.4,84.0,-138.6,-1778.4,59.4,179.1,-141.0,-1147.5,184.5,406.8,967.5,-6.9,-5.4,75.3,-567.3,-0.6,123.3,234.6,-1392.0,0,4176,0,144,0, 
2.3233,203.1,635.7,139.8,736.8,483.6,-56.4,84.0,-141.0,-1482.0,69.6,183.3,942.6,-1137.9,399.9,771.0,965.7,-7.2,-6.0,1355.1,2223.0,-1.2,126.6,235.5,-1389.3,0,4182,0,145,0, 
2.3267,160.8,646.5,145.5,741.0,393.9,-54.3,85.2,-143.1,-1852.5,76.8,189.6,736.2,-1145.1,172.8,613.8,955.8,-6.9,-6.3,864.0,2040.9,-0.6,133.2,238.2,-1389.0,0,4188,0,146,0, 
2.3300,87.3,634.8,145.5,745.5,-0.6,-57.3,81.6,-148.8,-2593.5,70.8,186.9,-475.5,-1152.3,-205.8,86.4,945.6,-6.9,-5.7,-669.3,-753.9,-1.2,136.2,239.4,-1381.8,0,4194,0,147,0, 
