Time,P3,C3,F3,Fz,F4,C4,P4,Cz,CM,A1,Fp1,Fp2,T3,T5,O1,O2,X3,X2,F7,F8,X1,A2,T6,T4,Trigger,Time_Offset,ADC_Status,ADC_Sequence,Event,Comments
0.0033,2747.7,-2154.9,-306.9,-72.9,-1269.9,-380.4,-984.6,6.3,19562.4,-348.6,410.4,193.8,-1718.4,-7533.0,9830.1,-802.8,-6.6,-5.7,603.6,-249.0,-0.9,-309.0,-1500.0,-532.2,0,6,268435456,77,0, 
0.0067,2748.9,-2166.3,-303.9,-75.0,-1263.6,-391.2,-989.7,3.0,22007.7,-350.1,407.1,189.6,-1712.7,-7277.4,9830.1,-811.8,-6.6,-6.0,603.3,-243.6,-0.9,-306.3,-1508.1,-534.3,0,12,268435456,78,0, 
0.0100,2776.2,-2165.1,-285.0,-57.9,-1247.4,-411.6,-978.6,19.5,16968.9,-331.2,383.1,209.4,-1686.9,-7313.1,9830.1,-861.9,-6.6,-6.0,623.1,-227.1,-0.6,-297.0,-1498.2,-581.7,0,18,268435456,79,0, 
0.0133,2783.1,-2150.1,-263.7,-41.4,-1228.2,-412.8,-958.8,33.0,11263.2,-309.6,357.6,227.7,-1675.2,-7611.6,9830.1,-888.0,-7.5,-5.7,639.0,-201.0,-0.6,-272.4,-1483.8,-589.5,0,24,268435456,80,0, 
0.0167,2767.5,-2150.4,-284.1,-56.1,-1245.3,-395.7,-961.8,24.9,12967.5,-331.8,369.3,207.3,-1698.3,-7739.7,9830.1,-850.8,-6.9,-5.7,618.6,-219.3,-0.3,-283.5,-1478.7,-548.1,0,30,268435456,81,0, 
0.0200,2743.8,-2160.3,-318.0,-78.3,-1270.2,-381.3,-982.8,4.8,19562.4,-357.3,392.1,175.5,-1721.1,-7527.0,9830.1,-810.3,-7.2,-5.7,595.2,-247.5,-0.6,-316.8,-1506.0,-528.3,0,36,268435456,82,0, 
0.0233,2752.2,-2167.8,-309.0,-76.8,-1269.3,-395.7,-987.6,9.0,22007.7,-357.3,384.6,190.5,-1703.4,-7264.5,9830.1,-816.0,-6.9,-6.0,595.5,-238.5,-0.6,-306.9,-1498.5,-532.8,0,42,268435456,83,0, 
0.0267,2777.1,-2152.5,-281.1,-52.2,-1241.4,-413.7,-969.3,31.8,16894.8,-326.4,387.9,210.0,-1663.2,-7329.0,9830.1,-861.3,-6.6,-6.0,621.3,-228.6,-0.9,-288.3,-1476.0,-592.8,0,48,268435456,84,0, 
0.0300,2790.6,-2155.2,-275.7,-48.6,-1236.6,-421.2,-969.9,31.5,11263.2,-322.2,352.2,214.2,-1668.0,-7615.5,9830.1,-881.7,-6.6,-5.7,632.1,-209.1,-0.9,-266.1,-1481.1,-605.4,0,54,268435456,85,0, 
0.0333,2776.2,-2152.2,-292.8,-62.1,-1251.6,-391.2,-967.5,21.6,12893.4,-345.0,356.1,195.9,-1683.3,-7741.5,9830.1,-852.9,-7.2,-6.3,606.6,-226.5,-1.2,-285.3,-1499.4,-574.5,0,60,268435456,86,0, 
0.0367,2752.5,-2156.4,-302.7,-84.9,-1275.3,-384.9,-982.2,8.4,19488.3,-369.6,357.0,168.9,-1711.5,-7539.0,9830.1,-801.6,-6.6,-6.0,585.6,-253.2,-0.9,-325.2,-1513.8,-544.5,0,66,268435456,87,0, 
0.0400,2756.7,-2166.6,-323.1,-89.1,-1278.3,-391.5,-988.2,4.2,22007.7,-367.2,378.9,168.0,-1710.6,-7258.5,9830.1,-808.2,-6.9,-5.7,590.1,-257.1,-0.3,-335.1,-1515.9,-565.5,0,72,268435456,88,0, 
0.0433,2775.3,-2165.1,-299.1,-64.8,-1250.1,-405.6,-975.3,22.8,16820.7,-332.4,379.8,199.2,-1696.5,-7355.7,9830.1,-855.0,-6.9,-5.7,621.0,-227.4,-0.6,-293.4,-1493.7,-597.6,0,78,268435456,89,0, 
0.0467,2780.1,-2163.9,-281.1,-61.8,-1246.2,-421.2,-972.6,25.5,11040.9,-332.7,332.1,191.7,-1689.0,-7636.5,9830.1,-886.2,-6.9,-5.4,616.2,-225.0,-0.3,-291.6,-1493.4,-618.3,0,84,268435456,90,0, 
0.0500,2777.1,-2142.9,-299.4,-74.1,-1257.9,-402.0,-975.3,19.5,12967.5,-349.5,365.4,185.1,-1684.8,-7726.5,9830.1,-850.2,-6.9,-6.0,609.9,-241.2,-0.9,-311.4,-1511.7,-575.1,0,90,268435456,91,0, 
0.0533,2752.5,-2158.8,-325.2,-95.7,-1280.7,-387.9,-984.6,6.6,19488.3,-375.6,403.2,156.0,-1721.1,-7532.4,9830.1,-790.2,-7.2,-5.4,585.3,-281.4,-0.9,-344.4,-1507.5,-532.8,0,96,268435456,92,0, 
0.0567,2746.8,-2171.7,-318.6,-94.2,-1278.9,-402.0,-986.1,-4.5,22081.8,-370.5,402.0,159.0,-1717.5,-7287.6,9830.1,-796.2,-6.9,-5.4,586.2,-274.5,-0.9,-323.7,-1500.6,-553.2,0,102,268435456,93,0, 
0.0600,2771.7,-2163.0,-286.2,-60.3,-1248.0,-412.8,-978.0,17.1,16894.8,-334.2,376.8,196.2,-1686.9,-7345.8,9830.1,-859.2,-7.2,-5.7,627.9,-224.7,-0.6,-280.8,-1490.7,-582.0,0,108,268435456,94,0, 
0.0633,2781.3,-2162.4,-283.8,-59.7,-1242.0,-420.9,-970.5,22.5,11115.0,-333.0,345.6,193.8,-1681.2,-7626.9,9830.1,-878.7,-6.6,-5.7,633.9,-236.1,-0.6,-277.5,-1485.6,-617.1,0,114,268435456,95,0, 
0.0667,2765.4,-2163.3,-301.8,-80.7,-1263.0,-405.3,-975.0,12.0,12893.4,-361.8,350.1,174.6,-1703.7,-7747.5,9830.1,-836.4,-6.6,-6.0,605.7,-261.6,-0.9,-304.8,-1487.1,-606.3,0,120,268435456,96,0, 
0.0700,2736.3,-2161.5,-321.3,-99.9,-1287.0,-380.7,-981.9,-6.0,19488.3,-383.4,403.5,159.0,-1725.3,-7555.5,9830.1,-793.2,-6.3,-5.4,591.3,-256.8,-0.6,-328.8,-1493.1,-547.2,0,126,268435456,97,0, 
0.0733,2742.0,-2161.5,-305.7,-86.7,-1273.5,-382.2,-981.9,1.8,22007.7,-355.2,420.6,182.7,-1716.0,-7304.1,9830.1,-806.4,-6.9,-6.0,606.0,-233.7,-0.6,-308.4,-1500.6,-562.8,0,132,268435456,98,0, 
0.0767,2766.0,-2173.5,-287.7,-66.3,-1251.3,-402.9,-980.7,12.3,16820.7,-332.1,414.3,199.2,-1685.1,-7357.8,9830.1,-850.2,-7.2,-5.7,623.7,-219.0,-0.6,-282.0,-1491.3,-594.3,0,138,268435456,99,0, 
0.0800,2779.5,-2167.2,-279.6,-60.9,-1248.6,-406.5,-975.9,17.7,11115.0,-333.6,378.9,206.1,-1680.3,-7631.1,9830.1,-873.3,-7.2,-6.3,629.1,-219.6,-0.9,-274.5,-1486.2,-626.7,0,144,268435456,100,0, 
0.0833,2759.1,-2160.3,-302.4,-75.0,-1260.3,-393.9,-977.4,8.1,12893.4,-343.8,390.3,191.7,-1685.1,-7753.2,9830.1,-835.5,-6.6,-5.7,620.4,-234.9,-0.9,-297.3,-1501.5,-586.2,0,150,268435456,101,0, 
0.0867,2736.9,-2165.7,-322.8,-92.4,-1275.6,-381.9,-979.5,-4.8,19488.3,-362.4,426.3,167.7,-1719.3,-7542.0,9830.1,-791.4,-6.9,-6.0,597.6,-260.1,-0.6,-317.1,-1488.3,-544.5,0,156,268435456,102,0, 
0.0900,2739.3,-2175.3,-325.8,-94.2,-1278.3,-399.3,-991.5,-7.8,22081.8,-364.5,453.0,164.1,-1722.9,-7275.9,9830.1,-802.8,-6.9,-6.3,594.6,-253.2,-0.6,-305.4,-1500.9,-549.0,0,162,268435456,103,0, 
0.0933,2763.3,-2174.4,-290.4,-72.3,-1256.1,-410.1,-980.4,7.2,16894.8,-334.5,444.3,191.1,-1698.0,-7358.4,9830.1,-847.5,-6.9,-5.7,621.3,-228.0,-0.9,-287.4,-1486.2,-604.5,0,168,268435456,104,0, 
0.0967,2775.6,-2168.1,-276.3,-66.0,-1248.0,-418.8,-972.3,14.7,11189.1,-323.4,404.1,195.6,-1693.5,-7622.4,9830.1,-861.0,-6.9,-5.7,628.8,-235.2,-0.6,-272.7,-1479.3,-619.2,0,174,268435456,105,0, 
0.1000,2764.5,-2160.9,-297.3,-77.7,-1263.0,-402.6,-973.8,6.6,12893.4,-340.8,423.3,181.8,-1707.9,-7722.0,9830.1,-849.0,-7.2,-5.7,608.4,-244.2,-0.6,-294.0,-1496.4,-590.1,0,180,268435456,106,0, 
0.1033,2745.3,-2158.8,-313.2,-94.8,-1278.9,-386.4,-987.0,-3.6,19562.4,-362.4,456.0,153.0,-1720.8,-7520.7,9830.1,-795.9,-6.9,-5.7,586.2,-264.0,-1.2,-317.1,-1497.0,-527.4,0,186,268435456,107,0, 
0.1067,2746.5,-2154.9,-306.9,-82.5,-1270.8,-383.4,-981.0,1.8,21933.6,-351.6,462.6,165.0,-1710.0,-7276.8,9830.1,-792.3,-6.9,-5.7,598.5,-267.6,-0.6,-304.8,-1493.1,-526.8,0,192,268435456,108,0, 
0.1100,2769.9,-2152.8,-273.9,-61.5,-1244.1,-404.7,-973.2,11.4,16820.7,-321.9,432.3,213.3,-1683.3,-7323.0,9830.1,-854.4,-6.9,-5.4,621.9,-216.0,-0.9,-267.9,-1480.5,-563.7,0,198,268435456,109,0, 
0.1133,2780.1,-2156.7,-277.2,-62.4,-1242.6,-414.0,-975.9,16.8,11115.0,-336.0,394.2,209.1,-1679.4,-7607.4,9830.1,-879.0,-6.6,-5.7,608.1,-219.6,-0.6,-281.4,-1494.3,-618.9,0,204,268435456,110,0, 
0.1167,2762.7,-2158.2,-299.1,-74.7,-1260.6,-395.7,-974.7,8.1,12819.3,-348.9,396.3,179.1,-1700.4,-7736.1,9830.1,-833.7,-6.6,-6.3,590.7,-252.3,-0.6,-294.6,-1488.3,-576.0,0,210,268435456,111,0, 
0.1200,2740.2,-2156.1,-297.0,-76.2,-1267.8,-371.4,-981.9,0.3,19562.4,-354.0,437.4,176.1,-1716.3,-7525.8,9830.1,-789.9,-6.9,-5.4,601.5,-249.6,-0.3,-305.7,-1494.9,-537.0,0,216,268435456,112,0, 
0.1233,2745.3,-2157.9,-294.6,-70.2,-1258.5,-376.8,-984.9,3.3,22007.7,-340.5,453.0,195.3,-1709.1,-7276.5,9830.1,-792.6,-7.2,-6.0,632.4,-226.8,-1.2,-289.2,-1493.1,-549.0,0,222,268435456,113,0, 
0.1267,2767.2,-2159.7,-273.0,-54.3,-1242.0,-392.7,-974.7,16.2,16820.7,-324.9,421.8,209.4,-1688.1,-7335.3,9830.1,-838.2,-7.2,-5.7,649.2,-232.2,-0.9,-282.0,-1489.5,-627.9,0,228,268435456,114,0, 
0.1300,2780.4,-2162.7,-271.5,-42.3,-1234.8,-393.9,-970.2,21.0,11263.2,-315.3,396.6,213.0,-1676.1,-7622.1,9830.1,-877.5,-7.2,-5.7,657.0,-218.1,-0.9,-267.9,-1485.9,-617.4,0,234,268435456,115,0, 
0.1333,2764.8,-2161.2,-294.0,-69.0,-1262.4,-397.8,-981.0,1.8,12893.4,-352.2,391.8,183.3,-1692.6,-7714.8,9830.1,-838.5,-6.9,-5.4,623.4,-247.8,-0.3,-302.1,-1494.3,-598.8,0,240,268435456,116,0, 
0.1367,2744.7,-2157.3,-316.5,-81.9,-1274.4,-376.5,-991.8,-6.3,19636.5,-368.1,428.7,163.5,-1707.0,-7515.0,9830.1,-786.9,-6.9,-5.7,611.7,-268.2,-0.6,-326.7,-1500.0,-555.3,0,246,268435456,117,0, 
0.1400,2748.3,-2159.7,-291.0,-72.9,-1261.5,-384.9,-993.9,-3.0,22081.8,-350.4,462.3,176.1,-1705.8,-7255.2,9830.1,-804.3,-6.9,-6.0,619.5,-259.8,-0.6,-317.7,-1504.5,-556.5,0,252,268435456,118,0, 
0.1433,2774.1,-2157.9,-261.6,-40.8,-1232.4,-394.5,-972.9,24.6,16820.7,-312.3,434.1,205.8,-1691.4,-7351.5,9830.1,-850.5,-7.2,-5.7,651.3,-234.6,-1.2,-273.6,-1479.0,-588.9,0,258,268435456,119,0, 
0.1467,2796.3,-2152.2,-256.8,-39.6,-1231.2,-402.9,-963.9,32.1,11337.3,-317.4,405.0,212.7,-1673.4,-7572.3,9830.1,-878.1,-6.9,-5.7,648.3,-225.3,-0.9,-278.7,-1479.3,-620.7,0,264,268435456,120,0, 
0.1500,2770.8,-2143.5,-278.4,-53.4,-1250.1,-382.2,-979.5,19.8,12967.5,-332.7,429.3,190.8,-1683.0,-7723.5,9830.1,-842.7,-6.9,-5.4,639.3,-243.3,-0.6,-296.1,-1495.2,-589.8,0,270,268435456,121,0, 
0.1533,2745.3,-2138.7,-298.2,-66.6,-1264.8,-360.3,-981.3,9.6,19636.5,-333.6,462.6,179.7,-1703.1,-7530.6,9830.1,-787.2,-6.9,-6.0,624.9,-255.3,-0.9,-303.6,-1483.5,-534.3,0,276,268435456,122,0, 
0.1567,2747.7,-2158.8,-304.8,-73.8,-1278.0,-382.5,-992.7,1.2,21933.6,-345.6,449.1,170.7,-1702.5,-7276.2,9830.1,-794.1,-7.2,-6.0,617.4,-252.3,-0.9,-312.9,-1506.0,-566.4,0,282,268435456,123,0, 
0.1600,2768.7,-2152.5,-269.4,-43.5,-1240.8,-393.0,-977.7,22.5,17043.0,-310.8,411.0,206.4,-1688.7,-7350.9,9830.1,-846.3,-7.2,-5.7,648.0,-229.2,-0.6,-281.4,-1496.4,-608.1,0,288,268435456,124,0, 
0.1633,2781.3,-2145.6,-265.2,-38.4,-1232.1,-395.7,-970.2,26.4,11189.1,-305.7,407.1,213.0,-1677.9,-7616.4,9830.1,-875.4,-6.9,-6.0,654.6,-225.0,-0.6,-257.7,-1488.3,-610.8,0,294,268435456,125,0, 
0.1667,2767.5,-2144.4,-283.5,-57.6,-1251.3,-377.4,-975.6,14.7,13041.6,-335.1,408.0,178.8,-1684.5,-7716.3,9830.1,-848.1,-6.6,-5.7,636.9,-253.8,-0.9,-300.3,-1497.0,-585.0,0,300,268435456,126,0, 
0.1700,2743.2,-2149.2,-300.0,-74.1,-1267.2,-357.3,-977.1,1.8,19636.5,-350.7,436.5,174.9,-1711.8,-7517.7,9830.1,-787.2,-6.9,-6.0,620.1,-259.5,-0.3,-313.8,-1497.0,-534.6,0,306,268435456,127,0, 
0.1733,2748.0,-2148.6,-291.9,-67.8,-1264.8,-360.9,-984.6,1.5,22007.7,-345.9,429.3,180.6,-1698.6,-7254.9,9830.1,-781.8,-6.9,-5.4,629.1,-269.7,-1.2,-309.0,-1503.6,-532.5,0,312,268435456,128,0, 
0.1767,2769.3,-2151.9,-268.2,-42.6,-1239.0,-389.7,-976.2,18.9,16894.8,-318.6,420.0,213.3,-1675.5,-7316.4,9830.1,-830.7,-6.6,-5.7,651.9,-234.9,-1.2,-275.7,-1487.1,-598.2,0,318,268435456,129,0, 
0.1800,2778.0,-2154.9,-263.4,-43.5,-1237.8,-399.6,-977.4,18.6,11189.1,-315.6,391.8,213.6,-1674.9,-7617.9,9830.1,-868.8,-6.9,-5.4,645.9,-223.8,-0.3,-272.1,-1497.3,-626.7,0,324,268435456,130,0, 
0.1833,2766.6,-2142.0,-273.9,-55.2,-1253.4,-383.1,-979.8,13.8,13041.6,-327.6,388.5,195.3,-1678.2,-7716.9,9830.1,-836.7,-6.9,-5.7,627.3,-247.2,-1.2,-288.0,-1489.5,-576.6,0,330,268435456,131,0, 
0.1867,2745.0,-2147.7,-307.5,-78.3,-1272.0,-364.5,-980.1,0.0,19562.4,-350.4,419.1,167.1,-1692.0,-7503.3,9830.1,-785.4,-7.2,-5.7,609.6,-282.3,-0.6,-315.6,-1487.1,-544.2,0,336,268435456,132,0, 
0.1900,2739.9,-2164.5,-298.8,-79.5,-1275.0,-382.5,-986.7,-6.0,22081.8,-345.6,434.1,181.2,-1707.3,-7292.7,9830.1,-795.3,-7.2,-6.0,610.2,-255.0,-1.2,-305.4,-1505.7,-542.4,0,342,268435456,133,0, 
0.1933,2762.7,-2166.6,-284.7,-62.1,-1256.4,-396.3,-977.4,6.9,16820.7,-326.4,411.0,201.0,-1688.1,-7338.3,9830.1,-845.4,-6.9,-6.0,639.0,-225.0,-1.2,-286.8,-1494.0,-596.4,0,348,268435456,134,0, 
0.1967,2776.5,-2160.0,-276.3,-55.5,-1245.3,-410.4,-970.5,16.5,11337.3,-308.7,391.8,210.6,-1677.3,-7622.4,9830.1,-861.9,-7.2,-6.0,650.4,-210.3,-0.9,-273.6,-1486.8,-619.2,0,354,268435456,135,0, 
0.2000,2764.2,-2148.3,-292.8,-69.9,-1265.4,-390.9,-974.1,5.1,13041.6,-329.4,415.5,191.4,-1689.6,-7722.9,9830.1,-844.8,-6.9,-6.0,631.2,-235.5,-0.6,-294.0,-1496.1,-594.0,0,360,268435456,136,0, 
0.2033,2737.8,-2149.2,-321.9,-98.4,-1289.7,-380.4,-985.2,-15.3,19784.7,-364.5,422.1,160.8,-1706.4,-7511.1,9830.1,-786.6,-6.9,-5.7,593.1,-264.0,-0.9,-324.9,-1502.4,-545.4,0,366,268435456,137,0, 
0.2067,2739.3,-2159.4,-313.2,-91.5,-1282.5,-386.7,-986.7,-13.5,22081.8,-360.0,422.4,167.4,-1710.0,-7248.3,9830.1,-795.9,-7.2,-5.7,603.0,-258.6,-0.9,-301.2,-1500.0,-542.7,0,372,268435456,138,0, 
0.2100,2760.3,-2163.6,-297.6,-74.7,-1265.1,-418.5,-986.7,3.0,16746.6,-335.1,403.8,187.2,-1689.0,-7321.2,9830.1,-856.8,-7.2,-5.7,629.1,-243.0,-1.2,-295.5,-1512.0,-611.1,0,378,268435456,139,0, 
0.2133,2773.2,-2155.2,-276.0,-57.0,-1250.4,-420.6,-974.4,10.2,11337.3,-318.3,385.5,204.0,-1670.7,-7616.7,9830.1,-884.7,-6.9,-5.4,639.3,-226.2,-0.9,-292.8,-1493.4,-630.9,0,384,268435456,140,0, 
0.2167,2752.2,-2157.0,-294.0,-69.9,-1263.3,-389.4,-975.3,1.5,12967.5,-329.1,386.4,188.7,-1707.6,-7755.3,9830.1,-835.2,-7.2,-5.7,624.3,-244.5,-0.6,-294.9,-1505.4,-583.2,0,390,268435456,141,0, 
0.2200,2734.2,-2154.9,-315.0,-95.4,-1287.9,-377.7,-981.0,-14.4,19710.6,-365.1,419.1,161.1,-1715.4,-7506.6,9830.1,-792.6,-6.9,-5.4,606.3,-280.5,-0.9,-329.4,-1503.0,-552.6,0,396,268435456,142,0, 
0.2233,2739.3,-2154.0,-311.1,-88.2,-1279.5,-373.5,-986.1,-10.8,22081.8,-347.1,441.9,159.9,-1704.0,-7258.8,9830.1,-785.7,-6.9,-6.3,621.3,-277.8,-0.9,-312.6,-1503.6,-559.5,0,402,268435456,143,0, 
0.2267,2758.2,-2157.6,-286.8,-68.4,-1258.2,-396.3,-970.2,1.8,16746.6,-327.6,408.9,192.0,-1686.0,-7323.6,9830.1,-842.4,-6.6,-5.7,634.5,-243.9,-0.6,-283.5,-1486.2,-603.6,0,408,268435456,144,0, 
0.2300,2777.7,-2152.5,-271.8,-63.0,-1249.5,-405.6,-968.7,12.6,11411.4,-312.9,399.6,199.8,-1661.4,-7582.8,9830.1,-855.0,-7.2,-5.7,636.9,-237.9,-0.6,-279.6,-1482.3,-627.3,0,414,268435456,145,0, 
0.2333,2761.8,-2142.9,-278.1,-71.4,-1264.2,-383.7,-972.9,3.0,13041.6,-320.1,415.5,192.6,-1673.4,-7694.4,9830.1,-828.9,-6.9,-5.4,637.8,-249.0,-0.6,-286.8,-1491.3,-603.3,0,420,268435456,146,0, 
0.2367,2732.1,-2159.7,-320.7,-100.5,-1295.1,-372.3,-987.9,-14.4,19858.8,-357.3,402.3,158.1,-1711.5,-7484.7,9830.1,-789.3,-6.6,-5.4,599.7,-267.0,-0.6,-321.6,-1497.0,-558.0,0,426,268435456,147,0, 
0.2400,2733.9,-2158.2,-303.3,-88.5,-1281.3,-374.1,-984.0,-3.6,22155.9,-332.7,425.1,176.4,-1704.9,-7253.4,9830.1,-800.4,-6.9,-5.7,624.3,-254.1,-0.6,-301.5,-1482.0,-559.5,0,432,268435456,148,0, 
0.2433,2755.5,-2163.0,-275.1,-70.8,-1260.9,-394.8,-979.2,14.4,16894.8,-305.4,409.8,202.8,-1689.6,-7316.4,9830.1,-846.0,-6.3,-5.7,646.8,-220.2,-0.6,-277.8,-1476.3,-601.2,0,438,268435456,149,0, 
0.2467,2769.0,-2152.5,-268.8,-57.0,-1245.0,-405.0,-970.5,21.6,11337.3,-294.9,395.1,222.9,-1669.5,-7592.1,9830.1,-864.9,-6.9,-5.7,663.3,-202.2,-0.9,-260.7,-1476.9,-624.6,0,444,268435456,150,0, 
0.2500,2753.4,-2147.4,-287.4,-75.9,-1259.1,-386.1,-971.4,10.5,13115.7,-318.9,396.6,197.1,-1694.1,-7714.8,9830.1,-825.6,-6.6,-6.0,628.8,-229.8,-0.9,-277.8,-1483.8,-592.5,0,450,268435456,151,0, 
0.2533,2733.3,-2152.8,-312.0,-92.1,-1276.2,-368.4,-982.2,-4.5,19858.8,-343.8,391.2,174.6,-1712.7,-7490.7,9830.1,-776.7,-6.9,-6.0,604.2,-249.3,-0.9,-310.5,-1494.6,-548.4,0,456,268435456,152,0, 
0.2567,2738.7,-2155.2,-306.9,-93.6,-1278.3,-387.3,-990.3,-5.4,22155.9,-347.4,421.5,174.6,-1706.7,-7212.3,9830.1,-777.0,-6.9,-6.0,605.7,-253.8,-0.9,-310.2,-1497.3,-556.2,0,462,268435456,153,0, 
0.2600,2754.6,-2163.0,-287.4,-79.2,-1255.8,-410.4,-988.2,7.5,16820.7,-322.5,384.6,197.1,-1690.8,-7301.4,9830.1,-831.9,-7.2,-6.3,634.2,-232.8,-0.6,-285.3,-1486.5,-611.7,0,468,268435456,154,0, 
0.2633,2766.3,-2147.7,-274.2,-63.9,-1236.9,-405.9,-980.7,22.5,11263.2,-308.1,403.8,204.0,-1669.5,-7583.4,9830.1,-849.6,-6.6,-5.7,645.9,-216.0,-0.6,-273.6,-1478.4,-615.9,0,474,268435456,155,0, 
0.2667,2753.7,-2146.8,-290.1,-77.1,-1252.5,-377.1,-979.2,8.4,13189.8,-325.5,415.2,187.8,-1683.9,-7690.5,9830.1,-821.1,-6.9,-5.7,631.5,-223.8,-0.9,-297.0,-1483.8,-591.3,0,480,268435456,156,0, 
0.2700,2727.3,-2160.6,-323.1,-101.4,-1280.7,-374.1,-999.3,-11.1,19784.7,-358.5,413.4,159.6,-1713.9,-7476.6,9830.1,-767.7,-7.5,-5.7,611.1,-258.6,-0.6,-325.5,-1504.2,-564.0,0,486,268435456,157,0, 
0.2733,2730.3,-2161.8,-309.9,-90.9,-1269.9,-374.4,-999.0,-10.2,22007.7,-348.0,444.6,172.2,-1694.1,-7229.1,9830.1,-788.7,-7.2,-6.0,621.3,-250.2,-0.9,-315.9,-1496.4,-551.4,0,492,268435456,158,0, 
0.2767,2751.9,-2159.1,-286.2,-72.9,-1251.6,-405.0,-989.7,9.0,16672.5,-329.4,431.4,180.6,-1664.4,-7298.1,9830.1,-840.9,-6.9,-5.7,638.7,-229.5,-0.6,-293.1,-1485.0,-606.9,0,498,268435456,159,0, 
0.2800,2767.8,-2146.8,-273.0,-58.8,-1239.0,-403.2,-985.2,19.5,11189.1,-315.0,414.6,197.4,-1653.6,-7573.8,9830.1,-865.5,-6.6,-6.0,650.1,-221.4,-0.6,-282.6,-1490.4,-631.2,0,504,268435456,160,0, 
0.2833,2750.7,-2143.8,-292.2,-67.2,-1256.1,-378.3,-990.6,10.5,13041.6,-326.1,420.3,185.7,-1687.2,-7712.1,9830.1,-848.1,-6.9,-5.7,633.6,-226.5,-0.6,-304.8,-1494.0,-573.6,0,510,268435456,161,0, 
0.2867,2733.0,-2148.9,-314.1,-91.8,-1273.8,-361.5,-1006.2,-5.1,19784.7,-360.3,464.7,164.4,-1695.9,-7493.7,9830.1,-783.9,-6.9,-5.7,606.9,-252.6,-0.9,-315.6,-1497.3,-532.8,0,516,268435456,162,0, 
0.2900,2742.9,-2141.1,-297.0,-78.6,-1264.2,-372.9,-1005.9,3.3,22081.8,-345.0,463.2,174.9,-1695.9,-7222.5,9830.1,-785.4,-6.9,-5.7,610.8,-240.9,-0.9,-318.0,-1489.8,-545.4,0,522,268435456,163,0, 
0.2933,2755.5,-2154.3,-281.1,-56.7,-1242.0,-387.6,-996.3,18.6,16894.8,-322.2,421.8,202.8,-1681.2,-7323.0,9830.1,-848.1,-7.5,-5.7,639.0,-210.6,-0.3,-292.2,-1494.6,-596.7,0,528,268435456,164,0, 
0.2967,2769.0,-2142.9,-263.7,-36.9,-1221.0,-381.0,-978.0,39.9,11337.3,-301.8,422.4,223.8,-1667.1,-7608.0,9830.1,-874.2,-7.2,-6.0,660.3,-190.5,-1.2,-273.9,-1469.7,-609.3,0,534,268435456,165,0, 
0.3000,2748.0,-2139.3,-283.8,-51.3,-1237.8,-359.4,-978.9,26.4,13041.6,-319.2,435.0,207.6,-1683.3,-7738.5,9830.1,-844.2,-6.6,-5.7,646.2,-206.4,-0.9,-281.4,-1479.0,-574.5,0,540,268435456,166,0, 
0.3033,2725.8,-2146.2,-314.1,-76.5,-1267.2,-350.1,-999.9,9.6,19784.7,-356.4,421.2,169.5,-1712.4,-7492.2,9830.1,-797.1,-6.6,-5.4,613.8,-249.0,-0.9,-320.4,-1503.9,-549.9,0,546,268435456,167,0, 
0.3067,2720.1,-2153.1,-319.2,-74.1,-1265.7,-351.0,-1000.2,12.9,22007.7,-362.4,457.8,166.8,-1712.7,-7269.9,9830.1,-794.4,-6.9,-6.3,609.3,-244.5,-0.9,-320.7,-1492.5,-549.6,0,552,268435456,168,0, 
0.3100,2746.8,-2161.2,-287.4,-53.1,-1248.6,-375.0,-998.7,26.7,16820.7,-328.5,430.8,195.0,-1683.3,-7330.2,9830.1,-855.6,-6.9,-6.0,636.0,-204.6,-0.9,-298.8,-1500.6,-603.3,0,558,268435456,169,0, 
0.3133,2758.2,-2158.8,-271.2,-46.8,-1237.2,-386.4,-988.8,32.7,11263.2,-323.1,393.0,198.9,-1677.3,-7617.0,9830.1,-858.6,-6.9,-5.7,638.7,-210.9,-0.6,-295.8,-1485.3,-618.3,0,564,268435456,170,0, 
0.3167,2751.0,-2141.1,-281.7,-54.6,-1242.6,-361.8,-986.1,28.2,13115.7,-336.6,409.5,184.2,-1666.2,-7717.8,9830.1,-823.5,-6.6,-6.3,625.5,-228.0,-0.9,-308.7,-1492.2,-573.6,0,570,268435456,171,0, 
0.3200,2731.2,-2143.8,-289.2,-64.2,-1254.3,-329.1,-987.9,23.1,19710.6,-351.0,455.4,172.2,-1707.6,-7490.7,9830.1,-776.1,-6.9,-5.4,611.7,-225.9,-0.9,-308.4,-1476.6,-522.3,0,576,268435456,172,0, 
0.3233,2728.8,-2150.7,-308.1,-73.2,-1259.1,-343.8,-1005.3,13.8,21933.6,-353.7,460.2,169.2,-1695.0,-7246.5,9830.1,-792.3,-7.5,-5.7,617.7,-247.8,-0.6,-321.0,-1496.7,-554.1,0,582,268435456,173,0, 
0.3267,2747.1,-2165.1,-280.2,-57.0,-1239.9,-366.6,-999.6,24.0,16894.8,-338.4,432.9,187.8,-1697.1,-7322.7,9830.1,-840.0,-6.9,-5.7,638.7,-229.2,-0.9,-298.5,-1496.4,-594.9,0,588,268435456,174,0, 
0.3300,2763.6,-2159.1,-278.4,-51.9,-1234.2,-383.1,-997.2,26.1,11040.9,-331.2,409.2,185.7,-1683.9,-7596.9,9830.1,-874.2,-6.9,-6.0,639.0,-213.3,-0.6,-304.2,-1497.6,-629.7,0,594,268435456,175,0, 
0.3333,2749.2,-2157.6,-297.9,-62.4,-1237.8,-355.8,-994.2,24.9,12967.5,-343.2,420.9,187.8,-1698.9,-7722.6,9830.1,-829.5,-6.9,-5.7,627.0,-226.5,-0.6,-312.3,-1496.4,-592.5,0,600,268435456,176,0, 
0.3367,2732.1,-2143.5,-308.7,-75.0,-1257.0,-333.9,-1000.8,16.8,19784.7,-357.0,474.6,179.4,-1712.4,-7506.6,9830.1,-779.7,-7.2,-6.0,618.3,-235.5,-0.6,-308.4,-1489.5,-533.1,0,606,268435456,177,0, 
0.3400,2731.2,-2160.6,-301.8,-75.3,-1261.2,-350.1,-1007.1,8.4,21933.6,-355.5,457.8,175.8,-1703.4,-7261.8,9830.1,-771.3,-6.6,-5.7,610.5,-242.7,-1.2,-311.1,-1494.6,-542.7,0,612,268435456,178,0, 
0.3433,2757.0,-2155.2,-281.7,-54.6,-1239.9,-375.3,-995.1,22.2,16746.6,-333.0,419.7,198.0,-1678.2,-7313.1,9830.1,-823.2,-6.6,-5.7,635.4,-217.2,-0.9,-297.3,-1494.6,-597.0,0,618,268435456,179,0, 
0.3467,2765.1,-2154.6,-269.7,-49.2,-1238.1,-383.7,-989.1,29.1,11337.3,-317.7,381.0,204.0,-1662.9,-7618.5,9830.1,-857.1,-6.3,-5.7,644.1,-219.0,-0.6,-276.9,-1486.8,-629.7,0,624,268435456,180,0, 
0.3500,2754.0,-2147.1,-278.4,-61.2,-1250.1,-357.9,-984.3,21.0,13041.6,-341.4,405.6,189.0,-1676.1,-7709.7,9830.1,-829.8,-7.2,-6.0,628.8,-235.8,-0.6,-302.7,-1482.9,-590.7,0,630,268435456,181,0, 
0.3533,2733.6,-2148.6,-309.0,-80.4,-1270.2,-347.1,-1002.0,7.8,19710.6,-358.8,433.5,164.4,-1707.0,-7492.8,9830.1,-780.3,-6.9,-6.0,606.0,-265.8,-0.6,-334.8,-1491.3,-543.0,0,636,268435456,182,0, 
0.3567,2735.1,-2151.3,-296.7,-71.1,-1258.5,-352.5,-997.5,6.9,22081.8,-340.2,458.7,180.6,-1704.9,-7243.5,9830.1,-774.9,-7.2,-5.4,626.1,-235.2,-0.9,-308.1,-1491.9,-531.0,0,642,268435456,183,0, 
0.3600,2751.0,-2158.5,-280.8,-52.5,-1240.2,-373.5,-989.1,22.8,16820.7,-323.1,423.6,201.9,-1675.8,-7330.8,9830.1,-824.1,-6.9,-6.0,641.4,-207.6,-1.2,-279.6,-1465.5,-578.1,0,648,268435456,184,0, 
0.3633,2775.9,-2151.0,-264.3,-35.1,-1225.5,-378.0,-977.7,40.2,11263.2,-300.9,429.3,220.2,-1648.8,-7596.0,9830.1,-850.8,-6.9,-6.0,660.9,-186.3,-0.9,-266.1,-1473.3,-605.4,0,654,268435456,185,0, 
0.3667,2755.8,-2155.5,-290.1,-55.2,-1245.9,-361.2,-990.6,18.3,13115.7,-328.2,426.0,192.6,-1685.1,-7709.4,9830.1,-811.5,-6.9,-5.7,638.4,-219.3,-0.6,-294.6,-1485.0,-576.9,0,660,268435456,186,0, 
0.3700,2730.3,-2157.9,-308.7,-75.0,-1261.8,-347.4,-997.2,0.6,19784.7,-345.9,458.7,173.7,-1713.3,-7503.6,9830.1,-768.3,-6.9,-6.0,624.9,-241.2,-0.9,-305.7,-1494.9,-519.6,0,666,268435456,187,0, 
0.3733,2733.3,-2163.9,-293.1,-68.1,-1259.4,-363.3,-993.0,6.0,21933.6,-343.8,436.2,176.1,-1696.8,-7260.6,9830.1,-792.6,-7.5,-5.7,623.7,-234.0,-0.9,-302.1,-1486.2,-557.7,0,672,268435456,188,0, 
0.3767,2759.1,-2148.9,-267.6,-44.4,-1236.6,-382.8,-982.8,22.2,16820.7,-308.4,422.4,208.2,-1662.0,-7320.3,9830.1,-825.9,-6.9,-5.7,648.6,-199.8,-0.6,-281.4,-1468.8,-584.4,0,678,268435456,189,0, 
0.3800,2770.5,-2146.5,-249.6,-36.9,-1227.6,-381.9,-969.9,30.6,11040.9,-296.4,412.2,224.1,-1651.2,-7604.7,9830.1,-853.2,-6.9,-5.7,664.5,-198.0,-0.6,-266.4,-1461.9,-612.6,0,684,268435456,190,0, 
0.3833,2760.9,-2134.5,-269.4,-54.0,-1248.0,-370.2,-982.2,17.4,12967.5,-316.5,452.4,204.3,-1673.1,-7694.4,9830.1,-817.2,-7.2,-6.3,645.6,-216.3,-0.6,-283.2,-1476.3,-561.0,0,690,268435456,191,0, 
0.3867,2738.4,-2156.7,-301.8,-85.5,-1281.9,-374.7,-993.6,-8.7,19784.7,-362.7,465.0,167.7,-1703.4,-7476.3,9830.1,-770.1,-6.9,-6.3,610.2,-259.2,-0.9,-331.8,-1498.2,-534.9,0,696,268435456,192,0, 
0.3900,2736.9,-2150.4,-287.1,-67.2,-1263.9,-370.5,-993.3,-0.3,22007.7,-333.0,477.9,183.9,-1689.3,-7252.5,9830.1,-781.2,-6.6,-5.4,628.2,-227.7,-0.9,-303.3,-1492.5,-529.5,0,702,268435456,193,0, 
0.3933,2756.1,-2155.2,-263.1,-43.2,-1231.8,-385.8,-973.2,23.1,16820.7,-297.9,467.7,221.4,-1676.1,-7358.1,9830.1,-822.0,-6.9,-6.3,660.0,-192.6,-0.3,-265.2,-1463.4,-563.7,0,708,268435456,194,0, 
0.3967,2763.6,-2147.4,-264.3,-33.6,-1221.6,-395.7,-974.4,25.2,11115.0,-293.4,425.1,235.5,-1659.0,-7621.2,9830.1,-860.4,-6.9,-5.7,663.6,-184.8,-0.9,-249.0,-1477.2,-600.6,0,714,268435456,195,0, 
0.4000,2758.5,-2145.6,-285.6,-52.2,-1240.8,-380.1,-979.5,10.5,13115.7,-324.3,440.1,207.0,-1671.3,-7686.9,9830.1,-830.1,-6.9,-5.7,640.8,-212.7,-0.3,-276.3,-1476.3,-570.3,0,720,268435456,196,0, 
0.4033,2728.2,-2148.3,-298.8,-72.9,-1263.6,-372.6,-992.4,-4.5,20007.0,-342.9,477.0,181.5,-1686.9,-7498.8,9830.1,-779.4,-6.9,-5.7,622.8,-234.0,-0.9,-313.2,-1492.5,-528.0,0,726,268435456,197,0, 
0.4067,2727.0,-2153.4,-295.2,-63.3,-1252.8,-362.7,-987.6,-3.0,22081.8,-332.7,479.7,194.4,-1671.9,-7280.4,9830.1,-771.6,-7.2,-5.1,636.0,-212.1,-0.6,-286.2,-1469.7,-524.1,0,732,268435456,198,0, 
0.4100,2752.5,-2154.6,-268.5,-43.2,-1233.3,-385.5,-981.6,11.1,16598.4,-297.0,448.8,212.4,-1663.2,-7344.6,9830.1,-819.3,-6.9,-5.7,648.0,-196.2,-0.9,-270.0,-1479.3,-602.1,0,738,268435456,199,0, 
0.4133,2766.9,-2157.0,-264.9,-43.8,-1228.5,-378.3,-973.5,15.3,11115.0,-297.6,425.4,213.6,-1665.3,-7626.0,9830.1,-848.7,-6.9,-5.1,652.5,-209.1,-0.9,-263.4,-1474.2,-611.1,0,744,268435456,200,0, 
0.4167,2756.4,-2139.6,-258.0,-46.8,-1232.1,-359.4,-976.2,11.4,13115.7,-308.1,451.5,209.1,-1677.0,-7729.5,9830.1,-823.2,-6.9,-6.0,639.0,-208.5,-0.6,-264.9,-1475.7,-574.5,0,750,268435456,201,0, 
0.4200,2731.5,-2144.4,-297.6,-66.6,-1250.7,-343.5,-986.4,-0.3,20007.0,-327.3,458.7,190.2,-1693.2,-7502.1,9830.1,-774.0,-6.9,-6.0,629.4,-220.5,-0.6,-289.2,-1478.1,-521.4,0,756,268435456,202,0, 
0.4233,2730.0,-2154.9,-303.3,-76.5,-1262.7,-357.9,-991.2,-7.5,22081.8,-332.1,465.9,175.5,-1687.8,-7258.8,9830.1,-770.1,-6.9,-5.7,624.3,-233.1,-0.9,-310.5,-1488.6,-547.2,0,762,268435456,203,0, 
0.4267,2750.4,-2161.2,-281.7,-56.4,-1241.4,-377.4,-987.0,4.2,16672.5,-309.6,449.4,198.3,-1679.1,-7347.0,9830.1,-826.8,-6.9,-6.0,645.0,-216.0,-0.9,-273.0,-1479.0,-590.4,0,768,268435456,204,0, 
0.4300,2761.8,-2152.2,-270.6,-45.9,-1237.8,-382.5,-982.8,13.8,11115.0,-300.3,441.9,216.3,-1668.6,-7640.4,9830.1,-853.8,-6.3,-5.4,653.4,-200.4,-0.6,-270.6,-1475.1,-611.1,0,774,268435456,205,0, 
0.4333,2743.2,-2157.6,-293.4,-63.6,-1254.9,-362.7,-985.5,4.5,13263.9,-322.8,479.7,194.1,-1674.6,-7734.6,9830.1,-815.1,-6.9,-5.7,630.3,-216.3,-0.9,-291.0,-1470.9,-574.5,0,780,268435456,206,0, 
0.4367,2732.7,-2147.1,-290.1,-63.3,-1257.9,-340.8,-984.9,1.5,19932.9,-329.7,510.0,189.3,-1691.7,-7504.5,9830.1,-776.1,-7.2,-6.0,622.2,-219.6,-0.3,-296.4,-1479.0,-522.6,0,786,268435456,207,0, 
0.4400,2727.6,-2162.1,-306.6,-69.6,-1255.8,-349.2,-990.3,-4.8,22155.9,-331.8,501.9,178.5,-1688.1,-7254.6,9830.1,-771.0,-6.9,-5.4,616.5,-233.1,-0.6,-291.0,-1486.2,-546.0,0,792,268435456,208,0, 
0.4433,2751.3,-2156.4,-276.0,-50.1,-1237.5,-376.2,-982.5,10.5,16746.6,-319.2,470.7,206.1,-1653.0,-7317.0,9830.1,-816.0,-6.9,-5.7,632.4,-215.1,-0.9,-284.4,-1484.4,-590.7,0,798,268435456,209,0, 
0.4467,2769.0,-2149.2,-264.6,-42.9,-1228.8,-379.5,-973.2,19.2,11189.1,-307.8,479.1,219.0,-1644.3,-7602.6,9830.1,-846.0,-6.6,-5.7,638.1,-205.2,-0.9,-271.2,-1473.3,-620.7,0,804,268435456,210,0, 
0.4500,2750.4,-2151.9,-287.7,-57.3,-1249.2,-366.0,-985.8,5.4,13263.9,-329.1,481.5,196.8,-1681.8,-7724.7,9830.1,-820.5,-6.9,-6.0,618.9,-221.7,-0.9,-292.8,-1494.6,-588.3,0,810,268435456,211,0, 
0.4533,2730.9,-2154.6,-313.2,-79.5,-1271.7,-356.7,-993.6,-8.7,20007.0,-350.1,487.5,175.8,-1685.1,-7467.0,9830.1,-773.7,-7.2,-6.0,605.1,-237.0,-1.2,-317.7,-1501.2,-549.9,0,816,268435456,212,0, 
0.4567,2720.7,-2162.7,-307.5,-71.7,-1262.4,-361.5,-980.7,-9.0,22081.8,-333.0,511.5,183.0,-1692.3,-7280.1,9830.1,-765.3,-6.6,-5.7,617.1,-242.7,-0.9,-305.1,-1481.1,-561.3,0,822,268435456,213,0, 
0.4600,2749.2,-2151.9,-275.1,-47.1,-1231.5,-373.5,-968.7,17.1,16820.7,-306.6,488.4,205.8,-1664.7,-7362.0,9830.1,-816.6,-6.9,-6.0,637.8,-211.5,-0.9,-273.3,-1470.3,-594.6,0,828,268435456,214,0, 
0.4633,2757.0,-2145.0,-259.8,-45.0,-1230.6,-384.9,-975.9,15.9,11263.2,-305.1,462.0,220.2,-1656.6,-7617.9,9830.1,-871.2,-7.2,-5.7,639.3,-199.5,-0.6,-268.8,-1484.7,-628.8,0,834,268435456,215,0, 
0.4667,2741.4,-2143.5,-288.0,-64.8,-1252.5,-368.4,-986.1,5.1,13338.0,-330.6,471.0,195.0,-1673.4,-7725.6,9830.1,-830.4,-6.9,-6.3,625.8,-220.2,-0.6,-288.0,-1502.1,-574.2,0,840,268435456,216,0, 
0.4700,2718.3,-2143.8,-308.1,-75.6,-1266.0,-350.7,-993.9,-4.8,20081.1,-357.9,496.8,180.3,-1695.0,-7518.0,9830.1,-780.9,-6.3,-6.0,606.9,-231.3,-0.9,-293.1,-1490.4,-529.2,0,846,268435456,217,0, 
0.4733,2725.5,-2146.2,-306.9,-79.8,-1273.2,-369.0,-998.7,-6.0,22081.8,-353.7,494.1,171.6,-1691.1,-7216.5,9830.1,-776.1,-6.9,-5.7,605.7,-258.0,-0.9,-335.4,-1497.3,-566.4,0,852,268435456,218,0, 
0.4767,2752.2,-2156.7,-288.9,-61.8,-1251.0,-392.7,-996.0,3.6,16672.5,-341.7,475.5,194.7,-1675.8,-7294.5,9830.1,-835.2,-6.9,-5.7,617.1,-237.0,-0.6,-302.7,-1495.2,-612.3,0,858,268435456,219,0, 
0.4800,2757.0,-2140.2,-259.5,-34.2,-1223.1,-372.6,-967.2,30.6,11189.1,-300.6,474.9,229.8,-1674.6,-7625.4,9830.1,-858.3,-7.2,-5.7,647.7,-211.2,-0.9,-255.0,-1460.4,-603.6,0,864,268435456,220,0, 
0.4833,2737.5,-2137.8,-287.4,-56.4,-1246.5,-357.0,-973.8,9.9,13263.9,-321.6,465.0,197.4,-1678.5,-7739.1,9830.1,-824.7,-6.9,-6.0,625.2,-213.3,-0.3,-285.6,-1484.4,-586.8,0,870,268435456,221,0, 
0.4867,2718.0,-2130.3,-312.0,-70.8,-1267.5,-343.2,-986.4,-5.7,20155.2,-355.8,518.4,168.0,-1696.2,-7506.3,9830.1,-774.6,-6.9,-5.7,600.6,-237.6,-0.9,-316.2,-1486.2,-530.1,0,876,268435456,222,0, 
0.4900,2720.1,-2146.8,-306.9,-69.3,-1266.6,-358.8,-1002.0,-7.5,22081.8,-353.4,490.8,169.5,-1704.3,-7258.8,9830.1,-788.1,-6.9,-6.0,596.7,-239.4,-0.6,-315.9,-1494.9,-552.3,0,882,268435456,223,0, 
0.4933,2747.4,-2142.9,-276.0,-49.8,-1239.0,-374.4,-993.0,9.3,16746.6,-324.6,458.4,206.1,-1675.5,-7335.9,9830.1,-845.4,-6.9,-6.0,637.2,-208.8,-0.6,-285.3,-1495.5,-602.7,0,888,268435456,224,0, 
0.4967,2756.4,-2142.3,-271.5,-43.8,-1232.1,-374.4,-979.8,17.7,11115.0,-314.1,445.5,219.3,-1672.8,-7614.9,9830.1,-862.8,-6.6,-6.0,642.6,-202.8,-0.6,-273.3,-1485.9,-624.0,0,894,268435456,225,0, 
0.5000,2740.5,-2143.2,-295.2,-67.2,-1256.4,-363.9,-987.0,2.7,13263.9,-343.2,445.8,189.3,-1685.1,-7707.6,9830.1,-825.3,-7.2,-6.0,621.6,-228.9,-0.9,-302.1,-1493.4,-593.4,0,900,268435456,226,0, 
0.5033,2715.6,-2145.6,-308.1,-81.6,-1273.8,-343.8,-997.5,-9.3,20007.0,-353.1,476.7,162.0,-1709.4,-7499.4,9830.1,-777.3,-6.9,-6.3,603.0,-250.5,-0.6,-315.6,-1495.5,-530.4,0,906,268435456,227,0, 
0.5067,2718.6,-2158.2,-319.2,-85.5,-1279.8,-369.3,-997.2,-13.2,22155.9,-359.1,489.3,165.9,-1709.1,-7230.9,9830.1,-777.9,-7.2,-6.0,605.4,-253.2,-0.6,-308.7,-1494.3,-557.4,0,912,268435456,228,0, 
0.5100,2742.0,-2162.1,-292.5,-65.7,-1258.2,-379.2,-990.9,3.3,16672.5,-321.3,465.6,195.0,-1683.0,-7345.5,9830.1,-827.1,-6.9,-6.0,625.8,-226.5,-1.2,-294.0,-1477.8,-596.1,0,918,268435456,229,0, 
0.5133,2753.1,-2157.3,-285.0,-58.2,-1248.0,-384.6,-978.6,10.8,11115.0,-324.6,447.9,196.5,-1666.2,-7616.4,9830.1,-853.2,-7.2,-5.7,627.3,-224.1,-0.6,-273.0,-1471.5,-620.4,0,924,268435456,230,0, 
0.5167,2740.2,-2144.7,-288.9,-65.7,-1255.5,-374.4,-992.4,-0.3,13486.2,-330.9,472.2,185.1,-1684.5,-7715.4,9830.1,-830.1,-6.6,-5.7,616.5,-234.6,-0.9,-302.7,-1502.1,-600.3,0,930,268435456,231,0, 
0.5200,2725.8,-2140.8,-298.5,-72.9,-1264.5,-361.8,-999.6,-6.6,20081.1,-339.0,507.3,177.6,-1689.6,-7469.1,9830.1,-790.8,-6.6,-5.7,615.3,-245.7,-0.6,-303.3,-1499.1,-549.3,0,936,268435456,232,0, 
0.5233,2720.1,-2148.9,-302.7,-75.0,-1266.0,-363.3,-1000.8,-8.7,22304.1,-335.7,511.5,177.0,-1686.0,-7240.8,9830.1,-777.0,-7.2,-6.0,618.9,-244.5,-0.6,-305.4,-1494.3,-554.4,0,942,268435456,233,0, 
0.5267,2747.1,-2135.1,-266.7,-49.8,-1236.9,-387.0,-989.4,12.9,16820.7,-308.7,497.7,198.9,-1650.9,-7302.9,9830.1,-827.4,-6.9,-6.0,645.0,-223.5,-0.6,-268.2,-1485.6,-603.3,0,948,268435456,234,0, 
0.5300,2763.3,-2123.4,-255.3,-36.3,-1230.6,-386.7,-978.3,21.6,11263.2,-299.1,455.1,204.6,-1645.8,-7599.0,9830.1,-841.8,-6.9,-6.3,653.4,-210.3,-0.3,-267.3,-1484.7,-614.4,0,954,268435456,235,0, 
0.5333,2736.9,-2131.5,-290.7,-60.3,-1251.0,-370.5,-990.6,6.6,13263.9,-321.9,475.2,192.0,-1673.4,-7679.4,9830.1,-817.8,-6.9,-5.1,635.1,-234.3,-0.6,-291.9,-1494.3,-582.3,0,960,268435456,236,0, 
0.5367,2713.5,-2139.0,-300.3,-81.3,-1273.5,-358.8,-1001.4,-11.4,20155.2,-350.1,478.5,171.0,-1696.5,-7464.3,9830.1,-777.6,-7.2,-5.7,609.6,-252.9,-0.9,-322.8,-1494.3,-542.7,0,966,268435456,237,0, 
0.5400,2720.4,-2140.2,-296.4,-72.0,-1266.6,-363.9,-1003.8,-9.0,22304.1,-338.4,518.4,178.5,-1695.6,-7204.8,9830.1,-776.7,-6.6,-6.0,621.6,-247.2,-0.6,-309.3,-1501.5,-560.4,0,972,268435456,238,0, 
0.5433,2744.7,-2152.5,-282.6,-53.7,-1240.5,-378.0,-984.6,9.0,16820.7,-305.1,481.5,197.1,-1658.7,-7290.0,9830.1,-827.7,-6.9,-6.3,651.3,-224.7,-0.6,-284.7,-1488.3,-599.4,0,978,268435456,239,0, 
0.5467,2753.7,-2146.2,-265.2,-39.0,-1231.2,-384.6,-977.4,14.1,11115.0,-295.5,472.2,211.2,-1661.4,-7577.4,9830.1,-856.5,-6.6,-5.7,651.6,-209.1,-0.6,-256.2,-1476.6,-619.5,0,984,268435456,240,0, 
0.5500,2729.7,-2148.9,-292.5,-62.4,-1248.6,-364.5,-978.6,-7.5,13412.1,-326.7,474.3,189.0,-1696.8,-7719.6,9830.1,-813.6,-6.9,-5.7,623.7,-233.4,-0.9,-286.8,-1474.2,-581.4,0,990,268435456,241,0, 
0.5533,2712.0,-2154.3,-309.6,-83.4,-1278.0,-358.5,-999.9,-21.9,20229.3,-349.5,509.7,161.7,-1719.3,-7478.4,9830.1,-755.1,-6.6,-5.7,612.6,-263.1,-0.6,-316.8,-1512.3,-531.3,0,996,268435456,242,0, 
0.5567,2716.5,-2154.0,-303.9,-79.8,-1269.0,-369.3,-999.6,-18.3,22155.9,-341.1,516.3,164.7,-1691.1,-7232.4,9830.1,-772.2,-6.9,-6.0,619.8,-256.5,-1.2,-318.0,-1511.1,-547.2,0,1002,268435456,243,0, 
0.5600,2745.0,-2155.8,-274.5,-57.0,-1247.4,-405.0,-988.8,0.0,16746.6,-308.4,502.2,194.1,-1672.5,-7307.7,9830.1,-815.7,-6.6,-5.4,639.6,-231.9,-0.6,-286.2,-1497.9,-612.9,0,1008,268435456,244,0, 
0.5633,2754.6,-2144.4,-258.9,-39.6,-1232.7,-401.1,-980.7,13.8,11337.3,-291.0,476.1,214.5,-1656.6,-7606.2,9830.1,-845.4,-6.9,-6.0,655.8,-205.2,-0.9,-258.9,-1482.3,-629.7,0,1014,268435456,245,0, 
0.5667,2740.8,-2133.9,-282.9,-57.3,-1255.2,-386.7,-994.5,-1.5,13412.1,-320.7,476.4,183.6,-1679.1,-7687.5,9830.1,-815.1,-6.9,-5.7,636.0,-226.5,-0.9,-293.4,-1515.9,-585.9,0,1020,268435456,246,0, 
0.5700,2720.1,-2152.2,-319.2,-87.0,-1285.8,-376.8,-1007.7,-19.2,20229.3,-363.3,513.9,148.5,-1710.9,-7441.5,9830.1,-769.2,-6.9,-6.0,609.6,-276.9,-0.3,-327.6,-1516.8,-552.6,0,1026,268435456,247,0, 
0.5733,2723.1,-2149.5,-306.3,-74.7,-1270.2,-379.8,-1005.9,-10.8,22378.2,-351.6,515.4,168.3,-1697.4,-7207.2,9830.1,-782.4,-6.9,-5.7,624.6,-257.7,-0.9,-309.3,-1505.4,-546.6,0,1032,268435456,248,0, 
0.5767,2740.8,-2141.1,-260.1,-35.7,-1230.3,-377.7,-988.2,14.7,16746.6,-297.0,492.0,215.4,-1675.5,-7325.4,9830.1,-824.4,-6.6,-5.4,657.6,-204.6,-0.6,-261.3,-1481.7,-598.5,0,1038,268435456,249,0, 
0.5800,2754.0,-2147.7,-257.4,-40.8,-1236.6,-396.3,-986.1,12.6,11115.0,-308.7,449.1,205.8,-1660.2,-7612.8,9830.1,-853.2,-6.9,-5.7,645.3,-212.4,-0.6,-267.0,-1491.0,-629.1,0,1044,268435456,250,0, 
0.5833,2740.2,-2141.4,-286.2,-54.6,-1247.1,-366.3,-986.1,2.1,13560.3,-328.5,469.2,188.4,-1683.0,-7694.7,9830.1,-825.3,-6.3,-6.0,629.7,-229.8,-0.6,-279.6,-1494.3,-584.1,0,1050,268435456,251,0, 
0.5867,2717.7,-2147.4,-312.3,-77.7,-1279.2,-364.2,-1003.2,-20.4,20303.4,-354.6,497.1,156.6,-1707.6,-7474.8,9830.1,-770.4,-7.2,-6.0,609.0,-255.6,-0.9,-321.3,-1505.7,-536.7,0,1056,268435456,252,0, 
0.5900,2722.8,-2145.3,-287.7,-63.0,-1266.6,-365.1,-997.8,-11.4,22378.2,-331.2,526.8,173.4,-1695.0,-7217.1,9830.1,-768.0,-6.9,-6.3,626.1,-234.9,-1.2,-295.8,-1496.1,-545.1,0,1062,268435456,253,0, 
0.5933,2743.5,-2141.4,-269.1,-50.4,-1252.5,-389.7,-990.6,-4.2,16672.5,-318.6,493.8,196.2,-1667.1,-7296.9,9830.1,-826.8,-7.2,-5.4,653.1,-216.9,-0.9,-273.9,-1478.1,-590.4,0,1068,268435456,254,0, 
0.5967,2763.6,-2136.3,-261.6,-41.4,-1241.1,-411.3,-981.3,5.4,11040.9,-303.3,451.8,218.1,-1659.0,-7583.1,9830.1,-852.9,-6.6,-6.3,659.1,-211.5,-0.9,-261.6,-1488.9,-610.5,0,1074,268435456,255,0, 
0.6000,2742.9,-2130.6,-284.7,-57.6,-1257.3,-385.5,-980.4,-8.4,13412.1,-317.7,477.9,197.7,-1676.7,-7701.0,9830.1,-816.9,-7.2,-5.7,638.4,-225.3,-0.6,-287.4,-1483.2,-573.3,0,1080,268435456,0,0, 
0.6033,2718.0,-2138.1,-314.4,-81.9,-1280.4,-380.7,-998.4,-30.0,20525.7,-352.2,488.7,163.5,-1690.2,-7465.8,9830.1,-773.1,-6.9,-5.7,607.8,-260.4,-0.6,-318.9,-1509.0,-538.5,0,1086,268435456,1,0, 
0.6067,2722.8,-2148.0,-305.7,-77.4,-1271.4,-386.7,-998.4,-21.0,22452.3,-344.4,507.6,169.5,-1681.8,-7214.4,9830.1,-783.9,-6.9,-6.0,609.3,-264.0,-0.6,-315.6,-1508.4,-552.9,0,1092,268435456,2,0, 
0.6100,2742.0,-2138.7,-271.5,-49.5,-1237.5,-392.1,-985.8,1.5,16598.4,-315.3,459.9,200.4,-1672.5,-7322.4,9830.1,-828.9,-6.9,-6.0,635.7,-228.6,-0.6,-275.4,-1495.8,-596.1,0,1098,268435456,3,0, 
0.6133,2752.8,-2146.5,-266.4,-39.9,-1229.4,-393.0,-973.5,9.0,11189.1,-305.7,442.2,205.2,-1667.4,-7623.3,9830.1,-851.1,-6.9,-5.7,635.1,-209.7,-0.6,-261.6,-1479.3,-616.8,0,1104,268435456,4,0, 
0.6167,2739.9,-2136.0,-284.1,-57.0,-1247.7,-373.5,-983.4,-4.2,13560.3,-324.6,482.4,184.5,-1674.3,-7716.0,9830.1,-805.2,-6.6,-6.0,623.1,-233.1,-0.6,-288.6,-1506.0,-582.3,0,1110,268435456,5,0, 
0.6200,2709.6,-2147.7,-316.8,-81.0,-1272.9,-354.0,-999.6,-24.6,20599.8,-354.0,492.0,160.5,-1709.1,-7476.0,9830.1,-760.2,-7.2,-6.3,601.8,-262.2,-0.9,-325.5,-1502.1,-545.1,0,1116,268435456,6,0, 
0.6233,2717.7,-2156.4,-291.0,-74.1,-1264.8,-367.5,-999.3,-15.6,22526.4,-340.5,494.1,174.0,-1701.6,-7218.0,9830.1,-763.2,-6.9,-6.0,606.9,-250.5,-0.6,-308.7,-1505.1,-553.5,0,1122,268435456,7,0, 
0.6267,2734.8,-2156.4,-282.9,-57.3,-1245.3,-390.9,-990.9,-8.4,16598.4,-320.1,463.5,190.5,-1695.0,-7342.2,9830.1,-815.7,-6.9,-6.0,628.5,-233.7,-0.6,-284.1,-1493.1,-606.6,0,1128,268435456,8,0, 
0.6300,2750.1,-2150.4,-275.7,-46.2,-1235.4,-387.3,-972.6,0.0,10744.5,-306.6,455.1,204.6,-1682.7,-7656.3,9830.1,-845.7,-6.6,-5.7,638.7,-215.7,-0.6,-271.2,-1472.1,-622.8,0,1134,268435456,9,0, 
0.6333,2740.2,-2130.3,-282.3,-55.5,-1246.5,-366.6,-981.3,-6.9,13263.9,-311.4,468.6,199.2,-1678.2,-7747.8,9830.1,-821.7,-6.6,-5.7,630.9,-214.2,-0.9,-276.9,-1488.3,-566.4,0,1140,268435456,10,0, 
0.6367,2720.7,-2137.8,-321.0,-84.6,-1278.0,-355.2,-996.6,-24.3,20748.0,-359.7,494.7,159.3,-1705.5,-7451.7,9830.1,-762.6,-6.9,-5.4,597.3,-252.0,-1.2,-327.9,-1515.0,-537.0,0,1146,268435456,11,0, 
0.6400,2726.4,-2141.7,-308.7,-75.6,-1264.8,-367.2,-998.1,-19.2,23119.2,-345.0,511.5,164.4,-1696.5,-7195.2,9830.1,-774.3,-7.2,-6.0,610.5,-238.5,-0.9,-318.3,-1509.6,-553.2,0,1152,268435456,12,0, 
0.6433,2741.1,-2160.3,-285.6,-49.2,-1240.2,-389.7,-990.3,-3.0,16746.6,-308.7,495.9,208.8,-1686.0,-7319.4,9830.1,-840.3,-7.2,-6.0,640.8,-211.8,-0.6,-277.2,-1491.3,-613.2,0,1158,268435456,13,0, 
0.6467,2752.2,-2154.3,-263.4,-38.4,-1228.8,-390.9,-976.2,5.7,10744.5,-301.2,466.5,219.9,-1673.1,-7658.4,9830.1,-879.0,-6.9,-5.1,645.0,-200.1,-0.3,-263.7,-1486.2,-636.6,0,1164,268435456,14,0, 
0.6500,2729.1,-2151.9,-295.2,-63.9,-1252.8,-381.6,-990.0,-7.8,13189.8,-331.8,480.0,183.9,-1702.5,-7766.4,9830.1,-825.0,-6.9,-6.0,614.4,-246.6,-0.3,-291.3,-1505.4,-591.6,0,1170,268435456,15,0, 
0.6533,2710.2,-2149.8,-307.5,-80.1,-1267.5,-347.7,-995.1,-21.3,21192.6,-357.9,534.9,157.8,-1710.3,-7483.2,9830.1,-766.8,-6.9,-5.4,591.6,-255.6,-1.2,-318.6,-1502.1,-532.5,0,1176,268435456,16,0, 
0.6567,2718.9,-2158.8,-312.9,-78.0,-1269.6,-372.6,-1005.0,-22.5,23415.6,-360.6,519.3,159.3,-1713.9,-7177.5,9830.1,-776.7,-7.2,-5.4,589.5,-260.1,-0.6,-329.1,-1509.3,-561.3,0,1182,268435456,17,0, 
0.6600,2743.2,-2152.8,-274.8,-46.8,-1232.1,-389.7,-986.7,0.3,16820.7,-318.3,513.9,197.7,-1679.1,-7302.3,9830.1,-838.8,-7.2,-6.0,630.6,-219.6,-0.6,-287.7,-1489.5,-615.0,0,1188,268435456,18,0, 
0.6633,2755.2,-2141.7,-253.8,-30.0,-1212.6,-390.3,-972.9,14.1,10670.4,-295.2,482.7,219.3,-1673.7,-7652.7,9830.1,-882.0,-6.6,-5.7,657.0,-209.7,-0.6,-252.3,-1487.7,-639.3,0,1194,268435456,19,0, 
0.6667,2738.4,-2139.3,-291.3,-53.7,-1240.8,-370.8,-980.7,0.6,13189.8,-327.0,508.8,188.1,-1694.7,-7758.6,9830.1,-821.1,-6.9,-5.4,630.9,-242.1,0.0,-294.3,-1499.1,-594.3,0,1200,268435456,20,0, 
0.6700,2717.7,-2135.1,-314.4,-75.0,-1264.2,-356.7,-990.9,-14.1,21340.8,-350.1,540.0,170.7,-1710.6,-7480.5,9830.1,-774.6,-7.2,-6.0,602.7,-262.2,-0.9,-315.6,-1499.4,-528.3,0,1206,268435456,21,0, 
0.6733,2716.8,-2149.2,-310.5,-78.9,-1266.3,-373.5,-998.7,-15.3,23415.6,-350.1,555.6,168.0,-1703.1,-7187.4,9830.1,-777.0,-6.9,-6.0,607.5,-255.0,-1.2,-315.6,-1504.5,-547.2,0,1212,268435456,22,0, 
0.6767,2748.0,-2145.0,-276.9,-42.6,-1228.2,-387.0,-978.0,6.6,16820.7,-305.7,531.9,209.1,-1668.6,-7297.5,9830.1,-840.0,-6.9,-5.7,645.9,-210.3,-0.6,-267.9,-1479.0,-590.7,0,1218,268435456,23,0, 
0.6800,2759.7,-2134.2,-273.3,-36.3,-1216.8,-396.0,-970.8,14.7,10448.1,-307.5,487.2,213.9,-1657.2,-7640.4,9830.1,-879.6,-6.9,-5.4,642.0,-204.6,-1.2,-270.6,-1494.6,-619.2,0,1224,268435456,24,0, 
0.6833,2739.3,-2126.1,-274.5,-43.8,-1221.3,-355.2,-966.3,12.3,13115.7,-319.2,478.8,203.7,-1687.2,-7764.9,9830.1,-836.7,-6.9,-5.4,623.1,-226.5,-0.9,-280.2,-1477.5,-559.5,0,1230,268435456,25,0, 
0.6867,2714.4,-2137.2,-301.5,-68.1,-1251.6,-349.8,-988.8,-9.9,21044.4,-353.7,549.3,171.6,-1714.2,-7476.6,9830.1,-781.5,-6.9,-5.7,588.9,-254.1,-0.9,-312.6,-1513.2,-546.0,0,1236,268435456,26,0, 
0.6900,2725.8,-2137.2,-292.2,-62.4,-1249.2,-361.2,-987.9,-1.2,23415.6,-341.7,569.7,170.1,-1693.5,-7194.0,9830.1,-778.2,-7.2,-5.7,604.5,-243.3,-0.6,-312.3,-1496.1,-533.7,0,1242,268435456,27,0, 
0.6933,2745.0,-2136.3,-268.8,-42.6,-1232.7,-392.7,-986.1,8.7,16820.7,-320.4,528.6,201.0,-1671.6,-7290.0,9830.1,-840.3,-6.9,-5.4,630.0,-228.3,-0.3,-281.1,-1497.3,-602.7,0,1248,268435456,28,0, 
0.6967,2756.4,-2127.0,-249.9,-18.6,-1215.0,-396.9,-975.3,28.5,10374.0,-291.9,498.0,219.3,-1665.0,-7669.8,9830.1,-881.1,-6.6,-6.0,660.0,-209.4,-0.9,-260.4,-1493.7,-617.4,0,1254,268435456,29,0, 
0.7000,2738.7,-2117.1,-276.3,-40.8,-1239.9,-376.8,-975.6,7.5,13189.8,-318.0,505.5,192.6,-1682.4,-7776.6,9830.1,-835.5,-6.9,-6.0,634.2,-237.3,-0.9,-294.6,-1500.0,-582.9,0,1260,268435456,30,0, 
0.7033,2713.2,-2125.8,-303.9,-61.5,-1256.1,-357.0,-989.7,-9.9,21266.7,-333.9,556.2,167.4,-1699.8,-7486.2,9830.1,-789.6,-6.3,-5.4,615.9,-261.0,-0.9,-310.5,-1507.8,-527.7,0,1266,268435456,31,0, 
0.7067,2716.2,-2136.6,-305.4,-64.5,-1257.9,-380.4,-994.8,-17.1,23415.6,-343.5,565.8,167.4,-1704.6,-7203.9,9830.1,-793.2,-6.9,-6.0,613.8,-261.9,-0.6,-311.7,-1508.7,-540.0,0,1272,268435456,32,0, 
0.7100,2747.7,-2133.0,-270.0,-38.1,-1224.0,-399.9,-988.5,1.2,16746.6,-306.9,548.7,201.0,-1676.7,-7283.1,9830.1,-848.4,-6.9,-5.7,644.4,-226.8,-0.9,-288.6,-1490.4,-588.3,0,1278,268435456,33,0, 
0.7133,2759.7,-2128.5,-244.8,-25.5,-1209.6,-394.8,-974.1,10.5,10374.0,-290.7,524.4,211.8,-1659.3,-7656.0,9830.1,-883.2,-7.2,-5.7,649.8,-216.9,-0.3,-272.1,-1479.9,-616.2,0,1284,268435456,34,0, 
0.7167,2736.9,-2130.3,-267.3,-43.8,-1229.7,-377.7,-981.9,-1.8,13263.9,-318.0,515.4,191.4,-1686.0,-7759.8,9830.1,-846.6,-6.9,-5.7,628.8,-225.0,-0.9,-289.8,-1499.7,-572.7,0,1290,268435456,35,0, 
0.7200,2717.7,-2133.3,-294.9,-71.1,-1259.1,-368.4,-993.9,-19.2,21118.5,-348.3,538.8,160.8,-1705.8,-7474.5,9830.1,-792.6,-6.9,-6.0,599.4,-243.0,-0.6,-324.9,-1514.4,-527.1,0,1296,268435456,36,0, 
0.7233,2719.2,-2147.4,-300.0,-69.3,-1249.2,-386.1,-999.3,-19.2,23489.7,-345.9,542.7,169.8,-1708.5,-7200.9,9830.1,-795.9,-7.2,-6.0,609.3,-240.3,-1.2,-313.8,-1512.6,-554.7,0,1302,268435456,37,0, 
0.7267,2750.1,-2138.4,-268.2,-36.6,-1219.2,-402.9,-981.0,5.4,16746.6,-308.7,519.0,207.3,-1674.0,-7308.6,9830.1,-870.0,-6.6,-5.7,639.9,-210.6,-0.9,-278.7,-1500.6,-603.0,0,1308,268435456,38,0, 
0.7300,2761.5,-2133.3,-251.4,-29.7,-1210.8,-407.1,-972.9,16.2,10374.0,-302.1,511.8,213.9,-1663.5,-7642.5,9830.1,-903.6,-7.2,-6.0,647.4,-207.6,-1.2,-274.2,-1497.6,-628.2,0,1314,268435456,39,0, 
0.7333,2736.9,-2133.9,-281.1,-49.2,-1231.5,-376.8,-978.0,1.5,13263.9,-332.7,530.1,190.2,-1692.3,-7772.7,9830.1,-848.1,-6.6,-6.3,620.4,-225.9,-0.6,-297.9,-1506.9,-570.0,0,1320,268435456,40,0, 
0.7367,2722.8,-2132.1,-307.2,-72.3,-1257.0,-354.6,-991.2,-13.8,21266.7,-360.0,559.2,157.8,-1696.5,-7469.7,9830.1,-791.4,-6.9,-5.7,596.1,-267.6,-1.2,-328.8,-1515.3,-549.0,0,1326,268435456,41,0, 
0.7400,2723.7,-2138.1,-297.9,-66.0,-1255.8,-371.7,-988.2,-9.3,23489.7,-354.9,559.8,169.5,-1700.4,-7229.1,9830.1,-788.1,-6.9,-5.7,612.3,-244.5,-0.6,-321.3,-1513.2,-554.7,0,1332,268435456,42,0, 
0.7433,2751.0,-2141.1,-282.3,-48.6,-1231.2,-404.7,-984.0,2.7,16820.7,-336.6,510.6,188.4,-1683.6,-7307.4,9830.1,-842.7,-7.2,-5.7,634.2,-230.4,-0.9,-300.9,-1503.9,-620.7,0,1338,268435456,43,0, 
0.7467,2764.5,-2132.1,-261.9,-30.9,-1212.3,-406.8,-971.4,15.9,10596.3,-312.9,484.8,214.8,-1667.4,-7657.8,9830.1,-889.8,-6.9,-6.0,651.3,-207.0,-0.3,-280.5,-1497.6,-642.9,0,1344,268435456,44,0, 
0.7500,2743.5,-2123.7,-283.8,-48.9,-1232.1,-380.4,-977.1,0.0,13041.6,-335.1,510.3,188.4,-1686.3,-7775.4,9830.1,-847.2,-7.2,-5.7,629.1,-230.4,-0.9,-307.2,-1508.7,-592.8,0,1350,268435456,45,0, 
0.7533,2712.9,-2127.0,-299.4,-65.4,-1254.0,-356.7,-984.3,-8.4,21266.7,-363.6,558.3,165.3,-1706.1,-7501.2,9830.1,-774.0,-7.2,-5.7,602.1,-252.0,-0.9,-325.2,-1508.1,-523.2,0,1356,268435456,46,0, 
0.7567,2721.3,-2135.1,-290.4,-57.6,-1241.7,-373.2,-979.5,-3.9,23637.9,-350.4,576.6,176.1,-1703.7,-7212.9,9830.1,-787.5,-6.9,-5.7,611.1,-236.7,-0.6,-320.7,-1496.4,-540.6,0,1362,0,47,0, 
0.7600,2742.0,-2139.0,-276.6,-40.8,-1221.3,-394.5,-975.6,6.0,16672.5,-325.2,520.8,198.6,-1679.1,-7328.4,9830.1,-855.3,-6.9,-6.0,633.0,-220.5,-0.9,-284.4,-1485.9,-598.5,0,1368,268435456,48,0, 
0.7633,2762.1,-2132.4,-254.1,-26.4,-1209.0,-404.7,-967.2,15.6,10225.8,-311.4,481.8,209.1,-1667.7,-7672.5,9830.1,-881.7,-6.6,-6.3,642.3,-209.7,-0.9,-280.2,-1480.8,-616.5,0,1374,268435456,49,0, 
0.7667,2737.8,-2128.8,-274.8,-49.2,-1233.0,-378.9,-970.8,0.6,13041.6,-334.2,495.9,186.6,-1686.0,-7785.0,9830.1,-827.7,-6.9,-6.0,621.0,-227.1,-0.9,-297.3,-1498.5,-576.3,0,1380,268435456,50,0, 
0.7700,2717.4,-2141.4,-308.7,-74.1,-1262.4,-361.8,-980.1,-17.1,21192.6,-369.6,534.6,152.1,-1713.3,-7509.6,9830.1,-780.0,-6.6,-5.7,589.5,-264.3,-0.3,-340.8,-1499.4,-534.0,0,1386,268435456,51,0, 
0.7733,2719.8,-2146.2,-298.8,-73.2,-1260.6,-377.7,-984.3,-20.1,23341.5,-364.5,530.7,157.5,-1710.0,-7230.6,9830.1,-794.1,-6.9,-5.7,592.8,-262.2,-0.6,-331.8,-1499.7,-543.6,0,1392,268435456,52,0, 
0.7767,2751.6,-2152.2,-287.1,-56.1,-1238.1,-414.6,-978.9,-5.1,16598.4,-342.3,484.5,184.8,-1680.0,-7321.5,9830.1,-862.8,-6.9,-5.7,612.9,-248.1,-0.9,-305.4,-1507.2,-611.1,0,1398,268435456,53,0, 
0.7800,2767.2,-2139.3,-273.0,-45.6,-1226.4,-411.9,-967.8,10.5,10003.5,-321.3,489.9,200.7,-1660.5,-7654.5,9830.1,-885.6,-6.9,-6.0,632.1,-240.3,-0.9,-287.7,-1502.7,-621.3,0,1404,268435456,54,0, 
0.7833,2737.8,-2137.5,-290.7,-63.0,-1243.2,-393.9,-966.0,-4.2,12893.4,-337.2,512.7,179.7,-1698.9,-7814.4,9830.1,-837.6,-6.9,-5.7,610.5,-243.6,-0.6,-306.9,-1491.9,-574.2,0,1410,268435456,55,0, 
0.7867,2715.3,-2140.8,-321.9,-88.5,-1271.1,-374.7,-981.9,-21.0,20896.2,-363.9,528.6,153.0,-1712.7,-7523.4,9830.1,-783.3,-7.2,-5.7,586.2,-266.1,-0.9,-338.7,-1515.3,-548.1,0,1416,268435456,56,0, 
0.7900,2712.6,-2153.4,-319.8,-85.5,-1267.2,-389.1,-989.4,-22.8,23193.3,-366.9,531.3,158.4,-1715.1,-7233.9,9830.1,-798.0,-6.6,-6.0,593.1,-277.5,-0.6,-327.6,-1510.8,-539.4,0,1422,268435456,57,0, 
0.7933,2737.5,-2155.2,-296.7,-68.1,-1254.3,-424.8,-975.9,-9.3,16227.9,-347.1,490.5,182.7,-1688.1,-7339.2,9830.1,-858.6,-7.2,-6.0,616.2,-245.7,-0.9,-309.6,-1497.6,-614.7,0,1428,268435456,58,0, 
0.7967,2745.6,-2140.2,-273.6,-54.6,-1241.1,-423.3,-967.2,-0.6,10151.7,-324.9,456.6,198.9,-1682.7,-7691.7,9830.1,-896.4,-6.6,-6.0,630.6,-226.5,-0.6,-297.3,-1489.5,-630.3,0,1434,268435456,59,0, 
0.8000,2727.6,-2133.3,-286.5,-62.7,-1256.4,-392.7,-972.9,-12.3,12967.5,-330.6,498.6,184.2,-1694.7,-7803.0,9830.1,-860.4,-6.9,-6.0,615.3,-243.0,-1.2,-313.8,-1501.8,-579.6,0,1440,268435456,60,0, 
0.8033,2706.3,-2129.7,-311.4,-83.4,-1278.3,-370.8,-985.2,-25.2,21118.5,-361.5,538.5,155.4,-1707.3,-7502.4,9830.1,-811.2,-6.9,-5.7,596.4,-268.5,-0.6,-339.0,-1516.5,-536.7,0,1446,268435456,61,0, 
0.8067,2713.5,-2142.0,-306.9,-77.1,-1272.0,-381.3,-985.2,-16.2,23267.4,-359.1,537.3,158.4,-1710.6,-7211.4,9830.1,-829.8,-6.9,-5.4,600.0,-278.4,-1.2,-333.9,-1509.9,-551.7,0,1452,268435456,62,0, 
0.8100,2738.4,-2145.3,-283.2,-53.1,-1247.1,-405.3,-975.6,-3.9,16376.1,-334.2,516.9,194.7,-1678.5,-7339.8,9830.1,-882.0,-7.2,-6.0,624.3,-248.4,-0.3,-292.2,-1494.3,-599.7,0,1458,268435456,63,0, 
0.8133,2747.1,-2146.5,-269.4,-46.5,-1237.8,-416.1,-968.1,0.3,10077.6,-323.7,512.1,199.2,-1690.2,-7688.7,9830.1,-909.9,-7.2,-5.7,620.7,-230.4,-0.6,-291.9,-1502.1,-621.3,0,1464,268435456,64,0, 
0.8167,2724.6,-2142.9,-294.0,-66.6,-1255.5,-396.3,-973.2,-12.6,12967.5,-353.1,527.7,173.7,-1712.4,-7811.1,9830.1,-854.4,-7.2,-5.7,598.8,-256.5,-1.2,-313.2,-1502.7,-580.2,0,1470,268435456,65,0, 
0.8200,2704.2,-2134.8,-315.3,-84.9,-1279.2,-380.4,-984.6,-28.2,21044.4,-375.3,573.6,160.8,-1722.6,-7528.5,9830.1,-789.9,-6.6,-5.4,581.7,-278.4,-0.6,-338.1,-1502.1,-537.6,0,1476,268435456,66,0, 
0.8233,2711.4,-2137.2,-303.0,-77.4,-1269.0,-389.4,-987.6,-24.9,23193.3,-366.6,567.3,168.3,-1715.4,-7239.6,9830.1,-804.3,-6.9,-6.0,594.9,-265.8,-0.6,-324.6,-1506.3,-561.3,0,1482,268435456,67,0, 
0.8267,2735.7,-2137.8,-279.0,-55.5,-1241.1,-414.0,-979.5,-4.5,16376.1,-341.1,542.4,198.6,-1686.3,-7341.9,9830.1,-873.6,-7.2,-5.4,620.1,-232.5,-0.9,-284.1,-1495.2,-608.4,0,1488,268435456,68,0, 
0.8300,2751.9,-2129.1,-261.0,-40.2,-1227.9,-411.0,-965.1,7.8,10077.6,-322.2,515.7,210.3,-1668.9,-7686.3,9830.1,-896.4,-6.6,-6.3,634.2,-222.3,-0.6,-270.9,-1484.7,-613.8,0,1494,268435456,69,0, 
0.8333,2730.3,-2126.1,-292.8,-66.3,-1256.1,-390.9,-974.1,-10.2,13189.8,-351.9,502.5,179.1,-1698.6,-7785.9,9830.1,-862.5,-6.6,-5.7,607.2,-252.9,-0.6,-318.9,-1499.1,-583.5,0,1500,268435456,70,0, 
0.8367,2710.2,-2131.5,-317.7,-82.8,-1274.4,-358.8,-977.1,-21.9,21266.7,-372.6,542.1,165.9,-1713.6,-7503.9,9830.1,-802.8,-6.9,-5.7,582.6,-268.2,-0.3,-330.0,-1500.6,-519.0,0,1506,268435456,71,0, 
0.8400,2712.0,-2139.9,-307.5,-78.6,-1276.2,-383.1,-989.4,-16.2,23415.6,-365.7,559.8,174.0,-1703.7,-7216.2,9830.1,-824.7,-7.8,-6.0,597.0,-258.6,-0.6,-331.8,-1502.7,-535.8,0,1512,268435456,72,0, 
0.8433,2740.8,-2136.6,-266.7,-48.3,-1237.2,-405.0,-972.3,6.6,16524.3,-330.0,555.3,201.9,-1665.0,-7322.7,9830.1,-872.4,-6.9,-5.7,633.9,-231.0,-0.3,-293.4,-1493.7,-611.7,0,1518,268435456,73,0, 
0.8467,2743.5,-2138.7,-263.1,-44.7,-1230.0,-402.3,-967.2,8.7,10225.8,-318.6,525.6,208.5,-1673.7,-7680.3,9830.1,-905.7,-7.2,-5.7,638.7,-222.6,-0.9,-279.3,-1494.0,-640.5,0,1524,268435456,74,0, 
0.8500,2729.1,-2143.5,-289.2,-73.2,-1264.8,-396.0,-977.4,-14.7,13189.8,-360.9,511.2,171.0,-1687.8,-7759.2,9830.1,-861.9,-7.2,-6.0,602.4,-261.3,-0.6,-325.5,-1506.0,-607.5,0,1530,268435456,75,0, 
0.8533,2706.0,-2146.8,-314.4,-96.0,-1289.7,-378.3,-998.4,-28.8,21266.7,-381.9,569.1,142.5,-1720.2,-7460.7,9830.1,-810.3,-6.6,-5.4,579.9,-306.0,-0.9,-346.8,-1526.7,-564.6,0,1536,268435456,76,0, 
0.8567,2715.3,-2151.9,-309.6,-89.7,-1280.7,-391.8,-998.4,-22.8,23563.8,-376.2,572.1,146.4,-1703.1,-7180.8,9830.1,-823.8,-7.2,-6.0,592.2,-286.8,-0.6,-348.9,-1518.9,-572.7,0,1542,268435456,77,0, 
0.8600,2739.9,-2146.8,-264.9,-45.6,-1233.3,-396.6,-968.7,6.9,16672.5,-324.0,579.3,185.4,-1674.0,-7317.6,9830.1,-870.0,-6.9,-5.7,628.5,-226.8,-1.5,-282.0,-1476.3,-609.9,0,1548,268435456,78,0, 
0.8633,2751.6,-2145.9,-256.2,-48.6,-1237.8,-410.1,-968.7,10.2,10448.1,-323.4,534.0,204.9,-1673.4,-7653.3,9830.1,-907.5,-6.6,-5.7,626.1,-231.0,-0.3,-291.0,-1491.9,-640.5,0,1554,268435456,79,0, 
0.8667,2729.1,-2136.6,-288.6,-63.6,-1255.2,-389.4,-976.5,-8.7,13486.2,-337.5,551.7,188.4,-1695.9,-7773.6,9830.1,-868.8,-6.6,-5.7,603.9,-247.2,-1.2,-308.7,-1493.4,-595.8,0,1560,268435456,80,0, 
0.8700,2707.2,-2144.1,-318.9,-88.8,-1279.8,-375.0,-997.5,-27.0,21711.3,-365.7,601.5,150.6,-1724.7,-7470.0,9830.1,-800.1,-7.2,-6.0,585.9,-291.9,-0.3,-336.6,-1509.6,-555.3,0,1566,268435456,81,0, 
0.8733,2713.2,-2148.6,-308.7,-87.9,-1283.4,-388.5,-999.0,-30.3,23563.8,-366.9,625.5,156.6,-1709.7,-7176.3,9830.1,-803.1,-6.6,-5.7,588.0,-274.5,-0.6,-345.3,-1503.0,-564.6,0,1572,268435456,82,0, 
0.8767,2736.6,-2147.1,-278.4,-58.2,-1251.9,-421.2,-989.7,-9.9,16820.7,-327.3,565.2,194.4,-1682.7,-7300.2,9830.1,-885.0,-6.9,-6.0,620.4,-230.7,-0.6,-291.3,-1505.7,-633.6,0,1578,268435456,83,0, 
0.8800,2745.9,-2148.3,-278.7,-50.1,-1238.7,-426.9,-983.7,-3.3,10596.3,-314.4,547.8,200.7,-1673.7,-7671.3,9830.1,-912.9,-6.9,-6.0,633.6,-220.2,-0.6,-294.9,-1502.1,-654.3,0,1584,268435456,84,0, 
0.8833,2726.1,-2143.8,-300.6,-63.0,-1255.8,-393.9,-981.3,-9.9,13560.3,-335.4,583.5,183.9,-1698.9,-7779.9,9830.1,-854.7,-6.9,-6.3,615.9,-247.8,-0.9,-307.8,-1500.3,-615.3,0,1590,268435456,85,0, 
0.8867,2690.7,-2153.1,-311.4,-83.4,-1278.3,-370.8,-997.8,-27.0,21563.1,-358.5,605.1,161.7,-1722.0,-7514.1,9830.1,-809.4,-6.9,-5.7,587.4,-274.5,-0.9,-329.7,-1504.2,-547.5,0,1596,268435456,86,0, 
0.8900,2707.2,-2156.7,-304.2,-76.5,-1272.3,-388.5,-1001.4,-22.8,23712.0,-346.8,603.0,167.4,-1704.6,-7216.5,9830.1,-817.5,-6.9,-6.0,599.4,-269.4,-0.9,-318.6,-1512.6,-567.6,0,1602,268435456,87,0, 
0.8933,2739.3,-2150.7,-280.2,-56.1,-1253.1,-423.6,-990.3,-5.7,16820.7,-321.9,571.8,192.3,-1667.4,-7324.8,9830.1,-873.6,-6.9,-5.7,621.6,-249.6,-0.6,-297.6,-1499.4,-630.0,0,1608,268435456,88,0, 
0.8967,2749.5,-2146.8,-273.6,-46.2,-1237.2,-417.0,-976.2,1.2,10448.1,-310.5,555.6,207.3,-1666.5,-7658.7,9830.1,-902.7,-6.9,-5.7,626.1,-249.6,-0.9,-281.4,-1489.5,-640.5,0,1614,268435456,89,0, 
0.9000,2724.0,-2142.0,-298.2,-69.3,-1264.5,-398.4,-993.9,-16.5,13338.0,-340.5,567.0,175.2,-1685.1,-7765.5,9830.1,-867.9,-6.6,-5.4,602.1,-266.7,-0.6,-308.7,-1503.9,-590.4,0,1620,268435456,90,0, 
0.9033,2705.4,-2144.7,-312.0,-89.1,-1284.9,-377.1,-993.9,-33.3,21340.8,-359.7,609.9,149.7,-1699.2,-7484.7,9830.1,-812.1,-7.2,-5.7,577.8,-284.1,-0.6,-340.8,-1504.8,-537.0,0,1626,268435456,91,0, 
0.9067,2709.3,-2149.5,-312.3,-80.7,-1279.5,-389.4,-998.4,-25.5,23415.6,-350.1,618.6,158.1,-1695.6,-7200.3,9830.1,-815.1,-6.9,-6.0,588.6,-278.1,-1.2,-328.5,-1506.9,-559.2,0,1632,268435456,92,0, 
0.9100,2737.5,-2163.0,-280.8,-59.7,-1252.5,-417.9,-988.8,-9.0,16524.3,-322.5,585.3,189.0,-1675.2,-7306.2,9830.1,-878.7,-6.9,-5.7,611.4,-255.9,-0.6,-292.2,-1500.0,-630.9,0,1638,268435456,93,0, 
0.9133,2744.4,-2158.5,-269.1,-50.4,-1251.0,-418.5,-982.8,-3.9,10151.7,-311.7,563.1,202.5,-1690.5,-7683.6,9830.1,-906.6,-6.9,-5.7,611.4,-241.8,-0.9,-278.7,-1499.4,-653.7,0,1644,268435456,94,0, 
0.9167,2723.1,-2153.7,-298.2,-75.6,-1273.5,-393.9,-990.9,-17.4,12967.5,-345.0,588.0,171.6,-1692.9,-7771.5,9830.1,-862.2,-6.9,-6.0,587.4,-280.8,-0.6,-323.7,-1516.5,-603.3,0,1650,268435456,95,0, 
0.9200,2701.8,-2148.3,-324.0,-92.7,-1291.8,-366.3,-1000.8,-25.5,21118.5,-371.4,628.8,151.5,-1718.1,-7506.0,9830.1,-809.4,-6.9,-5.7,576.6,-283.5,-0.6,-333.0,-1518.9,-547.8,0,1656,268435456,96,0, 
0.9233,2708.1,-2165.4,-316.5,-91.8,-1287.9,-388.5,-1006.8,-26.7,23267.4,-367.2,627.0,158.4,-1717.2,-7230.6,9830.1,-816.0,-6.6,-6.0,586.2,-286.2,-0.6,-331.8,-1523.1,-561.6,0,1662,268435456,97,0, 
0.9267,2733.3,-2160.3,-293.4,-68.4,-1266.3,-426.9,-999.3,-12.9,16450.2,-333.9,578.1,175.2,-1687.5,-7345.5,9830.1,-900.6,-6.9,-5.4,612.0,-255.9,-0.6,-309.0,-1515.6,-642.3,0,1668,268435456,98,0, 
0.9300,2754.6,-2153.1,-273.0,-58.8,-1250.1,-426.6,-983.7,-3.6,9929.4,-321.6,538.2,191.4,-1673.4,-7674.9,9830.1,-916.2,-6.9,-5.7,623.4,-246.0,-0.6,-292.5,-1506.9,-648.3,0,1674,268435456,99,0, 
0.9333,2726.4,-2148.3,-308.1,-84.9,-1283.4,-408.0,-993.9,-21.6,13041.6,-360.0,564.9,164.7,-1702.2,-7782.6,9830.1,-868.2,-6.6,-6.0,590.7,-280.2,-0.6,-327.0,-1514.7,-614.1,0,1680,268435456,100,0, 
0.9367,2694.9,-2153.7,-330.0,-94.8,-1290.3,-377.4,-998.1,-34.8,20970.3,-364.8,617.4,151.5,-1729.8,-7539.3,9830.1,-818.4,-6.9,-5.7,579.9,-298.5,-0.9,-337.2,-1513.8,-550.2,0,1686,268435456,101,0, 
0.9400,2704.2,-2166.6,-320.1,-95.1,-1296.6,-394.2,-1005.6,-36.9,23045.1,-366.6,583.5,145.8,-1720.2,-7235.4,9830.1,-833.1,-6.9,-6.0,578.7,-300.3,-0.9,-339.0,-1518.9,-582.3,0,1692,268435456,102,0, 
0.9433,2730.9,-2166.9,-285.3,-69.6,-1263.0,-417.0,-994.8,-16.8,16227.9,-338.7,599.1,173.7,-1686.0,-7359.6,9830.1,-906.6,-6.9,-5.7,603.9,-263.1,-0.9,-312.9,-1515.0,-627.3,0,1698,268435456,103,0, 
0.9467,2743.8,-2159.4,-275.7,-51.9,-1248.0,-420.6,-979.5,-3.3,10077.6,-327.6,591.0,186.9,-1693.2,-7703.4,9815.1,-921.6,-7.5,-5.7,616.2,-248.1,-0.6,-288.3,-1510.5,-644.1,0,1704,268435456,104,0, 
0.9500,2724.6,-2154.9,-306.6,-74.4,-1274.4,-402.6,-991.8,-24.0,12819.3,-357.3,601.8,158.4,-1706.7,-7800.3,9793.5,-870.6,-6.6,-5.7,588.0,-273.3,-1.2,-330.6,-1515.3,-604.8,0,1710,268435456,105,0, 
0.9533,2695.5,-2158.5,-326.7,-94.2,-1297.5,-390.0,-1004.7,-41.7,21044.4,-372.9,641.4,143.1,-1726.8,-7522.8,9830.1,-804.9,-6.9,-5.7,569.7,-299.7,-0.6,-340.5,-1524.0,-550.2,0,1716,268435456,106,0, 
0.9567,2704.8,-2161.8,-320.1,-88.8,-1285.8,-402.3,-998.7,-36.3,22896.9,-367.5,646.8,154.2,-1706.4,-7234.8,9830.1,-810.9,-7.2,-6.0,583.2,-287.4,-0.9,-345.3,-1506.9,-562.8,0,1722,268435456,107,0, 
0.9600,2728.2,-2164.5,-285.0,-60.9,-1257.0,-430.8,-990.9,-15.6,16079.7,-335.4,621.3,190.5,-1686.0,-7363.5,9830.1,-873.3,-6.9,-5.4,619.2,-248.4,-0.6,-292.2,-1510.2,-612.3,0,1728,268435456,108,0, 
0.9633,2738.4,-2161.8,-270.9,-51.9,-1239.0,-427.2,-976.2,-6.0,9855.3,-318.6,572.4,202.5,-1682.7,-7716.3,9810.9,-907.5,-7.2,-6.0,628.2,-240.0,-0.9,-285.0,-1490.1,-635.7,0,1734,268435456,109,0, 
0.9667,2723.7,-2157.9,-287.1,-64.5,-1258.8,-400.8,-978.3,-13.8,12819.3,-335.1,605.1,189.0,-1703.4,-7818.3,9795.9,-853.8,-7.5,-6.0,608.7,-251.1,-0.6,-300.6,-1502.1,-582.6,0,1740,268435456,110,0, 
0.9700,2699.1,-2157.3,-316.2,-91.8,-1289.1,-382.5,-994.5,-29.1,21044.4,-369.6,645.9,155.7,-1717.8,-7514.1,9830.1,-804.6,-6.3,-5.7,574.2,-274.8,-0.9,-334.2,-1510.2,-554.1,0,1746,268435456,111,0, 
0.9733,2702.7,-2166.6,-318.9,-93.6,-1294.8,-404.7,-1005.9,-40.2,22971.0,-367.2,622.8,152.1,-1706.7,-7227.9,9830.1,-814.8,-7.2,-6.0,581.4,-278.4,-0.9,-330.6,-1508.4,-567.9,0,1752,268435456,112,0, 
0.9767,2733.9,-2167.2,-280.2,-60.9,-1260.6,-411.0,-985.5,-11.4,16227.9,-329.1,611.1,180.9,-1678.2,-7348.2,9830.1,-872.1,-6.6,-6.0,623.4,-254.1,-0.6,-294.6,-1495.5,-616.2,0,1758,268435456,113,0, 
0.9800,2743.2,-2155.2,-262.8,-44.7,-1241.7,-418.5,-974.1,-4.2,9929.4,-313.8,597.3,193.2,-1677.0,-7705.2,9811.5,-910.5,-6.9,-6.3,633.3,-227.7,-0.9,-284.1,-1492.2,-635.1,0,1764,268435456,114,0, 
0.9833,2727.3,-2137.8,-287.4,-62.1,-1266.3,-395.4,-981.0,-14.7,12967.5,-338.4,629.7,184.2,-1696.2,-7783.8,9795.3,-858.0,-7.2,-5.7,613.5,-252.3,-0.9,-303.6,-1501.5,-586.8,0,1770,268435456,115,0, 
0.9867,2699.1,-2140.8,-319.8,-89.1,-1301.1,-389.7,-991.5,-36.9,20970.3,-376.5,665.1,150.0,-1713.3,-7489.2,9830.1,-795.6,-7.2,-5.7,586.2,-294.0,-0.6,-346.8,-1512.3,-531.0,0,1776,268435456,116,0, 
0.9900,2704.8,-2156.7,-306.3,-78.3,-1285.8,-402.9,-995.1,-28.2,23045.1,-350.7,667.5,157.5,-1699.8,-7238.1,9830.1,-799.5,-6.9,-5.4,603.0,-293.1,-0.9,-323.7,-1512.3,-555.0,0,1782,268435456,117,0, 
0.9933,2731.2,-2150.1,-264.9,-40.8,-1243.2,-409.2,-969.9,-3.9,16079.7,-297.6,635.7,212.1,-1678.5,-7365.6,9830.1,-864.9,-6.6,-6.0,645.3,-225.9,-0.3,-261.0,-1477.5,-593.1,0,1788,268435456,118,0, 
0.9967,2744.4,-2147.4,-264.9,-37.2,-1242.0,-426.0,-970.2,-1.8,9707.1,-305.7,608.7,210.3,-1673.4,-7692.3,9809.1,-888.0,-6.6,-5.7,650.4,-213.6,-0.6,-278.4,-1487.1,-630.3,0,1794,268435456,119,0, 
1.0000,2725.5,-2151.6,-290.1,-60.3,-1264.2,-407.7,-980.4,-18.3,12819.3,-329.1,617.7,185.7,-1693.5,-7804.8,9797.4,-836.1,-6.9,-6.0,622.8,-239.1,-0.3,-303.0,-1492.5,-588.0,0,1800,268435456,120,0, 
1.0033,2695.5,-2160.0,-320.4,-88.2,-1297.8,-395.4,-998.4,-39.9,21044.4,-363.3,648.9,156.3,-1717.8,-7514.4,9830.1,-783.9,-6.6,-5.7,592.8,-279.9,-0.6,-335.4,-1511.1,-545.7,0,1806,268435456,121,0, 
1.0067,2705.1,-2161.8,-312.6,-81.9,-1293.0,-408.3,-1002.9,-35.1,22896.9,-349.5,640.2,161.7,-1713.9,-7217.1,9829.8,-796.5,-6.6,-6.0,598.8,-272.4,-0.3,-327.0,-1508.4,-553.5,0,1812,268435456,122,0, 
1.0100,2725.2,-2167.2,-272.4,-48.0,-1256.1,-421.2,-983.4,-11.4,16079.7,-307.8,621.9,205.8,-1685.1,-7381.8,9830.1,-856.2,-6.9,-5.7,634.8,-242.7,-0.9,-283.5,-1492.5,-610.5,0,1818,268435456,123,0, 
1.0133,2729.1,-2164.5,-251.1,-34.5,-1238.4,-423.0,-985.2,-3.3,9633.0,-303.3,606.3,216.3,-1682.1,-7740.3,9792.0,-896.7,-7.2,-6.0,646.8,-217.5,-0.9,-262.8,-1487.4,-639.0,0,1824,268435456,124,0, 
1.0167,2715.3,-2151.6,-281.7,-59.4,-1259.1,-399.3,-987.9,-17.7,13041.6,-326.1,638.1,191.4,-1693.2,-7824.3,9768.3,-844.8,-6.9,-6.3,626.1,-246.3,-0.3,-300.3,-1500.6,-581.4,0,1830,268435456,125,0, 
1.0200,2685.0,-2165.7,-322.5,-89.1,-1288.2,-380.4,-1005.9,-40.5,20896.2,-366.6,656.4,159.6,-1726.8,-7544.1,9830.1,-790.2,-6.9,-6.0,591.3,-266.7,-0.9,-327.3,-1508.7,-521.1,0,1836,268435456,126,0, 
1.0233,2694.3,-2165.7,-309.9,-82.5,-1274.4,-395.7,-1002.0,-35.1,22971.0,-345.3,688.8,172.5,-1710.6,-7267.8,9824.7,-813.3,-7.2,-6.0,617.7,-251.7,-0.9,-312.0,-1498.5,-527.1,0,1842,268435456,127,0, 
1.0267,2723.1,-2172.9,-284.7,-63.6,-1258.2,-423.9,-996.9,-18.0,16005.6,-319.2,651.9,192.0,-1680.0,-7366.5,9830.1,-873.3,-6.6,-5.4,633.3,-241.2,-0.9,-294.3,-1505.1,-608.1,0,1848,268435456,128,0, 
1.0300,2741.4,-2161.2,-270.3,-51.3,-1242.0,-422.4,-986.7,-9.0,9781.2,-300.3,634.2,208.5,-1661.1,-7705.5,9777.3,-899.1,-6.6,-6.0,644.4,-224.7,-0.6,-270.9,-1501.2,-620.4,0,1854,268435456,129,0, 
1.0333,2712.9,-2160.6,-295.2,-73.8,-1267.5,-393.0,-996.0,-28.8,12819.3,-334.8,633.0,176.7,-1689.6,-7817.4,9758.1,-860.1,-6.9,-6.0,617.7,-249.0,-0.3,-301.5,-1511.4,-574.2,0,1860,268435456,130,0, 
1.0367,2683.8,-2163.6,-318.0,-99.3,-1295.4,-376.2,-1012.5,-40.5,20970.3,-356.1,668.1,144.3,-1706.4,-7536.6,9830.1,-798.9,-7.2,-5.7,586.8,-284.4,-0.9,-325.2,-1509.9,-542.1,0,1866,268435456,131,0, 
1.0400,2693.1,-2183.7,-322.8,-98.1,-1298.4,-404.1,-1018.5,-43.8,22822.8,-359.4,663.3,152.1,-1694.7,-7233.6,9821.7,-810.0,-6.9,-5.4,587.7,-278.7,-0.6,-322.5,-1514.7,-568.8,0,1872,268435456,132,0, 
1.0433,2730.6,-2172.9,-285.0,-61.2,-1256.7,-424.2,-1000.5,-20.1,15931.5,-315.0,662.7,195.6,-1683.3,-7350.6,9830.1,-871.2,-6.9,-5.7,630.3,-229.2,-0.9,-281.1,-1501.8,-612.9,0,1878,268435456,133,0, 
1.0467,2739.3,-2159.1,-278.1,-59.4,-1256.7,-429.0,-991.2,-15.0,9781.2,-316.2,629.7,199.8,-1670.4,-7698.9,9764.7,-904.5,-6.9,-5.7,627.6,-232.8,-0.6,-291.0,-1506.6,-634.8,0,1884,268435456,134,0, 
1.0500,2713.5,-2152.8,-289.2,-69.6,-1264.5,-398.1,-993.3,-23.1,12893.4,-330.6,663.9,185.7,-1695.3,-7815.9,9747.0,-857.1,-7.2,-5.1,611.1,-247.2,-0.6,-301.2,-1510.8,-594.6,0,1890,268435456,135,0, 
1.0533,2688.0,-2149.5,-303.9,-80.7,-1275.0,-382.2,-1004.7,-38.1,20822.1,-338.1,709.5,171.3,-1701.9,-7551.9,9830.1,-801.9,-6.9,-5.7,598.8,-259.2,-0.6,-309.0,-1506.6,-521.7,0,1896,268435456,136,0, 
1.0567,2694.6,-2163.9,-312.9,-79.8,-1269.3,-393.9,-1016.7,-38.1,22748.7,-343.8,704.7,165.0,-1701.9,-7253.4,9817.2,-808.2,-6.9,-5.7,603.3,-261.9,-0.9,-310.5,-1512.3,-559.5,0,1902,268435456,137,0, 
1.0600,2723.1,-2166.3,-269.1,-50.7,-1239.6,-426.0,-1004.1,-16.8,15857.4,-313.5,676.2,199.5,-1676.1,-7382.1,9830.1,-873.6,-6.6,-5.7,640.5,-226.8,-0.9,-284.7,-1510.2,-603.9,0,1908,268435456,138,0, 
1.0633,2740.5,-2164.5,-261.0,-45.3,-1230.0,-413.1,-987.3,-9.3,9707.1,-306.3,649.2,209.7,-1666.8,-7729.8,9725.4,-894.0,-6.6,-6.0,645.6,-207.9,-0.6,-278.4,-1495.5,-635.1,0,1914,268435456,139,0, 
1.0667,2712.3,-2152.5,-282.3,-55.2,-1241.7,-377.4,-990.0,-14.4,12671.1,-314.1,686.4,196.5,-1668.9,-7828.2,9693.6,-860.1,-6.6,-6.0,637.2,-228.6,-0.9,-288.6,-1498.2,-576.3,0,1920,268435456,140,0, 
1.0700,2685.3,-2157.6,-311.7,-73.5,-1263.6,-358.5,-1002.0,-33.3,20896.2,-332.4,741.3,173.1,-1706.4,-7571.7,9830.1,-803.4,-6.9,-6.3,612.9,-255.0,-0.6,-302.1,-1516.5,-528.9,0,1926,268435456,141,0, 
1.0733,2692.8,-2160.6,-303.6,-71.1,-1261.8,-381.9,-1006.8,-29.7,22748.7,-331.8,741.0,172.5,-1699.2,-7281.0,9807.9,-817.5,-6.6,-5.7,611.1,-247.2,-0.3,-306.3,-1512.0,-555.6,0,1932,268435456,142,0, 
1.0767,2718.6,-2166.3,-280.5,-51.9,-1245.9,-412.5,-1001.4,-20.7,15931.5,-314.7,688.8,193.8,-1671.0,-7399.5,9830.1,-881.1,-6.9,-5.7,633.0,-213.0,-0.9,-279.0,-1502.1,-615.6,0,1938,268435456,143,0, 
1.0800,2738.4,-2155.5,-260.7,-39.9,-1235.4,-411.9,-990.0,-4.2,9558.9,-297.6,675.3,216.0,-1664.1,-7730.1,9696.0,-889.2,-7.2,-5.7,643.5,-201.3,-0.9,-270.0,-1494.6,-616.2,0,1944,268435456,144,0, 
1.0833,2712.0,-2154.0,-289.5,-61.2,-1257.9,-402.9,-998.4,-21.6,12671.1,-326.4,695.7,189.0,-1686.3,-7857.3,9674.4,-848.7,-7.2,-6.3,623.4,-237.6,-0.6,-292.8,-1518.6,-569.4,0,1950,268435456,145,0, 
1.0867,2689.8,-2155.5,-310.5,-84.9,-1288.2,-383.4,-1011.9,-40.8,20748.0,-354.3,720.0,156.6,-1715.4,-7547.4,9830.1,-794.1,-6.9,-5.7,589.5,-271.5,-0.3,-328.8,-1532.7,-537.6,0,1956,268435456,146,0, 
1.0900,2697.3,-2163.6,-309.6,-82.2,-1285.2,-401.4,-1011.9,-34.5,22674.6,-351.6,720.3,160.8,-1701.0,-7267.5,9800.1,-814.8,-6.6,-6.0,597.6,-262.2,-0.3,-324.3,-1524.6,-545.4,0,1962,268435456,147,0, 
1.0933,2724.3,-2163.0,-274.2,-48.0,-1247.1,-415.5,-993.3,-13.2,15709.2,-310.2,697.8,202.2,-1671.0,-7428.9,9830.1,-872.1,-7.2,-6.0,634.8,-216.0,-0.6,-284.7,-1503.6,-602.7,0,1968,268435456,148,0, 
1.0967,2741.4,-2157.9,-265.8,-36.0,-1233.6,-407.1,-983.7,-3.6,9410.7,-292.8,689.4,220.8,-1661.1,-7775.4,9634.2,-879.3,-6.9,-5.7,648.9,-206.1,-0.6,-260.4,-1493.4,-612.6,0,1974,268435456,149,0, 
1.1000,2709.9,-2150.1,-283.2,-61.8,-1258.2,-388.5,-993.0,-17.4,12448.8,-325.2,695.7,184.5,-1679.7,-7860.3,9620.4,-831.6,-6.9,-5.7,617.7,-242.4,-0.9,-299.7,-1506.6,-574.8,0,1980,268435456,150,0, 
1.1033,2669.1,-2163.6,-316.5,-87.9,-1285.8,-383.4,-1013.4,-39.9,20599.8,-355.8,747.0,150.9,-1719.6,-7564.5,9830.1,-789.3,-6.9,-5.7,585.9,-270.0,-0.6,-326.4,-1519.5,-535.8,0,1986,268435456,151,0, 
1.1067,2684.4,-2174.7,-314.4,-80.7,-1281.0,-399.3,-1017.6,-33.0,22600.5,-350.1,761.7,170.4,-1701.9,-7278.0,9794.7,-789.9,-6.9,-6.0,598.2,-246.9,-0.9,-313.8,-1519.2,-551.4,0,1992,268435456,152,0, 
1.1100,2709.3,-2187.3,-274.5,-60.3,-1261.8,-429.6,-1006.2,-21.3,15635.1,-330.0,723.3,195.3,-1686.9,-7413.9,9830.1,-863.1,-6.9,-5.7,621.3,-223.5,-0.6,-291.6,-1514.7,-609.6,0,1998,268435456,153,0, 
1.1133,2725.2,-2177.1,-280.2,-54.0,-1252.2,-432.9,-992.1,-11.1,9262.5,-318.0,689.1,199.8,-1666.8,-7764.9,9622.2,-878.4,-6.9,-5.7,629.1,-223.5,-0.9,-287.4,-1509.6,-623.1,0,2004,268435456,154,0, 
1.1167,2704.8,-2167.2,-304.5,-76.5,-1273.5,-414.3,-1003.5,-31.5,12522.9,-340.5,688.5,166.2,-1686.0,-7867.5,9609.9,-841.2,-6.6,-6.0,601.5,-259.2,-0.9,-304.2,-1517.4,-587.7,0,2010,268435456,155,0, 
1.1200,2682.3,-2171.4,-324.3,-93.3,-1293.9,-388.2,-1012.5,-44.4,20673.9,-366.9,723.9,149.4,-1714.8,-7570.5,9830.1,-783.3,-7.2,-5.7,580.5,-274.8,-0.6,-329.4,-1511.4,-531.0,0,2016,268435456,156,0, 
1.1233,2681.7,-2183.4,-322.5,-87.3,-1287.3,-416.4,-1018.8,-51.0,22452.3,-363.3,709.5,152.1,-1714.5,-7302.6,9795.6,-790.5,-7.5,-5.7,590.4,-263.7,-0.6,-325.5,-1517.4,-555.0,0,2022,268435456,157,0, 
1.1267,2710.5,-2176.2,-291.3,-67.2,-1262.7,-447.6,-1013.1,-30.3,15635.1,-334.2,703.2,176.7,-1680.0,-7407.0,9830.1,-875.4,-6.6,-5.7,614.1,-238.2,-0.9,-307.5,-1534.8,-619.5,0,2028,268435456,158,0, 
1.1300,2725.8,-2160.9,-272.7,-44.1,-1234.8,-436.8,-995.4,-14.7,9188.4,-312.0,683.4,199.5,-1663.2,-7773.9,9623.4,-912.0,-6.9,-5.7,634.5,-236.7,-0.9,-281.4,-1522.2,-627.3,0,2034,268435456,159,0, 
1.1333,2703.6,-2156.1,-281.4,-59.1,-1252.2,-402.3,-1001.7,-27.0,12374.7,-327.9,695.4,175.5,-1688.7,-7857.3,9610.2,-860.7,-7.2,-5.7,618.9,-250.8,-0.9,-296.1,-1528.8,-588.0,0,2040,268435456,160,0, 
1.1367,2682.0,-2165.4,-303.9,-80.7,-1278.0,-390.3,-1010.1,-47.7,20673.9,-357.9,699.3,147.6,-1710.0,-7557.3,9830.1,-806.7,-6.9,-5.7,594.9,-282.3,-0.9,-326.7,-1537.5,-552.0,0,2046,268435456,161,0, 
1.1400,2684.4,-2178.9,-313.2,-81.9,-1278.6,-407.1,-1012.8,-42.9,22748.7,-355.2,720.9,152.7,-1707.9,-7288.2,9809.7,-816.0,-7.2,-5.7,596.4,-274.2,-0.9,-327.6,-1526.7,-573.0,0,2052,268435456,162,0, 
1.1433,2717.1,-2175.3,-287.7,-56.1,-1249.2,-434.7,-1006.5,-21.9,15635.1,-321.3,715.5,189.9,-1672.5,-7392.9,9830.1,-887.7,-6.6,-5.7,627.3,-236.4,-0.3,-290.4,-1523.1,-613.5,0,2058,268435456,163,0, 
1.1467,2736.3,-2168.4,-272.7,-49.5,-1241.7,-436.5,-992.7,-13.2,9707.1,-316.8,665.4,196.8,-1661.1,-7720.2,9768.6,-905.4,-6.9,-5.7,634.5,-234.6,-0.9,-281.7,-1518.3,-627.3,0,2064,268435456,164,0, 
1.1500,2709.3,-2164.8,-302.7,-70.5,-1264.8,-410.7,-996.9,-27.9,12967.5,-338.7,674.1,173.1,-1692.9,-7832.7,9742.5,-844.5,-6.9,-5.7,616.5,-247.8,-0.9,-306.0,-1519.8,-576.9,0,2070,268435456,165,0, 
1.1533,2684.1,-2161.5,-314.7,-84.0,-1278.6,-382.5,-1002.0,-33.6,21192.6,-342.0,741.6,154.2,-1705.5,-7529.7,9830.1,-818.1,-6.6,-5.7,603.6,-265.2,-0.6,-320.7,-1525.2,-524.4,0,2076,268435456,166,0, 
1.1567,2695.2,-2171.1,-317.4,-90.3,-1282.5,-407.7,-1011.3,-37.5,23267.4,-348.3,750.9,157.8,-1700.1,-7242.0,9825.0,-833.4,-7.2,-5.7,604.8,-270.3,-0.6,-312.9,-1531.2,-543.0,0,2082,268435456,167,0, 
1.1600,2718.3,-2173.8,-288.3,-69.6,-1260.6,-440.1,-1005.6,-26.7,16450.2,-321.6,720.9,178.2,-1671.3,-7347.6,9830.1,-898.2,-6.9,-5.7,618.6,-246.6,-0.9,-298.5,-1524.3,-615.9,0,2088,268435456,168,0, 
1.1633,2726.1,-2171.4,-277.8,-61.8,-1254.9,-444.0,-998.7,-19.5,10299.9,-312.3,700.5,181.2,-1675.2,-7704.0,9830.1,-906.6,-7.2,-6.0,630.3,-230.7,-0.9,-292.2,-1521.3,-641.7,0,2094,268435456,169,0, 
1.1667,2704.2,-2165.7,-311.4,-81.9,-1273.2,-402.9,-997.5,-29.7,13634.4,-339.9,743.1,157.5,-1693.2,-7783.5,9830.1,-851.7,-7.2,-6.0,610.5,-257.4,-0.6,-304.2,-1524.3,-584.7,0,2100,268435456,170,0, 
1.1700,2679.3,-2166.0,-329.1,-102.6,-1295.1,-385.2,-1009.2,-42.6,21859.5,-363.3,737.1,150.0,-1716.3,-7482.6,9830.1,-797.7,-6.6,-6.0,588.3,-281.1,-0.9,-322.8,-1528.2,-532.5,0,2106,268435456,171,0, 
1.1733,2681.7,-2173.5,-313.8,-92.4,-1282.8,-402.6,-1012.5,-37.8,23934.3,-350.4,751.2,160.5,-1717.5,-7200.9,9830.1,-815.1,-6.9,-5.7,594.6,-277.5,-0.6,-318.9,-1522.2,-554.7,0,2112,268435456,172,0, 
1.1767,2715.9,-2175.0,-282.6,-65.4,-1256.7,-420.0,-1003.5,-19.5,17043.0,-311.1,726.0,193.8,-1685.1,-7322.4,9830.1,-881.1,-7.2,-6.3,623.1,-245.7,-0.6,-286.5,-1507.8,-600.6,0,2118,268435456,173,0, 
1.1800,2735.7,-2168.1,-277.2,-57.0,-1248.3,-432.6,-993.3,-11.1,10818.6,-307.8,674.4,198.0,-1668.0,-7650.3,9830.1,-891.9,-6.9,-5.7,635.4,-240.6,0.0,-274.8,-1508.7,-613.2,0,2124,268435456,174,0, 
1.1833,2711.7,-2161.2,-298.5,-83.4,-1273.5,-413.4,-1004.7,-26.7,14004.9,-341.4,703.8,169.5,-1694.7,-7740.9,9830.1,-837.9,-6.9,-6.0,604.2,-261.3,-0.9,-311.4,-1515.0,-579.6,0,2130,268435456,175,0, 
1.1867,2686.8,-2167.5,-318.9,-96.0,-1291.8,-399.6,-1009.5,-42.9,22007.7,-355.8,759.0,154.8,-1721.7,-7452.6,9830.1,-788.1,-6.9,-5.7,584.1,-266.1,-0.9,-320.1,-1513.5,-531.6,0,2136,268435456,176,0, 
1.1900,2693.7,-2175.3,-319.5,-88.5,-1286.1,-411.3,-1004.7,-37.2,23860.2,-348.9,751.8,168.0,-1705.8,-7194.3,9830.1,-805.2,-6.9,-5.7,592.5,-262.5,-0.9,-326.1,-1504.5,-543.6,0,2142,268435456,177,0, 
1.1933,2724.9,-2169.0,-281.1,-56.7,-1257.9,-434.4,-993.6,-15.0,16746.6,-314.4,722.7,198.9,-1668.6,-7296.9,9830.1,-872.7,-6.9,-5.7,627.9,-231.3,-0.3,-281.4,-1507.5,-609.9,0,2148,268435456,178,0, 
1.1967,2737.2,-2163.0,-273.0,-46.2,-1246.2,-428.7,-985.2,-0.6,10522.2,-296.7,704.4,210.3,-1669.8,-7669.5,9830.1,-895.2,-7.2,-6.0,641.7,-212.4,-0.9,-274.2,-1497.3,-627.3,0,2154,268435456,179,0, 
1.2000,2718.6,-2157.0,-293.4,-63.6,-1257.3,-401.7,-980.1,-10.8,13560.3,-324.0,713.7,190.2,-1683.3,-7758.6,9830.1,-845.1,-6.9,-6.0,617.4,-249.9,-0.9,-294.3,-1501.2,-567.6,0,2160,268435456,180,0, 
1.2033,2689.5,-2166.0,-317.4,-89.1,-1292.1,-392.4,-993.0,-35.1,21711.3,-367.8,743.4,153.9,-1715.1,-7475.4,9830.1,-800.7,-6.9,-5.7,587.7,-281.4,-0.9,-322.2,-1527.9,-519.0,0,2166,268435456,181,0, 
1.2067,2694.6,-2174.4,-318.3,-83.1,-1280.4,-399.0,-997.2,-29.1,23267.4,-347.7,750.9,168.9,-1710.0,-7211.4,9830.1,-812.4,-7.2,-5.7,604.2,-267.0,-0.9,-320.4,-1515.3,-547.5,0,2172,268435456,182,0, 
1.2100,2719.8,-2184.6,-292.8,-64.2,-1254.0,-414.9,-990.9,-13.2,16302.0,-320.7,718.5,187.2,-1691.7,-7335.0,9830.1,-867.6,-6.3,-5.7,628.5,-238.5,-0.6,-291.3,-1502.1,-620.1,0,2178,268435456,183,0, 
1.2133,2731.5,-2178.6,-269.7,-61.5,-1250.1,-423.0,-989.1,-8.7,10225.8,-315.0,660.6,189.9,-1675.2,-7682.1,9830.1,-899.4,-6.9,-5.7,624.9,-244.2,-1.2,-284.1,-1506.0,-666.0,0,2184,268435456,184,0, 
1.2167,2707.8,-2175.3,-305.4,-82.8,-1276.8,-400.8,-997.2,-22.5,13412.1,-337.2,677.1,153.3,-1701.0,-7785.3,9830.1,-868.2,-6.9,-6.0,603.0,-286.8,-0.9,-306.9,-1520.4,-601.8,0,2190,268435456,185,0, 
1.2200,2684.7,-2172.3,-313.2,-93.9,-1288.8,-382.2,-1003.2,-39.0,21414.9,-359.4,742.8,141.9,-1716.9,-7521.0,9830.1,-810.0,-6.9,-5.7,592.2,-291.9,-0.6,-327.6,-1523.4,-547.2,0,2196,268435456,186,0, 
1.2233,2697.6,-2177.1,-306.0,-88.8,-1282.2,-397.2,-1002.9,-36.6,23341.5,-349.2,750.6,163.8,-1704.3,-7213.8,9830.1,-812.4,-6.6,-5.4,600.0,-258.6,-0.6,-325.2,-1517.7,-571.2,0,2202,268435456,187,0, 
1.2267,2724.3,-2177.7,-279.0,-58.5,-1249.5,-418.2,-986.7,-15.3,16153.8,-317.1,738.9,193.5,-1674.0,-7343.7,9830.1,-867.3,-7.5,-6.0,631.2,-220.5,-0.9,-285.6,-1506.9,-612.6,0,2208,268435456,188,0, 
1.2300,2736.3,-2168.4,-273.3,-47.1,-1228.5,-410.4,-980.1,-9.3,10077.6,-306.0,683.1,205.2,-1670.7,-7701.3,9830.1,-889.8,-6.3,-6.0,642.0,-216.6,-0.9,-268.5,-1503.9,-639.0,0,2214,268435456,189,0, 
1.2333,2708.4,-2176.2,-307.2,-81.0,-1269.0,-409.5,-996.9,-34.5,13115.7,-348.6,678.6,168.0,-1706.4,-7789.5,9830.1,-848.1,-7.2,-6.0,598.5,-251.7,-0.9,-320.1,-1524.6,-598.8,0,2220,268435456,190,0, 
1.2367,2688.9,-2176.5,-322.5,-94.5,-1288.8,-380.1,-1006.2,-46.8,21414.9,-365.1,748.8,152.1,-1721.1,-7499.7,9830.1,-787.5,-6.9,-5.1,587.4,-271.5,-0.3,-343.5,-1523.4,-547.5,0,2226,268435456,191,0, 
1.2400,2695.8,-2172.0,-300.3,-69.9,-1262.4,-378.3,-999.0,-31.2,23119.2,-342.9,762.0,178.2,-1705.8,-7259.1,9830.1,-798.3,-7.2,-5.7,613.2,-239.4,-0.6,-303.3,-1509.3,-549.3,0,2232,268435456,192,0, 
1.2433,2727.0,-2163.0,-275.7,-45.0,-1233.0,-404.1,-988.2,-12.6,16079.7,-310.2,737.4,211.8,-1671.6,-7354.8,9830.1,-872.4,-6.9,-5.7,642.6,-219.9,-0.9,-267.9,-1513.8,-612.3,0,2238,268435456,193,0, 
1.2467,2740.8,-2150.7,-261.0,-34.2,-1222.5,-399.3,-982.5,1.2,9855.3,-294.6,701.7,220.2,-1658.1,-7694.4,9820.2,-906.0,-6.6,-6.0,652.5,-207.9,-0.6,-264.3,-1498.8,-624.9,0,2244,268435456,194,0, 
1.2500,2708.4,-2156.4,-291.6,-62.4,-1250.1,-391.8,-996.6,-21.6,13115.7,-331.2,717.9,178.8,-1688.4,-7796.4,9811.2,-845.7,-6.9,-6.3,616.8,-248.4,-0.3,-308.4,-1524.6,-576.3,0,2250,268435456,195,0, 
1.2533,2683.2,-2152.8,-306.3,-70.2,-1265.7,-374.4,-1006.5,-33.6,21118.5,-347.7,726.0,160.8,-1707.0,-7512.9,9830.1,-801.3,-6.9,-6.0,597.0,-269.4,-0.6,-325.5,-1527.3,-541.2,0,2256,268435456,196,0, 
1.2567,2687.4,-2168.7,-304.8,-66.0,-1268.1,-382.8,-1007.4,-35.4,23119.2,-343.5,744.0,175.2,-1703.1,-7233.0,9830.1,-805.8,-7.2,-6.0,607.5,-263.4,-0.6,-317.7,-1508.7,-556.2,0,2262,268435456,197,0, 
1.2600,2712.9,-2167.2,-273.3,-42.3,-1240.8,-412.8,-997.5,-12.9,16153.8,-308.7,723.6,204.9,-1680.3,-7366.5,9830.1,-861.9,-6.9,-5.7,636.3,-222.6,-0.6,-284.7,-1498.2,-615.3,0,2268,268435456,198,0, 
1.2633,2720.4,-2168.1,-266.1,-39.9,-1232.1,-422.7,-989.1,-10.5,9929.4,-306.6,675.0,204.3,-1674.0,-7720.2,9830.1,-898.8,-6.9,-6.0,642.9,-224.4,-0.9,-270.9,-1506.9,-626.4,0,2274,268435456,199,0, 
1.2667,2696.4,-2164.2,-281.1,-64.2,-1257.0,-401.4,-997.5,-22.5,13189.8,-336.6,699.3,175.5,-1692.9,-7805.4,9830.1,-859.8,-6.9,-5.7,612.0,-238.2,-0.6,-307.2,-1512.0,-582.9,0,2280,268435456,200,0, 
1.2700,2671.2,-2169.6,-305.7,-88.8,-1278.0,-390.9,-1006.5,-43.2,21414.9,-363.3,742.8,163.8,-1712.7,-7529.4,9830.1,-794.4,-6.9,-5.7,588.6,-280.8,-0.3,-334.8,-1524.0,-532.2,0,2286,268435456,201,0, 
1.2733,2682.3,-2176.5,-317.1,-88.2,-1278.9,-402.9,-1009.2,-44.4,23193.3,-365.4,767.7,164.4,-1704.6,-7228.8,9830.1,-801.3,-6.9,-6.0,599.4,-264.6,-0.6,-333.0,-1518.9,-566.1,0,2292,268435456,202,0, 
1.2767,2707.5,-2178.6,-284.1,-54.6,-1248.3,-413.1,-995.4,-24.3,16079.7,-327.9,758.1,199.8,-1682.1,-7361.4,9830.1,-854.4,-6.9,-6.0,625.5,-221.7,-0.3,-291.9,-1514.1,-614.1,0,2298,268435456,203,0, 
1.2800,2724.6,-2168.1,-263.1,-37.5,-1229.7,-414.3,-982.8,-9.3,10151.7,-305.1,740.7,220.5,-1663.2,-7711.5,9830.1,-908.1,-6.9,-6.0,643.5,-208.5,-0.9,-272.1,-1507.5,-620.1,0,2304,268435456,204,0, 
1.2833,2697.6,-2167.8,-286.8,-58.5,-1252.2,-396.9,-986.4,-18.3,13189.8,-317.7,755.4,198.3,-1686.6,-7799.7,9830.1,-851.7,-6.9,-6.0,629.1,-225.6,-0.6,-294.0,-1507.8,-559.8,0,2310,268435456,205,0, 
1.2867,2674.8,-2169.9,-311.4,-83.7,-1285.5,-380.1,-1002.3,-36.0,21489.0,-354.3,783.9,167.7,-1692.9,-7507.2,9830.1,-797.7,-6.9,-5.4,602.7,-254.1,-0.9,-323.4,-1530.3,-524.7,0,2316,268435456,206,0, 
1.2900,2676.6,-2181.6,-298.5,-80.1,-1275.6,-388.2,-1003.2,-33.0,23193.3,-347.7,792.3,170.4,-1713.3,-7240.5,9830.1,-807.9,-6.9,-5.7,606.3,-253.5,-0.6,-308.4,-1520.1,-552.3,0,2322,268435456,207,0, 
1.2933,2710.8,-2183.7,-278.7,-55.8,-1250.7,-406.2,-993.6,-15.0,16376.1,-317.1,752.1,196.5,-1674.9,-7339.8,9830.1,-863.1,-6.9,-5.7,632.1,-238.8,-0.6,-283.5,-1517.1,-610.2,0,2328,268435456,208,0, 
1.2967,2725.2,-2169.9,-264.0,-41.1,-1232.7,-406.8,-984.6,-3.6,10151.7,-297.9,719.4,211.5,-1667.4,-7696.2,9830.1,-893.7,-6.9,-5.7,647.7,-216.3,-0.3,-275.1,-1503.9,-629.4,0,2334,268435456,209,0, 
1.3000,2703.6,-2161.8,-290.4,-57.0,-1255.2,-382.2,-992.4,-17.1,13634.4,-319.5,735.0,191.1,-1696.8,-7776.0,9830.1,-836.4,-6.9,-5.7,627.0,-241.5,-0.9,-294.6,-1516.8,-590.7,0,2340,268435456,210,0, 
1.3033,2677.8,-2178.9,-317.4,-86.1,-1284.6,-364.2,-1005.3,-36.6,21489.0,-360.3,755.7,165.6,-1719.3,-7484.4,9830.1,-784.8,-6.9,-6.0,597.3,-279.3,-0.6,-333.9,-1520.1,-533.1,0,2346,268435456,211,0, 
1.3067,2684.4,-2181.0,-294.0,-69.9,-1268.7,-370.2,-1003.5,-27.3,23637.9,-338.1,752.4,180.3,-1698.9,-7220.4,9830.1,-799.5,-6.9,-5.7,611.1,-252.6,-0.6,-316.8,-1518.0,-548.7,0,2352,268435456,212,0, 
1.3100,2709.3,-2185.5,-276.9,-41.1,-1238.4,-393.0,-990.6,-9.3,16302.0,-300.0,760.2,218.4,-1679.7,-7353.3,9830.1,-864.6,-6.3,-5.7,639.3,-213.3,-0.9,-276.0,-1506.6,-605.7,0,2358,268435456,213,0, 
1.3133,2724.9,-2178.0,-271.2,-43.2,-1241.7,-404.7,-989.1,-5.4,10374.0,-309.6,690.0,212.7,-1663.8,-7664.7,9830.1,-896.7,-6.9,-6.3,627.0,-227.1,-0.6,-282.3,-1510.5,-643.2,0,2364,268435456,214,0, 
1.3167,2701.8,-2174.7,-286.2,-54.0,-1257.0,-374.1,-990.6,-17.1,13486.2,-326.7,736.8,199.5,-1686.9,-7775.1,9830.1,-843.6,-6.9,-5.7,616.8,-238.5,-0.9,-292.5,-1511.7,-577.5,0,2370,268435456,215,0, 
1.3200,2674.2,-2184.6,-313.5,-79.8,-1284.3,-359.7,-1003.2,-36.9,21859.5,-358.8,784.8,171.6,-1713.3,-7496.1,9830.1,-776.4,-6.9,-6.0,589.2,-269.7,-0.6,-334.8,-1515.0,-549.6,0,2376,268435456,216,0, 
1.3233,2679.6,-2187.0,-302.4,-70.2,-1270.5,-379.8,-1007.7,-32.4,23489.7,-345.9,794.1,185.1,-1707.3,-7224.6,9830.1,-791.7,-7.2,-6.3,610.2,-245.4,-0.6,-317.4,-1515.9,-567.9,0,2382,268435456,217,0, 
1.3267,2712.3,-2178.9,-267.6,-39.3,-1235.7,-394.2,-993.9,-7.2,16450.2,-309.6,748.2,213.6,-1677.0,-7333.2,9830.1,-858.6,-7.2,-5.7,648.0,-219.6,-0.3,-279.9,-1501.2,-614.7,0,2388,268435456,218,0, 
1.3300,2715.9,-2175.9,-263.7,-32.1,-1228.2,-398.7,-979.5,0.3,10299.9,-305.4,724.8,226.8,-1676.1,-7715.1,9830.1,-879.6,-7.2,-6.0,652.5,-211.2,-0.6,-278.7,-1495.5,-609.9,0,2394,268435456,219,0, 
1.3333,2697.0,-2171.1,-284.7,-54.3,-1251.0,-380.4,-987.9,-15.6,13560.3,-331.5,741.9,199.8,-1690.5,-7794.3,9830.1,-836.4,-7.2,-5.4,627.9,-233.4,-1.2,-307.8,-1521.3,-582.0,0,2400,268435456,220,0, 
1.3367,2674.5,-2168.4,-308.7,-78.6,-1273.8,-363.6,-989.4,-30.6,21637.2,-353.1,765.0,175.2,-1697.4,-7494.6,9830.1,-791.7,-6.6,-6.0,608.7,-255.0,-0.3,-328.8,-1512.0,-535.8,0,2406,268435456,221,0, 
1.3400,2679.3,-2175.3,-294.9,-68.7,-1265.1,-371.4,-987.0,-24.6,23341.5,-336.9,787.8,184.8,-1690.5,-7257.3,9830.1,-800.1,-7.2,-5.7,620.4,-241.5,-0.9,-306.9,-1511.7,-558.3,0,2412,268435456,222,0, 
1.3433,2708.4,-2171.7,-265.5,-38.7,-1227.0,-394.5,-978.6,-2.1,16153.8,-298.2,740.1,220.5,-1667.7,-7368.0,9830.1,-861.3,-6.3,-6.0,651.3,-216.3,-1.2,-264.0,-1502.7,-597.6,0,2418,268435456,223,0, 
1.3467,2718.9,-2170.5,-257.7,-43.2,-1229.7,-401.4,-983.4,-5.4,10077.6,-301.8,705.0,215.1,-1668.6,-7702.8,9830.1,-889.5,-7.5,-5.7,640.8,-223.2,-0.6,-279.9,-1511.7,-622.5,0,2424,268435456,224,0, 
1.3500,2703.6,-2157.6,-287.4,-55.5,-1246.5,-377.7,-985.2,-13.5,13263.9,-328.2,738.3,199.8,-1678.5,-7783.2,9830.1,-832.2,-7.2,-6.0,625.5,-232.5,-0.9,-300.0,-1511.1,-560.7,0,2430,268435456,225,0, 
1.3533,2669.4,-2174.4,-312.9,-84.3,-1281.9,-366.6,-1005.0,-40.5,21489.0,-350.1,765.0,174.0,-1705.8,-7505.1,9830.1,-782.7,-7.2,-6.0,593.7,-262.2,-0.9,-330.6,-1522.5,-528.9,0,2436,268435456,226,0, 
1.3567,2670.0,-2187.6,-306.3,-73.5,-1271.1,-382.8,-1003.8,-36.6,23267.4,-342.9,786.0,181.2,-1707.6,-7264.2,9830.1,-784.2,-6.6,-6.0,601.5,-249.0,-0.3,-314.4,-1510.8,-552.3,0,2442,268435456,227,0, 
1.3600,2697.6,-2181.0,-275.7,-44.1,-1242.9,-400.8,-992.7,-16.8,16005.6,-306.9,768.6,216.6,-1681.8,-7386.9,9830.1,-846.9,-7.2,-6.0,636.9,-221.4,-0.6,-280.8,-1502.1,-594.3,0,2448,268435456,228,0, 
1.3633,2712.6,-2169.6,-261.3,-36.0,-1230.0,-406.2,-986.7,-3.9,9929.4,-301.5,760.5,228.9,-1663.8,-7724.4,9830.1,-874.5,-6.6,-6.0,642.6,-208.5,-0.6,-279.3,-1500.0,-610.8,0,2454,268435456,229,0, 
1.3667,2695.2,-2158.5,-277.8,-49.5,-1244.7,-380.1,-989.4,-11.4,13338.0,-319.8,766.2,211.2,-1695.6,-7819.5,9830.1,-831.6,-6.9,-5.7,620.7,-219.0,-0.9,-287.1,-1511.1,-560.4,0,2460,268435456,230,0, 
1.3700,2672.4,-2169.0,-297.3,-67.5,-1262.4,-359.4,-995.4,-24.9,21414.9,-336.3,792.3,184.2,-1702.8,-7499.1,9830.1,-778.8,-6.9,-5.7,598.2,-245.4,-0.9,-300.0,-1523.1,-513.0,0,2466,268435456,231,0, 
1.3733,2677.2,-2175.9,-290.1,-62.7,-1259.1,-378.6,-1002.3,-23.7,23045.1,-336.9,799.2,195.3,-1687.5,-7245.6,9830.1,-801.0,-6.6,-5.7,605.1,-249.0,-0.6,-314.4,-1519.2,-535.5,0,2472,268435456,232,0, 
1.3767,2699.1,-2176.2,-264.3,-36.9,-1230.3,-404.4,-990.9,-9.9,15857.4,-294.6,778.5,234.9,-1666.5,-7410.3,9830.1,-872.4,-6.9,-6.3,644.1,-210.9,-0.9,-281.4,-1509.6,-605.1,0,2478,268435456,233,0, 
1.3800,2709.9,-2169.6,-254.1,-33.9,-1228.2,-415.2,-987.0,-3.3,9929.4,-301.5,722.1,230.4,-1664.4,-7756.5,9818.7,-900.0,-6.9,-6.0,642.9,-208.8,-0.6,-275.1,-1510.2,-615.0,0,2484,268435456,234,0, 
1.3833,2695.2,-2165.4,-277.8,-53.1,-1250.1,-383.4,-985.8,-11.1,13189.8,-321.0,759.9,209.1,-1679.7,-7830.0,9811.8,-845.1,-7.2,-5.7,621.3,-237.0,-0.9,-303.9,-1520.1,-588.9,0,2490,268435456,235,0, 
1.3867,2679.0,-2168.7,-306.6,-81.0,-1283.4,-375.9,-999.6,-25.2,21266.7,-360.0,787.5,175.2,-1696.2,-7504.5,9830.1,-779.4,-6.9,-5.7,594.3,-278.1,-1.2,-333.9,-1527.3,-538.5,0,2496,268435456,236,0, 
1.3900,2683.2,-2182.8,-297.9,-71.7,-1272.6,-375.9,-999.0,-26.4,22896.9,-343.5,781.5,183.3,-1688.1,-7253.4,9830.1,-786.9,-7.2,-6.0,605.1,-250.2,-0.9,-318.0,-1521.3,-543.0,0,2502,268435456,237,0, 
1.3933,2706.0,-2184.9,-283.8,-50.1,-1243.5,-403.8,-989.7,-13.2,15783.3,-316.2,765.6,211.5,-1668.9,-7395.9,9830.1,-859.5,-6.9,-6.0,634.5,-214.2,-0.9,-287.1,-1496.7,-605.7,0,2508,268435456,238,0, 
1.3967,2717.1,-2184.6,-259.5,-41.1,-1235.7,-406.5,-989.1,-9.9,9929.4,-300.6,744.6,221.1,-1667.7,-7747.8,9795.3,-900.0,-6.9,-5.7,636.9,-223.5,-0.9,-277.8,-1515.6,-622.2,0,2514,268435456,239,0, 
1.4000,2690.1,-2172.3,-282.0,-55.5,-1249.5,-372.0,-990.9,-15.0,12967.5,-319.8,762.6,204.3,-1680.6,-7846.2,9787.5,-852.6,-7.2,-5.7,613.5,-240.9,-0.6,-291.9,-1512.0,-567.3,0,2520,268435456,240,0, 
1.4033,2664.9,-2174.4,-301.2,-68.4,-1269.0,-349.5,-997.5,-30.0,21266.7,-340.8,815.1,188.7,-1710.0,-7558.8,9830.1,-792.3,-6.9,-6.0,597.0,-251.4,-0.9,-319.8,-1513.8,-516.3,0,2526,268435456,241,0, 
1.4067,2671.5,-2185.5,-299.7,-71.7,-1270.8,-368.7,-1008.0,-31.5,22748.7,-348.6,811.8,184.5,-1717.2,-7277.1,9825.3,-785.4,-7.2,-6.0,594.6,-263.4,-0.6,-323.7,-1526.4,-547.5,0,2532,268435456,242,0, 
1.4100,2701.2,-2194.5,-269.4,-45.9,-1239.9,-397.2,-987.6,-12.0,15857.4,-312.6,780.3,218.7,-1685.1,-7407.9,9830.1,-855.6,-6.9,-5.4,626.7,-225.3,-0.9,-280.8,-1507.5,-589.5,0,2538,268435456,243,0, 
1.4133,2715.0,-2186.4,-253.2,-37.2,-1230.3,-397.2,-982.5,-2.1,9558.9,-307.5,756.3,225.9,-1668.9,-7749.0,9763.8,-885.9,-6.6,-5.7,632.1,-220.2,-0.6,-279.9,-1509.0,-612.0,0,2544,268435456,244,0, 
1.4167,2698.5,-2178.3,-278.1,-64.5,-1256.7,-379.5,-985.2,-19.5,13041.6,-337.2,762.3,187.2,-1686.6,-7830.9,9748.2,-831.6,-6.9,-6.3,604.5,-254.7,-0.9,-323.4,-1512.9,-578.1,0,2550,268435456,245,0, 
1.4200,2676.9,-2175.9,-313.8,-82.5,-1278.6,-364.2,-997.2,-33.6,21192.6,-368.1,806.4,170.1,-1704.6,-7531.2,9830.1,-784.5,-6.9,-5.7,590.4,-271.8,-0.6,-345.9,-1519.2,-516.6,0,2556,268435456,246,0, 
1.4233,2682.0,-2176.8,-293.4,-58.8,-1256.4,-369.3,-991.2,-26.1,22748.7,-333.9,827.1,189.6,-1685.1,-7292.4,9816.3,-793.8,-6.9,-6.0,613.2,-255.0,-0.6,-316.2,-1517.4,-535.2,0,2562,268435456,247,0, 
1.4267,2709.3,-2170.5,-263.7,-36.6,-1235.1,-402.9,-981.6,-4.5,15561.0,-303.3,778.2,222.0,-1664.7,-7431.9,9830.1,-864.0,-7.5,-5.7,637.5,-222.0,-0.6,-282.0,-1505.1,-611.7,0,2568,268435456,248,0, 
1.4300,2720.7,-2171.1,-257.1,-36.0,-1235.7,-408.3,-977.4,-2.7,9558.9,-310.5,746.7,230.1,-1666.2,-7767.3,9721.5,-882.6,-6.9,-5.7,633.3,-211.8,-0.9,-280.8,-1491.6,-623.1,0,2574,268435456,249,0, 
1.4333,2697.9,-2176.5,-297.0,-66.3,-1262.4,-386.7,-992.4,-26.4,13041.6,-340.2,759.9,194.4,-1690.2,-7864.2,9719.7,-848.7,-6.9,-5.7,604.5,-249.9,-0.6,-310.5,-1517.1,-576.3,0,2580,268435456,250,0, 
1.4367,2673.0,-2180.4,-320.1,-87.0,-1277.4,-376.2,-1004.1,-42.3,21118.5,-363.0,803.1,162.9,-1717.5,-7563.0,9830.1,-785.7,-6.9,-6.0,581.1,-275.7,-0.3,-336.0,-1518.3,-536.1,0,2586,268435456,251,0, 
1.4400,2676.9,-2187.6,-315.0,-83.1,-1273.8,-392.1,-1006.8,-37.8,22896.9,-356.1,799.8,168.9,-1700.7,-7285.5,9812.7,-807.9,-6.9,-6.6,588.0,-262.2,-0.9,-337.8,-1520.4,-546.3,0,2592,268435456,252,0, 
1.4433,2709.0,-2181.3,-279.3,-48.9,-1237.8,-404.4,-995.1,-15.3,15635.1,-313.2,785.7,216.0,-1685.4,-7424.1,9830.1,-883.5,-6.9,-6.0,623.1,-228.3,-0.6,-287.4,-1511.4,-601.2,0,2598,268435456,253,0, 
1.4467,2717.7,-2171.1,-264.6,-44.4,-1232.7,-411.9,-983.4,-10.2,9558.9,-310.2,768.6,222.6,-1672.5,-7782.9,9704.4,-906.3,-6.9,-6.0,625.2,-223.5,-0.6,-283.5,-1503.0,-619.2,0,2604,268435456,254,0, 
1.4500,2698.5,-2157.9,-279.3,-61.2,-1250.7,-376.2,-987.6,-21.6,12893.4,-325.8,798.6,199.5,-1688.1,-7867.5,9690.3,-840.9,-7.2,-6.0,607.2,-248.7,-0.9,-299.7,-1506.3,-558.9,0,2610,268435456,255,0, 
1.4533,2685.9,-2154.3,-296.1,-69.0,-1262.4,-351.6,-995.7,-27.9,21044.4,-338.1,822.9,184.8,-1694.1,-7551.3,9830.1,-791.1,-6.3,-5.7,596.4,-249.6,-0.3,-321.0,-1510.2,-507.9,0,2616,268435456,0,0, 
1.4567,2685.0,-2171.7,-294.9,-70.2,-1261.8,-375.9,-1002.0,-29.1,22600.5,-340.5,820.5,190.2,-1693.8,-7307.4,9805.8,-813.6,-6.9,-5.4,592.8,-243.9,-0.6,-325.8,-1513.2,-536.1,0,2622,268435456,1,0, 
1.4600,2711.7,-2169.6,-273.0,-45.0,-1235.4,-397.2,-996.9,-11.4,15486.9,-312.9,775.5,217.5,-1666.8,-7421.1,9830.1,-872.1,-6.6,-5.7,631.5,-209.1,-0.6,-286.8,-1500.6,-587.7,0,2628,268435456,2,0, 
1.4633,2726.1,-2155.8,-261.9,-37.8,-1224.3,-397.5,-984.0,-7.5,9410.7,-299.4,738.9,232.2,-1648.8,-7763.7,9683.7,-897.0,-6.6,-6.0,638.4,-203.1,0.0,-278.4,-1498.2,-601.2,0,2634,268435456,3,0, 
1.4667,2702.7,-2155.8,-280.5,-55.2,-1247.4,-374.4,-987.0,-15.6,12819.3,-323.4,761.4,205.2,-1685.4,-7849.5,9685.8,-855.6,-7.2,-6.3,614.7,-230.7,-0.6,-305.7,-1513.5,-570.0,0,2640,268435456,4,0, 
1.4700,2680.5,-2160.9,-313.2,-77.1,-1271.4,-357.9,-997.8,-34.2,21044.4,-354.9,803.4,173.4,-1714.5,-7563.3,9830.1,-789.3,-6.6,-5.1,592.5,-257.7,-0.6,-331.8,-1507.2,-528.9,0,2646,268435456,5,0, 
1.4733,2681.1,-2175.0,-304.5,-69.3,-1264.2,-371.4,-1003.8,-31.8,22452.3,-336.6,815.7,188.7,-1710.6,-7299.9,9800.1,-810.0,-6.6,-6.0,602.1,-243.6,-0.6,-319.2,-1511.1,-528.0,0,2652,268435456,6,0, 
1.4767,2713.2,-2171.1,-270.9,-34.5,-1229.7,-391.5,-981.6,-10.8,15561.0,-303.0,779.1,225.3,-1674.6,-7455.9,9830.1,-869.4,-6.9,-5.7,635.4,-208.2,-0.6,-273.6,-1481.4,-572.1,0,2658,268435456,7,0, 
1.4800,2720.7,-2170.5,-256.8,-28.8,-1223.7,-402.9,-972.3,-2.1,9484.8,-290.1,738.0,221.1,-1668.3,-7797.6,9634.2,-895.8,-6.6,-6.0,640.5,-209.1,-0.9,-267.6,-1483.8,-588.9,0,2664,268435456,8,0, 
1.4833,2694.9,-2165.1,-288.6,-58.5,-1259.7,-384.9,-989.7,-23.7,12745.2,-331.5,744.3,195.0,-1694.4,-7878.6,9642.6,-846.9,-6.6,-5.7,605.7,-249.9,-0.9,-308.4,-1499.7,-568.2,0,2670,268435456,9,0, 
1.4867,2672.1,-2170.5,-309.9,-74.7,-1277.7,-357.6,-994.8,-32.4,20896.2,-348.3,809.1,174.3,-1703.1,-7578.3,9830.1,-796.8,-6.9,-6.0,593.7,-267.3,-0.3,-326.4,-1501.5,-512.7,0,2676,268435456,10,0, 
1.4900,2677.8,-2172.0,-291.6,-67.2,-1269.9,-362.4,-998.4,-28.8,22452.3,-333.9,839.4,188.7,-1703.4,-7302.9,9790.5,-808.2,-7.2,-6.0,605.4,-252.6,-0.9,-311.7,-1506.3,-537.0,0,2682,268435456,11,0, 
1.4933,2709.3,-2175.9,-267.0,-48.6,-1244.4,-395.4,-991.8,-9.6,15338.7,-310.8,798.0,220.5,-1663.5,-7429.5,9830.1,-866.1,-7.2,-6.0,633.0,-231.3,-0.6,-291.6,-1508.1,-606.3,0,2688,268435456,12,0, 
1.4967,2716.5,-2174.7,-262.2,-45.3,-1245.3,-396.6,-989.7,-7.5,9262.5,-309.0,762.3,224.1,-1655.4,-7775.4,9570.6,-895.2,-7.2,-6.0,625.5,-204.9,-1.2,-288.0,-1506.9,-648.9,0,2694,268435456,13,0, 
1.5000,2697.3,-2171.1,-289.5,-56.7,-1251.0,-372.0,-995.1,-13.2,12819.3,-318.3,787.2,207.3,-1686.3,-7871.1,9591.9,-853.8,-6.9,-5.4,605.1,-219.0,-0.6,-304.2,-1517.7,-574.5,0,2700,268435456,14,0, 
1.5033,2677.5,-2156.4,-297.6,-72.9,-1268.7,-349.5,-998.4,-27.3,20822.1,-340.5,826.2,182.7,-1701.3,-7589.4,9830.1,-796.8,-6.9,-6.0,593.7,-249.6,-0.9,-321.6,-1521.9,-516.9,0,2706,268435456,15,0, 
1.5067,2676.3,-2177.1,-304.8,-70.2,-1264.5,-376.5,-1005.3,-31.8,22304.1,-336.3,840.9,183.9,-1701.6,-7345.5,9783.0,-799.2,-6.9,-6.0,604.2,-254.4,-0.3,-321.3,-1521.3,-551.7,0,2712,268435456,16,0, 
1.5100,2707.8,-2175.6,-272.7,-48.6,-1239.3,-401.7,-993.6,-14.7,15190.5,-314.1,801.3,214.5,-1671.6,-7454.1,9830.1,-875.4,-6.9,-6.0,634.5,-227.4,-0.6,-283.2,-1510.2,-610.8,0,2718,268435456,17,0, 
1.5133,2727.3,-2165.7,-258.9,-39.6,-1229.7,-402.0,-972.9,-1.8,9336.6,-300.9,789.9,223.2,-1655.4,-7788.0,9539.7,-885.9,-6.6,-5.7,645.0,-221.1,-0.6,-279.0,-1498.8,-626.1,0,2724,268435456,18,0, 
1.5167,2703.6,-2160.9,-285.3,-60.0,-1260.0,-374.4,-985.8,-21.9,12671.1,-331.5,799.8,198.0,-1683.9,-7858.2,9576.0,-840.9,-7.2,-6.0,621.9,-246.9,-0.6,-309.9,-1519.2,-575.4,0,2730,268435456,19,0, 
1.5200,2679.6,-2158.2,-296.7,-66.9,-1270.5,-350.1,-997.8,-26.7,20748.0,-343.2,842.7,184.2,-1711.2,-7577.7,9830.1,-786.9,-6.6,-5.4,605.1,-268.5,-0.9,-317.1,-1509.9,-514.8,0,2736,268435456,20,0, 
1.5233,2687.7,-2167.8,-284.1,-66.0,-1265.1,-365.1,-999.3,-26.7,22378.2,-336.9,844.5,189.0,-1702.8,-7281.6,9780.0,-804.6,-6.6,-6.0,609.9,-260.7,-0.3,-314.4,-1503.3,-544.5,0,2742,268435456,21,0, 
1.5267,2706.9,-2177.1,-261.0,-45.6,-1240.2,-395.1,-989.4,-10.8,15264.6,-315.3,803.4,205.5,-1686.3,-7434.9,9830.1,-870.0,-7.2,-6.0,638.7,-233.1,-1.2,-296.7,-1500.3,-600.6,0,2748,268435456,22,0, 
1.5300,2712.3,-2167.5,-253.5,-32.7,-1221.6,-389.1,-978.6,-1.2,9114.3,-296.4,777.9,214.8,-1664.7,-7804.8,9523.8,-896.7,-7.2,-6.0,645.9,-225.0,-0.6,-282.6,-1488.0,-607.2,0,2754,268435456,23,0, 
1.5333,2694.6,-2155.8,-276.0,-59.1,-1250.1,-376.5,-993.9,-15.6,12671.1,-327.6,797.7,193.2,-1690.2,-7857.9,9569.7,-853.2,-6.9,-6.0,611.7,-230.1,-0.9,-306.3,-1522.8,-561.3,0,2760,268435456,24,0, 
1.5367,2671.8,-2165.4,-301.2,-74.4,-1270.5,-343.8,-997.5,-29.7,20748.0,-351.0,836.7,174.9,-1717.8,-7602.9,9830.1,-793.2,-6.6,-5.7,595.5,-257.4,-0.9,-324.9,-1509.3,-526.2,0,2766,268435456,25,0, 
1.5400,2674.2,-2168.7,-302.4,-75.0,-1266.6,-369.0,-1004.1,-28.5,22378.2,-343.5,826.2,189.9,-1710.9,-7328.7,9780.6,-811.2,-7.2,-5.7,608.4,-247.2,-0.6,-320.7,-1515.0,-541.5,0,2772,268435456,26,0, 
1.5433,2701.5,-2172.3,-270.0,-52.5,-1241.7,-395.1,-996.3,-15.3,15264.6,-318.6,785.7,215.4,-1680.3,-7455.0,9830.1,-876.9,-6.6,-5.7,630.3,-224.1,-0.9,-297.9,-1502.1,-607.5,0,2778,268435456,27,0, 
1.5467,2718.6,-2160.9,-262.2,-42.9,-1236.6,-400.2,-987.0,-1.5,9114.3,-309.6,758.7,227.7,-1673.7,-7803.3,9522.9,-895.2,-6.6,-5.7,637.8,-216.6,-0.9,-285.6,-1515.0,-631.2,0,2784,268435456,28,0, 
1.5500,2697.6,-2154.3,-274.2,-57.6,-1254.6,-365.4,-989.1,-13.2,12671.1,-322.8,804.9,206.7,-1684.2,-7881.9,9548.4,-850.5,-6.9,-5.7,624.0,-235.2,-1.2,-298.8,-1514.7,-565.2,0,2790,268435456,29,0, 
1.5533,2672.4,-2160.3,-298.5,-74.4,-1276.8,-349.8,-998.1,-27.6,20748.0,-340.8,847.2,186.6,-1713.9,-7587.0,9830.1,-798.6,-6.9,-6.0,608.7,-254.1,-0.3,-322.5,-1518.3,-513.0,0,2796,268435456,30,0, 
1.5567,2683.8,-2163.0,-288.3,-67.2,-1265.7,-358.8,-1001.7,-25.2,22230.0,-334.5,854.4,196.2,-1692.6,-7310.1,9775.5,-795.0,-6.9,-5.7,622.2,-250.8,-0.9,-310.8,-1511.1,-537.0,0,2802,268435456,31,0, 
1.5600,2713.8,-2164.2,-266.4,-43.8,-1238.1,-392.7,-993.3,-9.3,15116.4,-306.9,821.4,225.3,-1660.8,-7430.4,9830.1,-859.8,-6.6,-6.0,647.1,-220.2,-0.3,-288.0,-1500.6,-590.7,0,2808,268435456,32,0, 
1.5633,2717.4,-2164.5,-244.8,-36.6,-1226.7,-392.7,-984.0,0.3,9114.3,-300.0,790.2,229.2,-1662.6,-7797.0,9507.9,-876.9,-7.2,-6.0,649.2,-218.7,-0.9,-279.9,-1506.6,-606.9,0,2814,268435456,33,0, 
1.5667,2698.5,-2148.9,-264.9,-48.9,-1242.3,-367.8,-994.8,-15.3,12522.9,-313.5,807.6,206.4,-1672.5,-7876.2,9562.2,-834.9,-6.9,-6.0,629.7,-238.2,-0.6,-297.0,-1519.5,-563.4,0,2820,268435456,34,0, 
1.5700,2662.2,-2160.6,-299.7,-71.1,-1267.8,-350.1,-998.7,-32.1,20896.2,-342.3,811.2,177.0,-1697.7,-7579.5,9830.1,-780.3,-6.9,-6.3,605.1,-263.4,-0.6,-322.2,-1510.2,-514.2,0,2826,268435456,35,0, 
1.5733,2668.2,-2160.3,-284.7,-66.6,-1259.7,-362.4,-1000.2,-30.6,22452.3,-333.0,813.3,189.6,-1688.7,-7332.0,9779.1,-800.4,-6.9,-5.4,611.1,-238.8,-0.3,-311.7,-1513.5,-543.9,0,2832,268435456,36,0, 
1.5767,2696.7,-2165.4,-266.4,-42.9,-1233.6,-391.5,-992.7,-13.2,15264.6,-311.1,817.2,208.8,-1671.3,-7448.7,9830.1,-867.6,-6.9,-6.0,642.3,-213.9,-0.3,-284.7,-1504.8,-597.0,0,2838,268435456,37,0, 
1.5800,2705.1,-2163.0,-249.0,-31.2,-1224.9,-389.4,-982.8,-3.6,9040.2,-296.7,774.3,234.6,-1658.4,-7799.1,9516.3,-893.7,-6.9,-6.0,649.5,-211.8,-0.6,-288.9,-1499.4,-616.8,0,2844,268435456,38,0, 
1.5833,2682.0,-2167.2,-277.5,-53.1,-1250.4,-369.3,-985.8,-20.7,12597.0,-324.6,778.2,207.3,-1693.8,-7895.1,9555.3,-832.8,-6.9,-5.4,621.0,-243.3,0.0,-307.8,-1510.5,-573.0,0,2850,268435456,39,0, 
1.5867,2666.4,-2164.5,-297.6,-69.0,-1266.6,-345.9,-999.6,-32.1,20748.0,-342.0,829.2,186.3,-1713.3,-7592.7,9830.1,-791.1,-6.6,-6.0,610.8,-252.3,-0.6,-329.1,-1520.1,-513.6,0,2856,268435456,40,0, 
1.5900,2669.7,-2173.2,-292.5,-65.7,-1260.3,-361.5,-1005.0,-30.6,22304.1,-325.8,830.4,197.7,-1699.8,-7332.9,9779.7,-801.0,-6.9,-6.0,620.1,-250.2,-0.6,-319.8,-1522.8,-540.3,0,2862,268435456,41,0, 
1.5933,2704.8,-2173.8,-266.4,-50.1,-1238.4,-391.5,-991.2,-14.4,15338.7,-303.0,771.6,219.0,-1674.0,-7461.0,9830.1,-849.3,-7.2,-5.7,642.9,-223.2,-0.9,-297.9,-1508.7,-607.8,0,2868,268435456,42,0, 
1.5967,2718.6,-2168.4,-264.6,-45.9,-1235.4,-402.0,-988.5,-9.3,9262.5,-306.6,754.8,221.7,-1666.8,-7783.2,9539.7,-878.4,-6.9,-6.0,637.8,-218.7,-0.9,-291.0,-1512.3,-638.4,0,2874,268435456,43,0, 
1.6000,2699.7,-2157.6,-285.3,-60.0,-1254.9,-371.7,-987.9,-16.2,12671.1,-328.2,772.8,202.5,-1684.2,-7876.8,9575.4,-825.6,-6.9,-5.7,624.9,-240.6,-0.6,-311.4,-1509.9,-584.7,0,2880,268435456,44,0, 
1.6033,2667.0,-2171.4,-297.3,-81.9,-1282.5,-356.4,-998.4,-37.5,20748.0,-361.5,795.3,168.6,-1716.6,-7578.9,9830.1,-777.3,-6.9,-5.4,591.9,-271.5,-0.6,-342.9,-1522.5,-555.9,0,2886,268435456,45,0, 
1.6067,2679.6,-2171.7,-302.7,-73.5,-1270.2,-371.7,-996.9,-35.4,22452.3,-353.1,800.1,184.2,-1708.5,-7307.7,9778.5,-794.7,-6.9,-6.0,599.4,-246.9,-0.9,-327.0,-1515.9,-554.1,0,2892,268435456,46,0, 
1.6100,2701.5,-2178.6,-268.5,-43.5,-1236.6,-401.1,-992.7,-21.3,15190.5,-308.7,777.9,215.4,-1683.6,-7451.7,9830.1,-871.2,-6.9,-5.7,637.5,-220.2,-0.3,-283.2,-1512.9,-597.9,0,2898,268435456,47,0, 
1.6133,2718.0,-2166.6,-260.7,-36.6,-1224.3,-400.8,-977.7,-12.0,9114.3,-306.0,750.6,221.1,-1665.9,-7800.3,9519.6,-886.2,-6.9,-6.0,644.4,-219.6,-0.6,-273.6,-1504.2,-605.1,0,2904,268435456,48,0, 
1.6167,2693.7,-2155.5,-281.1,-52.2,-1249.2,-374.1,-982.2,-25.8,12671.1,-328.5,765.0,204.9,-1674.9,-7872.3,9573.0,-834.0,-6.6,-5.7,620.7,-221.1,-0.6,-296.4,-1506.3,-567.6,0,2910,268435456,49,0, 
1.6200,2670.0,-2152.8,-301.5,-68.7,-1266.0,-354.6,-993.9,-36.6,20822.1,-354.0,810.9,183.0,-1707.9,-7584.0,9830.1,-784.8,-6.6,-5.7,609.0,-252.0,-0.3,-325.5,-1524.0,-516.6,0,2916,268435456,50,0, 
1.6233,2677.5,-2161.5,-286.8,-58.5,-1255.5,-372.3,-992.1,-33.0,22378.2,-342.3,822.3,183.0,-1699.8,-7314.3,9779.1,-802.5,-6.9,-6.3,622.8,-242.1,-0.9,-306.6,-1521.6,-537.3,0,2922,268435456,51,0, 
1.6267,2703.0,-2161.5,-263.7,-29.4,-1221.9,-388.8,-974.7,-4.5,15190.5,-307.2,783.6,228.9,-1684.8,-7468.5,9830.1,-860.4,-6.6,-6.0,654.6,-215.4,-0.6,-274.8,-1495.5,-584.7,0,2928,268435456,52,0, 
1.6300,2715.0,-2148.3,-239.7,-14.4,-1210.5,-383.7,-960.6,13.8,9262.5,-282.3,762.3,254.1,-1673.4,-7818.9,9514.5,-876.9,-6.9,-5.7,664.2,-193.8,-0.6,-266.1,-1493.1,-585.0,0,2934,268435456,53,0, 
1.6333,2692.8,-2148.0,-263.1,-43.8,-1244.1,-369.0,-973.5,-6.0,12671.1,-320.4,779.1,219.3,-1680.6,-7876.5,9555.6,-824.1,-6.9,-5.7,631.2,-218.7,-0.6,-300.9,-1506.6,-548.1,0,2940,268435456,54,0, 
1.6367,2664.3,-2148.3,-279.6,-60.3,-1263.6,-345.3,-987.9,-22.2,20822.1,-347.4,801.3,193.8,-1708.2,-7603.2,9830.1,-766.8,-6.9,-5.7,615.0,-239.4,-0.6,-321.0,-1515.3,-513.9,0,2946,268435456,55,0, 
1.6400,2675.7,-2147.7,-295.8,-51.9,-1257.6,-367.5,-987.9,-20.4,22378.2,-337.2,790.8,202.2,-1693.5,-7308.0,9772.8,-793.8,-6.9,-6.0,625.2,-233.4,-0.6,-311.4,-1515.6,-536.1,0,2952,268435456,56,0, 
1.6433,2709.0,-2146.2,-240.0,-20.1,-1215.6,-384.3,-969.9,9.0,15190.5,-287.1,770.7,242.1,-1673.7,-7457.4,9830.1,-852.0,-7.2,-5.4,659.1,-205.5,-0.9,-267.9,-1489.8,-597.6,0,2958,268435456,57,0, 
1.6467,2714.4,-2149.5,-250.5,-22.2,-1214.4,-391.8,-967.2,2.7,9114.3,-297.0,782.7,243.6,-1671.9,-7815.3,9478.2,-878.1,-6.6,-5.7,654.9,-195.6,-0.6,-277.2,-1506.9,-598.5,0,2964,268435456,58,0, 
1.6500,2699.1,-2136.6,-269.4,-40.2,-1239.3,-359.7,-971.1,-6.0,12522.9,-317.7,790.8,211.5,-1679.4,-7880.1,9545.7,-838.2,-6.9,-5.7,632.1,-226.8,-0.9,-292.5,-1495.5,-547.8,0,2970,268435456,59,0, 
1.6533,2670.3,-2142.9,-294.9,-66.0,-1267.2,-351.6,-986.4,-29.4,20748.0,-339.9,816.0,183.9,-1701.6,-7588.8,9830.1,-786.6,-7.2,-5.7,606.9,-255.0,-0.9,-324.3,-1518.6,-506.1,0,2976,268435456,60,0, 
1.6567,2670.3,-2154.6,-284.1,-57.3,-1260.3,-364.2,-987.9,-26.4,22007.7,-331.5,828.3,203.7,-1698.9,-7337.4,9770.7,-795.9,-6.6,-6.0,622.5,-235.8,-0.9,-312.3,-1520.7,-531.6,0,2982,268435456,61,0, 
1.6600,2697.6,-2159.7,-270.0,-43.2,-1240.8,-390.3,-977.4,-10.5,15116.4,-315.3,771.0,220.5,-1664.1,-7454.7,9830.1,-855.6,-6.9,-5.7,642.0,-223.5,-0.6,-290.4,-1515.3,-608.1,0,2988,268435456,62,0, 
1.6633,2703.6,-2157.3,-261.3,-38.7,-1233.3,-394.2,-973.2,-5.4,8966.1,-307.8,734.4,216.9,-1674.3,-7821.3,9453.3,-866.4,-6.9,-6.0,644.7,-208.5,-0.6,-288.9,-1514.7,-628.8,0,2994,268435456,63,0, 
1.6667,2676.9,-2153.7,-279.9,-60.0,-1250.7,-357.9,-978.0,-17.7,12745.2,-334.5,742.5,190.2,-1685.1,-7905.3,9525.9,-826.5,-7.2,-6.0,618.0,-230.1,-0.9,-314.1,-1518.3,-566.1,0,3000,268435456,64,0, 
1.6700,2655.9,-2154.3,-296.7,-73.8,-1267.8,-341.4,-984.9,-32.7,20673.9,-344.7,799.2,176.4,-1710.9,-7591.2,9830.1,-779.7,-6.6,-6.0,603.6,-255.0,-0.6,-332.7,-1522.5,-509.4,0,3006,268435456,65,0, 
1.6733,2661.3,-2163.9,-291.0,-71.1,-1259.7,-352.2,-984.6,-27.0,22230.0,-342.3,780.0,178.8,-1705.2,-7337.4,9767.4,-785.7,-6.6,-6.6,608.7,-253.2,-0.9,-318.9,-1516.2,-533.1,0,3012,268435456,66,0, 
1.6767,2691.3,-2159.1,-261.3,-50.7,-1236.9,-382.8,-976.2,-14.7,14968.2,-319.8,756.3,213.0,-1671.9,-7477.2,9830.1,-830.1,-6.9,-6.0,630.3,-232.5,-1.2,-309.6,-1496.1,-601.2,0,3018,268435456,67,0, 
1.6800,2702.4,-2147.7,-245.1,-41.4,-1226.4,-389.4,-975.9,-5.7,9188.4,-304.5,714.0,222.9,-1647.9,-7811.1,9437.1,-865.8,-7.2,-6.3,645.3,-232.2,-0.9,-293.4,-1515.9,-634.2,0,3024,268435456,68,0, 
1.6833,2674.5,-2145.9,-272.1,-55.8,-1245.6,-367.5,-983.4,-21.3,12597.0,-326.7,724.2,196.2,-1687.2,-7891.2,9518.4,-825.6,-6.9,-5.7,624.9,-248.7,-0.6,-321.9,-1527.0,-571.2,0,3030,268435456,69,0, 
1.6867,2653.5,-2149.2,-290.4,-74.4,-1266.9,-348.0,-995.1,-33.3,20748.0,-359.7,785.7,175.2,-1718.1,-7585.8,9830.1,-770.7,-6.9,-5.7,605.1,-268.5,-0.9,-338.7,-1534.5,-530.1,0,3036,268435456,70,0, 
1.6900,2657.1,-2157.3,-289.2,-66.0,-1259.1,-360.3,-996.9,-31.8,22155.9,-342.0,813.0,188.7,-1700.7,-7322.7,9763.5,-788.1,-7.2,-5.4,618.9,-259.8,-1.2,-330.0,-1524.0,-546.6,0,3042,268435456,71,0, 
1.6933,2680.5,-2163.3,-255.9,-41.7,-1229.7,-384.6,-985.5,-9.0,14894.1,-307.5,766.2,219.0,-1675.8,-7485.9,9830.1,-853.5,-6.9,-6.0,650.1,-225.0,-0.9,-293.4,-1519.2,-600.0,0,3048,268435456,72,0, 
1.6967,2704.8,-2146.8,-244.2,-26.7,-1212.3,-375.6,-966.9,2.7,8892.0,-290.4,754.2,239.4,-1656.6,-7814.4,9408.9,-867.3,-6.6,-5.4,667.5,-207.3,-0.9,-273.3,-1496.7,-600.6,0,3054,268435456,73,0, 
1.7000,2681.7,-2149.8,-269.1,-50.1,-1239.6,-363.6,-976.2,-12.6,12671.1,-315.0,782.1,207.9,-1690.2,-7896.9,9501.0,-824.1,-6.6,-5.7,635.1,-241.8,-0.9,-307.8,-1518.0,-558.0,0,3060,268435456,74,0, 
1.7033,2661.9,-2149.8,-293.1,-68.1,-1267.5,-349.5,-985.5,-27.3,20599.8,-348.0,824.4,183.0,-1698.0,-7585.8,9830.1,-774.0,-6.6,-6.0,611.4,-258.0,-0.9,-337.5,-1518.6,-513.0,0,3066,268435456,75,0, 
1.7067,2669.1,-2154.9,-277.2,-58.5,-1252.8,-365.4,-991.2,-22.2,22155.9,-344.1,838.2,189.9,-1692.6,-7331.1,9754.8,-788.4,-6.6,-6.0,627.0,-242.1,-0.9,-317.4,-1514.1,-540.9,0,3072,268435456,76,0, 
1.7100,2691.0,-2168.1,-259.2,-37.2,-1227.0,-386.7,-980.1,-8.4,14894.1,-311.7,794.4,211.2,-1674.0,-7464.0,9830.1,-842.1,-6.9,-5.4,652.5,-213.9,-0.3,-279.0,-1517.7,-609.3,0,3078,268435456,77,0, 
1.7133,2703.6,-2154.3,-236.1,-25.2,-1212.0,-389.1,-972.0,-0.3,8892.0,-301.2,752.4,218.4,-1665.3,-7810.5,9332.1,-874.2,-6.9,-5.7,661.8,-205.8,-0.9,-291.6,-1506.6,-618.9,0,3084,268435456,78,0, 
1.7167,2673.9,-2154.3,-266.7,-51.9,-1235.4,-379.2,-979.8,-21.3,12374.7,-327.0,774.3,207.9,-1685.1,-7902.6,9466.2,-822.6,-7.2,-5.4,633.3,-253.2,-0.9,-321.3,-1509.9,-570.9,0,3090,268435456,79,0, 
1.7200,2659.2,-2139.0,-283.2,-62.1,-1246.2,-346.8,-980.7,-27.9,20451.6,-347.1,838.2,195.3,-1683.6,-7589.7,9830.1,-790.2,-6.9,-6.0,621.6,-265.8,-0.6,-323.1,-1528.8,-526.8,0,3096,268435456,80,0, 
1.7233,2665.5,-2157.9,-285.9,-59.1,-1242.3,-365.4,-984.9,-25.2,22081.8,-332.7,798.9,199.8,-1698.9,-7320.0,9751.5,-796.8,-6.6,-5.7,623.4,-251.1,-0.9,-322.5,-1515.9,-540.9,0,3102,268435456,81,0, 
1.7267,2698.5,-2154.0,-255.3,-28.5,-1210.8,-381.0,-966.3,-6.3,14820.0,-298.8,807.6,236.7,-1677.0,-7469.4,9830.1,-848.4,-7.2,-5.7,658.8,-213.6,-0.3,-279.6,-1500.9,-625.8,0,3108,268435456,82,0, 
1.7300,2705.7,-2145.3,-238.2,-23.7,-1200.9,-388.2,-963.9,-0.3,8817.9,-291.9,768.6,243.6,-1658.1,-7827.3,9302.1,-874.2,-6.9,-6.0,664.2,-200.1,-0.9,-269.7,-1489.8,-616.5,0,3114,268435456,83,0, 
1.7333,2687.4,-2140.8,-273.0,-52.2,-1230.3,-361.5,-968.7,-15.6,12300.6,-325.5,771.0,209.7,-1678.8,-7881.9,9429.6,-828.3,-6.6,-5.7,627.9,-231.6,-0.3,-304.8,-1507.8,-553.2,0,3120,268435456,84,0, 
1.7367,2663.7,-2153.1,-303.3,-77.1,-1260.3,-351.3,-984.6,-33.3,20525.7,-350.4,821.4,179.7,-1707.6,-7590.9,9830.1,-775.8,-6.6,-5.7,605.4,-262.2,-0.3,-335.4,-1518.0,-522.3,0,3126,268435456,85,0, 
1.7400,2674.8,-2150.1,-288.6,-67.8,-1253.1,-362.4,-984.6,-28.5,22007.7,-338.7,819.6,191.1,-1689.6,-7324.8,9743.1,-786.0,-6.9,-6.0,619.8,-247.5,-0.9,-323.1,-1529.7,-548.1,0,3132,268435456,86,0, 
1.7433,2700.9,-2151.3,-258.6,-42.3,-1223.7,-384.0,-969.3,-9.3,14745.9,-303.9,780.3,222.3,-1671.0,-7444.2,9830.1,-848.4,-6.9,-6.0,646.8,-219.9,-0.9,-288.0,-1510.8,-587.1,0,3138,268435456,87,0, 
1.7467,2712.6,-2150.1,-247.5,-38.4,-1215.9,-383.1,-965.1,1.2,8817.9,-294.3,771.3,227.1,-1660.2,-7795.8,9247.8,-869.4,-6.6,-6.6,655.2,-214.5,-0.9,-282.0,-1509.0,-618.9,0,3144,268435456,88,0, 
1.7500,2686.8,-2140.2,-277.2,-61.8,-1239.6,-363.6,-975.0,-15.3,12300.6,-323.7,791.7,198.3,-1682.1,-7876.5,9393.9,-828.0,-7.2,-5.4,619.8,-240.3,-0.9,-311.4,-1519.5,-565.8,0,3150,268435456,89,0, 
1.7533,2662.8,-2142.6,-291.6,-82.5,-1260.0,-342.3,-984.9,-26.7,20451.6,-341.1,832.2,174.6,-1698.9,-7565.4,9830.1,-773.1,-6.9,-6.0,601.2,-266.4,-0.6,-330.9,-1529.4,-522.9,0,3156,268435456,90,0, 
1.7567,2673.3,-2157.0,-283.2,-74.7,-1257.3,-360.6,-988.2,-30.0,21785.4,-334.5,828.3,180.0,-1681.5,-7298.1,9736.2,-785.7,-6.6,-6.0,618.9,-263.7,-0.6,-318.0,-1513.5,-546.3,0,3162,268435456,91,0, 
1.7600,2700.3,-2157.0,-253.5,-42.3,-1223.4,-386.1,-971.4,-5.4,14449.5,-289.5,819.9,225.6,-1661.1,-7458.6,9830.1,-854.1,-7.2,-5.7,660.9,-230.7,-0.6,-277.5,-1496.1,-594.0,0,3168,268435456,92,0, 
1.7633,2704.2,-2150.1,-258.9,-38.1,-1226.1,-386.1,-963.3,-4.5,8817.9,-288.9,801.0,222.3,-1659.9,-7806.9,9189.0,-866.1,-6.9,-5.4,655.5,-229.2,-0.6,-276.9,-1498.5,-612.3,0,3174,268435456,93,0, 
1.7667,2688.3,-2134.8,-267.6,-56.4,-1245.9,-360.6,-970.2,-17.4,12152.4,-310.5,802.5,205.2,-1678.2,-7885.5,9366.9,-816.0,-7.2,-5.7,626.1,-242.1,-0.3,-297.9,-1513.8,-564.0,0,3180,268435456,94,0, 
1.7700,2663.4,-2137.8,-291.9,-73.5,-1263.9,-344.1,-981.6,-30.3,20451.6,-336.9,854.7,193.2,-1701.9,-7562.1,9830.1,-759.9,-6.6,-5.4,610.2,-252.3,-0.6,-312.6,-1506.9,-507.3,0,3186,268435456,95,0, 
1.7733,2677.5,-2137.5,-280.5,-66.9,-1247.7,-348.3,-979.2,-20.4,21859.5,-321.0,901.8,206.4,-1680.0,-7303.5,9739.8,-769.5,-6.9,-5.7,629.4,-240.3,-0.9,-311.7,-1504.2,-525.0,0,3192,268435456,96,0, 
1.7767,2706.6,-2138.4,-259.5,-44.4,-1224.6,-377.7,-972.6,-3.9,14597.7,-295.5,828.0,227.4,-1651.2,-7431.0,9830.1,-832.2,-6.6,-6.0,659.4,-221.4,-0.3,-286.2,-1490.4,-606.6,0,3198,268435456,97,0, 
1.7800,2720.1,-2125.5,-240.0,-33.6,-1209.6,-374.4,-956.7,12.6,8743.8,-284.4,818.1,235.5,-1643.4,-7768.5,9233.4,-847.5,-6.9,-6.0,666.0,-207.3,-0.9,-277.8,-1491.0,-604.8,0,3204,268435456,98,0, 
1.7833,2696.1,-2132.7,-269.7,-60.9,-1241.4,-355.2,-975.0,-10.2,12374.7,-317.1,813.9,196.5,-1680.0,-7838.7,9388.8,-808.2,-6.9,-6.0,625.5,-228.0,-1.2,-314.4,-1509.0,-552.3,0,3210,268435456,99,0, 
1.7867,2666.1,-2139.0,-298.2,-83.7,-1260.9,-331.2,-981.0,-28.8,20451.6,-353.4,859.8,168.6,-1697.1,-7554.3,9830.1,-744.0,-6.6,-6.0,598.5,-261.6,-0.6,-337.2,-1508.4,-518.4,0,3216,268435456,100,0, 
1.7900,2676.0,-2141.7,-279.6,-66.3,-1249.8,-342.3,-982.5,-16.8,22007.7,-330.3,877.8,188.7,-1679.1,-7264.2,9741.3,-776.7,-6.6,-6.0,613.2,-252.3,-0.3,-315.6,-1509.6,-541.2,0,3222,268435456,101,0, 
1.7933,2701.2,-2141.7,-240.9,-39.0,-1217.7,-368.1,-974.4,1.5,14671.8,-296.7,841.5,219.0,-1668.3,-7431.0,9830.1,-833.1,-7.2,-5.4,648.0,-204.9,-0.9,-288.6,-1493.7,-592.5,0,3228,268435456,102,0, 
1.7967,2715.3,-2136.9,-244.8,-35.4,-1216.5,-369.3,-972.3,6.6,8595.6,-303.6,822.0,221.1,-1653.6,-7762.5,9259.5,-852.0,-7.2,-6.0,656.7,-216.3,-0.9,-280.2,-1495.5,-618.9,0,3234,268435456,103,0, 
1.8000,2682.0,-2127.9,-258.6,-51.6,-1233.0,-351.3,-978.0,-7.2,12374.7,-312.3,856.5,203.1,-1674.0,-7870.2,9404.4,-801.3,-7.2,-6.0,639.0,-237.9,-0.9,-306.0,-1515.9,-558.0,0,3240,268435456,104,0, 
1.8033,2662.2,-2132.7,-296.4,-76.2,-1258.5,-332.4,-991.5,-27.9,20451.6,-345.3,900.9,171.6,-1687.8,-7557.3,9830.1,-743.4,-7.2,-6.0,613.5,-264.0,-0.6,-333.6,-1513.5,-505.5,0,3246,268435456,105,0, 
1.8067,2667.9,-2138.4,-285.6,-66.6,-1247.7,-345.0,-990.9,-27.6,21859.5,-330.6,890.7,181.5,-1682.4,-7295.4,9737.4,-764.4,-6.9,-6.0,628.5,-234.9,-0.6,-324.3,-1510.2,-529.2,0,3252,268435456,106,0, 
1.8100,2694.6,-2155.2,-259.8,-44.7,-1224.3,-376.5,-978.6,-8.7,14745.9,-306.6,849.3,219.0,-1676.4,-7447.8,9830.1,-811.8,-6.9,-6.0,647.1,-206.7,-0.6,-294.9,-1487.4,-586.8,0,3258,268435456,107,0, 
1.8133,2708.7,-2131.8,-231.3,-27.3,-1210.5,-368.7,-971.1,-0.9,8595.6,-285.3,842.1,239.4,-1653.0,-7779.6,9203.1,-851.1,-6.6,-6.0,664.8,-192.3,-0.6,-285.3,-1500.6,-610.2,0,3264,268435456,108,0, 
1.8167,2686.8,-2126.7,-257.1,-42.6,-1224.9,-333.3,-975.9,-6.3,12300.6,-308.4,882.9,212.4,-1674.0,-7855.8,9374.4,-798.3,-6.9,-5.7,645.9,-214.8,-0.6,-306.0,-1499.1,-552.0,0,3270,268435456,109,0, 
1.8200,2668.8,-2123.7,-277.8,-55.2,-1241.4,-317.1,-982.5,-24.3,20525.7,-330.3,909.6,192.9,-1675.5,-7536.6,9830.1,-731.1,-6.9,-5.7,630.9,-233.1,-0.9,-322.5,-1506.9,-504.9,0,3276,268435456,110,0, 
1.8233,2671.5,-2141.4,-275.1,-55.5,-1241.1,-342.6,-987.9,-17.7,21859.5,-335.7,893.7,194.4,-1668.0,-7275.6,9740.1,-750.9,-7.2,-6.0,621.3,-234.6,-0.9,-316.8,-1493.4,-532.8,0,3282,268435456,111,0, 
1.8267,2696.7,-2140.2,-234.0,-24.3,-1205.7,-353.7,-975.3,-3.6,14523.6,-288.6,883.8,227.7,-1651.2,-7419.0,9830.1,-813.9,-6.6,-5.7,663.6,-200.4,-0.9,-275.1,-1496.4,-587.4,0,3288,268435456,112,0, 
1.8300,2700.6,-2131.5,-228.9,-22.2,-1197.6,-364.8,-975.0,5.1,8669.7,-280.5,851.4,233.1,-1647.9,-7775.7,9245.1,-857.4,-6.9,-6.3,670.8,-196.2,-0.9,-269.7,-1489.2,-592.8,0,3294,268435456,113,0, 
1.8333,2689.2,-2127.3,-259.2,-41.7,-1222.8,-342.3,-980.7,-15.6,12448.8,-312.3,852.6,207.9,-1662.9,-7838.7,9397.5,-797.7,-7.2,-6.3,645.0,-215.4,-0.6,-297.3,-1507.2,-557.4,0,3300,268435456,114,0, 
1.8367,2662.8,-2121.9,-276.6,-54.3,-1233.9,-312.9,-988.2,-25.2,20451.6,-324.0,902.4,195.0,-1695.9,-7555.8,9830.1,-736.5,-6.9,-6.0,634.5,-235.8,-1.2,-310.5,-1502.7,-503.7,0,3306,268435456,115,0, 
1.8400,2666.4,-2135.1,-272.1,-50.7,-1230.9,-336.6,-995.7,-19.8,21859.5,-318.0,907.8,202.8,-1672.8,-7285.8,9736.2,-766.5,-6.9,-6.0,646.8,-233.4,-0.9,-306.9,-1511.7,-526.5,0,3312,268435456,116,0, 
1.8433,2696.7,-2133.0,-247.5,-32.1,-1206.9,-363.3,-987.3,0.9,14449.5,-296.1,866.1,232.2,-1653.3,-7423.8,9830.1,-821.1,-6.9,-6.0,665.1,-201.9,-1.2,-281.1,-1503.3,-586.5,0,3318,268435456,117,0, 
1.8467,2707.2,-2120.1,-232.8,-15.3,-1190.7,-349.2,-974.1,12.9,8669.7,-275.1,835.2,243.9,-1642.5,-7792.8,9200.1,-846.3,-6.9,-6.0,672.0,-184.8,-0.6,-253.8,-1491.3,-598.2,0,3324,268435456,118,0, 
1.8500,2686.2,-2115.0,-258.6,-39.9,-1219.2,-329.1,-980.4,-4.8,12374.7,-310.5,857.1,216.6,-1656.9,-7845.6,9376.5,-799.5,-7.2,-5.7,638.7,-206.7,-0.9,-291.3,-1499.1,-549.3,0,3330,268435456,119,0, 
1.8533,2661.9,-2126.7,-281.1,-63.6,-1242.6,-315.9,-992.7,-24.9,20451.6,-341.4,894.3,180.0,-1691.4,-7562.4,9830.1,-741.6,-6.6,-6.0,615.3,-239.4,-0.6,-332.4,-1512.3,-514.8,0,3336,268435456,120,0, 
1.8567,2671.8,-2139.3,-288.3,-64.2,-1240.8,-335.7,-1001.1,-26.4,21785.4,-340.8,888.0,194.1,-1681.2,-7292.4,9735.3,-760.2,-6.9,-5.7,621.0,-227.7,-0.9,-322.8,-1518.0,-536.1,0,3342,268435456,121,0, 
1.8600,2704.5,-2127.6,-259.5,-34.2,-1207.5,-349.8,-988.2,-1.2,14449.5,-303.6,850.2,235.2,-1644.6,-7426.5,9830.1,-819.3,-6.3,-5.7,652.8,-202.2,-0.6,-283.5,-1500.3,-613.8,0,3348,268435456,122,0, 
1.8633,2712.0,-2112.6,-227.7,-17.7,-1187.7,-340.5,-970.8,12.9,8595.6,-273.0,828.0,251.4,-1642.2,-7794.9,9180.0,-833.1,-6.9,-5.4,664.5,-180.6,-0.6,-255.0,-1491.9,-597.0,0,3354,268435456,123,0, 
1.8667,2686.5,-2120.4,-262.8,-46.8,-1221.9,-325.2,-981.0,-3.3,12226.5,-307.8,878.1,219.3,-1680.3,-7871.7,9354.0,-789.0,-6.9,-5.4,625.5,-209.4,-1.2,-292.8,-1506.6,-550.5,0,3360,268435456,124,0, 
1.8700,2662.2,-2136.3,-295.8,-72.3,-1251.3,-315.3,-993.0,-25.2,20303.4,-349.2,926.4,182.4,-1693.5,-7569.0,9830.1,-735.0,-7.2,-5.7,601.8,-256.8,-0.9,-339.3,-1512.0,-515.1,0,3366,268435456,125,0, 
1.8733,2678.7,-2139.3,-287.1,-61.2,-1237.5,-336.0,-989.7,-16.8,21711.3,-333.3,919.8,197.7,-1686.0,-7303.8,9732.9,-753.0,-6.9,-6.0,618.3,-232.8,-0.6,-325.2,-1509.3,-531.0,0,3372,268435456,126,0, 
1.8767,2702.7,-2134.5,-257.4,-33.3,-1209.6,-351.6,-974.4,4.8,14375.4,-301.5,885.9,231.9,-1652.4,-7445.4,9830.1,-816.9,-6.6,-5.7,648.9,-190.5,-0.3,-278.1,-1486.2,-578.4,0,3378,268435456,127,0, 
1.8800,2710.2,-2119.8,-251.1,-30.0,-1204.5,-351.9,-973.5,6.0,8595.6,-296.7,863.1,235.5,-1647.3,-7791.9,9166.5,-830.7,-6.6,-5.7,652.2,-199.5,-0.9,-273.6,-1488.6,-600.0,0,3384,268435456,128,0, 
1.8833,2684.4,-2122.5,-270.6,-53.4,-1232.1,-334.8,-983.4,-13.8,12300.6,-329.7,852.6,202.2,-1673.1,-7858.8,9348.0,-790.2,-6.9,-5.7,624.6,-229.8,-0.3,-310.2,-1505.1,-568.2,0,3390,268435456,129,0, 
1.8867,2671.5,-2120.7,-291.6,-62.7,-1245.0,-306.3,-989.4,-24.0,20377.5,-340.5,905.7,195.6,-1689.9,-7523.4,9830.1,-737.1,-6.9,-5.7,618.6,-233.7,-0.6,-320.1,-1507.5,-514.8,0,3396,268435456,130,0, 
1.8900,2677.5,-2126.1,-282.6,-55.2,-1238.1,-326.7,-988.2,-17.1,21711.3,-329.1,907.5,201.6,-1674.0,-7290.6,9736.2,-757.5,-7.2,-5.7,625.8,-224.4,-0.6,-306.6,-1495.5,-548.4,0,3402,268435456,131,0, 
1.8933,2697.9,-2128.2,-248.4,-26.7,-1202.4,-347.4,-970.5,-0.6,14597.7,-285.9,890.1,246.3,-1644.9,-7448.7,9830.1,-805.8,-6.9,-5.4,656.4,-181.5,-0.6,-254.1,-1481.7,-585.3,0,3408,268435456,132,0, 
1.8967,2701.2,-2116.2,-240.3,-21.3,-1197.0,-345.0,-966.0,6.6,8743.8,-279.9,862.8,252.3,-1631.1,-7794.0,9208.8,-822.9,-6.9,-6.0,662.4,-188.1,-0.6,-260.1,-1485.6,-598.5,0,3414,268435456,133,0, 
1.9000,2675.1,-2112.0,-265.8,-46.5,-1227.3,-318.9,-970.2,-13.8,12522.9,-305.4,870.3,212.7,-1665.3,-7874.4,9391.8,-781.2,-6.9,-5.7,632.4,-216.9,-0.6,-286.8,-1499.1,-549.3,0,3420,268435456,134,0, 
1.9033,2661.3,-2118.9,-289.8,-68.1,-1250.1,-308.7,-984.6,-30.6,20525.7,-340.8,948.0,183.3,-1681.8,-7543.5,9830.1,-735.0,-6.9,-5.7,607.8,-244.5,-0.9,-319.5,-1502.7,-505.2,0,3426,268435456,135,0, 
1.9067,2658.6,-2128.8,-273.9,-52.5,-1237.5,-324.6,-984.3,-27.6,21933.6,-313.5,939.9,214.2,-1680.3,-7289.4,9745.5,-748.5,-6.6,-5.7,627.6,-236.4,-0.9,-294.3,-1488.3,-517.8,0,3432,268435456,136,0, 
1.9100,2693.7,-2126.7,-249.3,-27.9,-1204.2,-340.8,-968.7,-4.5,14449.5,-284.4,915.6,243.9,-1643.7,-7428.6,9830.1,-806.4,-6.9,-6.0,657.0,-210.0,-0.6,-270.3,-1476.9,-589.5,0,3438,268435456,137,0, 
1.9133,2699.4,-2123.7,-246.3,-23.1,-1200.3,-347.7,-964.2,0.3,8817.9,-283.5,922.5,245.4,-1638.6,-7774.8,9278.1,-837.3,-6.9,-6.0,658.5,-198.3,-0.6,-264.0,-1484.1,-597.0,0,3444,268435456,138,0, 
1.9167,2680.8,-2116.8,-268.8,-38.4,-1222.2,-330.0,-969.6,-8.1,12374.7,-305.7,929.7,218.7,-1655.4,-7860.0,9433.8,-789.3,-6.9,-5.7,641.1,-220.5,-0.9,-290.7,-1486.5,-541.5,0,3450,268435456,139,0, 
1.9200,2649.6,-2123.7,-294.0,-62.1,-1250.1,-315.3,-982.5,-31.8,20599.8,-333.6,962.7,191.7,-1684.5,-7561.2,9830.1,-743.4,-6.9,-6.0,615.9,-254.4,-0.9,-318.0,-1490.4,-506.1,0,3456,268435456,140,0, 
1.9233,2671.5,-2126.4,-276.6,-47.4,-1234.2,-332.1,-985.2,-26.4,21933.6,-326.7,956.7,208.8,-1669.8,-7283.1,9753.0,-761.4,-6.9,-5.7,627.0,-223.8,-0.6,-305.4,-1497.9,-516.0,0,3462,268435456,141,0, 
1.9267,2698.2,-2127.3,-252.9,-26.1,-1211.1,-361.5,-974.1,-9.3,14671.8,-300.0,911.1,228.0,-1649.1,-7425.3,9830.1,-819.9,-6.9,-5.7,652.8,-211.2,-0.6,-279.9,-1488.0,-582.0,0,3468,268435456,142,0, 
1.9300,2708.7,-2112.6,-231.9,-10.8,-1185.0,-349.8,-958.8,11.1,8743.8,-268.5,897.3,255.9,-1634.1,-7791.9,9333.6,-846.6,-7.2,-6.0,670.2,-178.2,-0.3,-252.0,-1473.0,-579.0,0,3474,268435456,143,0, 
1.9333,2688.0,-2113.8,-270.6,-48.9,-1225.2,-340.2,-976.5,-17.7,12597.0,-316.5,892.8,211.5,-1667.1,-7842.0,9468.3,-809.4,-6.9,-5.4,629.1,-228.6,-0.9,-302.4,-1496.7,-553.2,0,3480,268435456,144,0, 
1.9367,2657.4,-2130.0,-294.3,-71.7,-1253.7,-334.2,-996.3,-42.3,20748.0,-347.4,909.6,181.8,-1705.2,-7560.6,9830.1,-762.6,-7.2,-5.7,597.9,-263.4,-0.3,-327.0,-1513.5,-524.4,0,3486,268435456,145,0, 
1.9400,2661.0,-2136.0,-293.4,-69.6,-1246.2,-350.4,-991.5,-29.1,22081.8,-341.1,930.9,192.0,-1690.2,-7294.8,9759.9,-777.0,-6.9,-5.7,612.0,-253.8,-0.6,-319.2,-1504.2,-546.0,0,3492,268435456,146,0, 
1.9433,2692.2,-2133.3,-262.8,-50.7,-1219.8,-372.3,-977.7,-8.7,14745.9,-314.1,897.3,224.1,-1659.9,-7445.1,9830.1,-826.5,-7.2,-5.7,634.5,-223.8,-0.9,-282.3,-1487.1,-604.8,0,3498,268435456,147,0, 
1.9467,2698.8,-2137.5,-249.0,-47.1,-1219.8,-377.1,-968.7,-4.5,8892.0,-306.0,852.3,213.9,-1662.0,-7796.1,9381.6,-855.9,-6.9,-6.3,623.1,-235.2,-0.9,-287.7,-1503.6,-629.7,0,3504,268435456,148,0, 
1.9500,2676.3,-2126.4,-281.4,-60.6,-1236.9,-342.6,-973.5,-14.4,12671.1,-327.9,890.4,196.2,-1681.5,-7867.2,9487.2,-804.0,-6.9,-5.4,612.6,-252.0,-0.9,-308.7,-1508.7,-567.6,0,3510,268435456,149,0, 
1.9533,2647.5,-2133.6,-310.5,-85.5,-1263.0,-332.7,-987.3,-36.0,20822.1,-355.2,933.0,177.3,-1706.7,-7570.5,9830.1,-747.0,-6.9,-5.7,595.8,-267.9,-0.3,-329.4,-1509.0,-520.2,0,3516,268435456,150,0, 
1.9567,2660.4,-2136.9,-296.7,-66.9,-1252.5,-347.7,-981.0,-28.5,22081.8,-334.2,960.3,197.7,-1686.0,-7296.3,9760.2,-761.7,-7.2,-5.7,611.1,-251.1,-1.2,-309.3,-1501.5,-535.8,0,3522,268435456,151,0, 
1.9600,2698.2,-2129.4,-260.1,-40.2,-1222.5,-374.1,-966.6,-6.6,14745.9,-297.6,929.7,232.8,-1656.0,-7433.7,9830.1,-818.7,-6.6,-6.0,643.5,-222.0,-0.6,-281.4,-1482.9,-585.0,0,3528,268435456,152,0, 
1.9633,2706.0,-2125.2,-253.8,-35.1,-1213.5,-382.8,-965.1,-4.5,9114.3,-293.1,905.7,238.8,-1638.0,-7780.2,9386.1,-840.0,-6.6,-5.7,639.3,-214.8,-0.6,-269.4,-1490.4,-605.4,0,3534,268435456,153,0, 
1.9667,2677.8,-2117.4,-271.2,-49.8,-1229.7,-350.7,-969.3,-10.5,12745.2,-310.5,936.6,215.1,-1675.2,-7856.1,9504.3,-781.2,-6.9,-5.4,620.1,-250.5,-0.6,-283.5,-1484.4,-544.8,0,3540,268435456,154,0, 
1.9700,2656.8,-2122.5,-294.3,-70.2,-1253.4,-324.3,-981.9,-25.8,20896.2,-332.4,969.0,187.8,-1681.5,-7552.8,9830.1,-726.3,-6.9,-6.0,602.4,-269.1,-0.3,-325.5,-1509.9,-510.9,0,3546,268435456,155,0, 
1.9733,2667.3,-2125.8,-284.7,-58.8,-1239.0,-327.6,-978.6,-22.2,22081.8,-316.8,974.4,204.6,-1681.2,-7294.2,9762.9,-744.6,-6.9,-5.7,618.0,-247.8,-1.2,-300.9,-1490.7,-523.2,0,3552,268435456,156,0, 
1.9767,2696.4,-2130.9,-249.3,-35.4,-1220.1,-360.9,-972.0,-7.8,14820.0,-285.9,936.0,234.6,-1657.5,-7440.9,9830.1,-812.4,-6.9,-5.7,655.2,-205.8,-0.6,-272.4,-1487.4,-589.8,0,3558,268435456,157,0, 
1.9800,2719.5,-2113.2,-242.7,-27.3,-1208.1,-342.3,-964.2,6.0,8966.1,-275.7,914.7,244.8,-1635.6,-7734.6,9392.1,-849.3,-6.6,-6.0,658.8,-199.8,-0.6,-263.1,-1487.4,-601.5,0,3564,268435456,158,0, 
1.9833,2687.7,-2122.8,-271.5,-52.5,-1234.8,-315.3,-972.3,-9.9,12671.1,-306.6,938.1,212.7,-1671.6,-7854.6,9497.4,-779.7,-6.9,-5.7,626.7,-237.3,-0.9,-290.4,-1493.4,-546.9,0,3570,268435456,159,0, 
1.9867,2658.0,-2123.1,-293.7,-73.5,-1258.2,-300.6,-984.0,-29.4,20673.9,-332.7,966.6,189.3,-1684.8,-7544.4,9830.1,-740.1,-6.6,-5.7,610.5,-263.7,-0.9,-311.1,-1497.3,-515.7,0,3576,268435456,160,0, 
1.9900,2666.4,-2129.1,-286.2,-65.7,-1248.0,-316.5,-983.1,-23.1,22007.7,-318.9,959.1,203.7,-1672.2,-7281.9,9759.3,-750.3,-7.2,-5.4,620.4,-253.2,-0.6,-297.0,-1501.5,-558.9,0,3582,268435456,161,0, 
1.9933,2695.2,-2126.7,-269.7,-50.7,-1223.4,-349.8,-970.2,-9.6,14894.1,-292.5,918.0,213.9,-1645.2,-7426.5,9830.1,-823.8,-6.6,-5.7,637.2,-228.3,-0.6,-274.2,-1496.1,-601.5,0,3588,268435456,162,0, 
1.9967,2705.1,-2119.8,-266.7,-43.8,-1218.3,-343.5,-969.3,-2.4,8817.9,-288.6,893.4,233.7,-1644.3,-7779.3,9370.8,-849.9,-7.2,-5.7,644.1,-213.0,-0.9,-262.5,-1493.7,-597.6,0,3594,268435456,163,0, 
2.0000,2690.1,-2113.8,-290.4,-68.4,-1239.9,-329.1,-972.6,-16.8,12597.0,-320.7,886.2,200.1,-1670.1,-7828.5,9497.4,-793.8,-7.2,-6.3,616.5,-251.4,-0.9,-306.9,-1501.5,-553.2,0,3600,268435456,164,0, 
2.0033,2665.8,-2127.6,-308.1,-83.7,-1258.8,-310.5,-984.6,-31.5,20822.1,-332.1,924.9,186.3,-1690.5,-7554.9,9830.1,-741.9,-6.9,-5.7,593.7,-263.1,-0.9,-320.4,-1513.5,-516.3,0,3606,268435456,165,0, 
2.0067,2666.1,-2136.6,-299.4,-69.0,-1241.7,-321.0,-977.1,-30.6,21859.5,-321.0,930.0,203.7,-1686.9,-7300.2,9760.2,-768.0,-6.6,-6.3,608.1,-241.2,-0.9,-294.3,-1500.6,-526.8,0,3612,268435456,166,0, 
2.0100,2692.8,-2138.4,-266.4,-54.0,-1219.2,-349.5,-972.0,-12.6,14671.8,-294.3,893.4,224.1,-1662.0,-7447.5,9830.1,-827.4,-7.2,-5.4,627.3,-222.0,-0.9,-277.5,-1487.4,-591.3,0,3618,268435456,167,0, 
2.0133,2706.0,-2121.9,-265.2,-46.5,-1209.0,-356.1,-962.4,-9.0,9040.2,-287.7,868.2,229.2,-1654.2,-7789.5,9362.1,-848.7,-6.9,-6.0,643.5,-223.8,-0.6,-261.9,-1481.4,-606.9,0,3624,268435456,168,0, 
2.0167,2685.3,-2116.8,-290.1,-72.6,-1238.7,-328.5,-972.9,-26.1,12671.1,-323.1,920.1,201.3,-1667.1,-7851.3,9485.1,-805.8,-6.9,-6.0,612.0,-250.8,-0.9,-310.2,-1498.8,-566.7,0,3630,268435456,169,0, 
2.0200,2664.9,-2127.0,-311.4,-90.0,-1262.7,-317.1,-985.2,-42.3,20748.0,-343.5,941.4,187.2,-1686.9,-7540.2,9830.1,-748.8,-7.2,-5.7,593.7,-260.1,-0.3,-327.9,-1501.5,-521.4,0,3636,268435456,170,0, 
2.0233,2673.3,-2133.3,-297.3,-78.9,-1252.8,-333.0,-981.9,-40.5,22081.8,-331.5,945.0,197.1,-1679.1,-7287.0,9760.5,-772.5,-7.2,-5.7,606.3,-261.0,-0.9,-314.1,-1500.3,-548.4,0,3642,268435456,171,0, 
2.0267,2699.7,-2127.9,-270.6,-44.7,-1215.9,-344.4,-959.7,-16.2,14745.9,-293.1,943.2,235.5,-1644.9,-7434.3,9830.1,-834.6,-6.6,-6.0,648.3,-206.7,-0.9,-274.8,-1481.1,-595.8,0,3648,268435456,172,0, 
2.0300,2706.0,-2123.7,-248.4,-36.0,-1203.0,-341.1,-948.3,-3.3,9114.3,-280.5,917.1,237.6,-1644.6,-7798.2,9378.6,-850.2,-6.9,-6.0,660.0,-190.2,-0.6,-260.7,-1474.5,-613.2,0,3654,268435456,173,0, 
2.0333,2688.3,-2114.1,-267.3,-54.0,-1223.7,-321.9,-957.3,-16.5,12597.0,-297.0,932.1,226.5,-1656.6,-7850.1,9513.3,-802.5,-6.3,-5.7,638.1,-217.8,-0.9,-285.0,-1492.2,-569.7,0,3660,0,174,0, 
2.0367,2668.2,-2118.9,-300.0,-77.7,-1254.3,-311.4,-967.8,-36.0,20822.1,-333.9,976.8,196.8,-1677.0,-7540.8,9830.1,-740.1,-6.6,-5.7,603.0,-249.3,-1.2,-316.2,-1497.9,-510.3,0,3666,0,175,0, 
2.0400,2674.2,-2133.0,-298.5,-80.1,-1261.8,-330.6,-988.2,-40.8,22007.7,-344.4,980.4,196.5,-1677.0,-7260.3,9768.3,-753.6,-7.2,-5.1,607.5,-261.9,-0.9,-325.2,-1509.6,-542.7,0,3672,268435456,176,0, 
2.0433,2695.2,-2128.2,-262.2,-43.5,-1224.9,-354.0,-967.5,-15.9,14820.0,-289.5,951.3,238.2,-1653.6,-7444.8,9830.1,-814.5,-6.9,-5.7,651.3,-213.0,-0.6,-270.9,-1495.5,-579.0,0,3678,268435456,177,0, 
2.0467,2699.7,-2122.8,-239.7,-39.0,-1215.3,-347.4,-961.8,-10.5,8966.1,-281.1,901.5,237.9,-1653.0,-7803.3,9434.7,-840.6,-6.6,-5.4,654.3,-205.5,-0.9,-261.9,-1494.9,-610.2,0,3684,268435456,178,0, 
2.0500,2675.7,-2124.0,-276.9,-65.1,-1245.9,-330.9,-971.1,-30.9,12745.2,-322.2,891.3,202.8,-1679.7,-7849.8,9546.6,-794.7,-7.2,-5.7,610.2,-247.5,-0.6,-307.8,-1505.4,-578.7,0,3690,268435456,179,0, 
2.0533,2659.5,-2124.6,-289.2,-75.6,-1257.3,-306.6,-975.6,-40.5,20970.3,-338.7,951.6,190.8,-1692.9,-7550.1,9830.1,-735.6,-6.3,-5.7,604.5,-280.2,-0.9,-308.1,-1505.4,-522.6,0,3696,268435456,180,0, 
2.0567,2663.1,-2136.6,-299.1,-78.3,-1256.1,-325.5,-981.6,-43.5,22230.0,-337.8,953.4,198.6,-1690.5,-7302.9,9770.1,-751.2,-7.2,-6.0,602.1,-267.3,-0.9,-311.1,-1490.7,-547.8,0,3702,268435456,181,0, 
2.0600,2699.1,-2126.4,-256.8,-46.5,-1221.3,-351.6,-965.1,-19.2,14671.8,-293.4,930.0,234.0,-1656.9,-7451.1,9830.1,-811.2,-6.6,-5.7,641.1,-225.3,-0.3,-267.0,-1476.3,-600.9,0,3708,268435456,182,0, 
