Time,P3,C3,F3,Fz,F4,C4,P4,Cz,CM,A1,Fp1,Fp2,T3,T5,O1,O2,X3,X2,F7,F8,X1,A2,T6,T4,Trigger,Time_Offset,ADC_Status,ADC_Sequence,Event,Comments
0.0033,-501.3,-946.8,-595.8,252.3,-464.7,-231.0,374.7,-888.9,-5261.1,121.8,767.4,218.7,-1730.1,-4713.9,135.3,-128.7,-6.9,-5.4,-528.9,172.2,-0.6,89.7,-750.3,-1065.0,0,6,268435456,117,0, 
0.0067,-504.9,-966.3,-611.1,234.3,-481.2,-205.8,372.0,-884.1,17191.2,102.3,752.1,198.9,-1739.1,-4550.1,4672.5,-120.6,-7.5,-6.0,-548.7,158.1,-0.3,64.8,-401.1,-1019.7,0,12,268435456,118,0, 
0.0100,-510.0,-977.4,-620.7,224.7,-490.8,-204.6,368.1,-890.1,28899.0,106.5,746.4,195.9,-1755.0,-4533.9,9714.3,-119.4,-6.6,-5.7,-555.0,158.4,-0.3,60.9,-336.0,-1013.1,0,18,268435456,119,0, 
0.0133,-504.9,-960.6,-602.4,240.9,-472.5,-226.2,369.0,-897.6,13560.3,128.1,765.6,217.5,-1759.5,-4681.2,9830.1,-129.9,-6.9,-6.0,-533.7,171.3,-0.9,84.0,-646.5,-1061.4,0,24,268435456,120,0, 
0.0167,-500.7,-945.9,-584.4,259.8,-455.1,-236.7,375.6,-895.5,-7484.1,141.3,780.6,230.4,-1744.2,-4790.4,5848.8,-133.5,-6.9,-5.7,-524.4,180.3,-0.9,96.6,-893.1,-1089.3,0,30,268435456,121,0, 
0.0200,-501.0,-952.2,-588.9,257.1,-463.5,-222.9,376.2,-889.8,-5335.2,134.7,775.8,218.4,-1735.5,-4694.4,117.0,-130.5,-6.9,-5.4,-526.2,169.5,-0.9,85.8,-721.8,-1062.3,0,36,268435456,122,0, 
0.0233,-507.0,-972.3,-606.9,236.1,-484.8,-205.2,368.1,-886.2,17265.3,113.4,752.1,200.7,-1732.2,-4537.5,4682.7,-121.8,-7.2,-5.4,-543.6,157.8,-0.6,65.7,-387.9,-1016.7,0,42,268435456,123,0, 
0.0267,-508.5,-978.0,-618.3,231.3,-486.9,-192.9,364.8,-891.3,28973.1,107.1,748.5,195.3,-1744.5,-4510.8,9716.1,-124.5,-6.6,-6.0,-547.5,152.4,-0.6,62.1,-333.0,-1015.8,0,48,268435456,124,0, 
0.0300,-509.1,-965.1,-604.8,242.7,-474.6,-228.0,363.9,-898.8,13560.3,111.6,757.2,209.4,-1764.9,-4669.8,9830.1,-135.0,-6.9,-6.0,-535.2,159.3,-0.6,77.1,-639.6,-1060.5,0,54,268435456,125,0, 
0.0333,-506.4,-947.4,-588.6,261.9,-453.0,-245.7,370.2,-896.1,-7335.9,137.7,780.6,229.8,-1748.7,-4788.0,5904.9,-142.5,-6.9,-6.0,-515.7,180.9,-0.9,100.5,-894.9,-1092.0,0,60,268435456,126,0, 
0.0367,-506.4,-951.0,-588.3,261.9,-456.0,-223.8,371.1,-887.4,-5038.8,138.3,778.8,228.9,-1729.5,-4702.5,266.1,-135.0,-6.6,-6.0,-513.6,178.8,-0.6,95.1,-738.6,-1058.1,0,66,268435456,127,0, 
0.0400,-507.3,-972.6,-615.9,239.7,-483.6,-209.4,365.1,-886.8,17339.4,105.3,751.5,202.8,-1738.5,-4542.0,4844.1,-125.1,-7.2,-6.0,-541.5,157.5,-0.6,71.1,-394.5,-1018.2,0,72,268435456,128,0, 
0.0433,-508.8,-983.1,-629.7,224.4,-493.5,-204.6,359.4,-894.9,29121.3,101.1,744.3,190.5,-1750.8,-4516.2,9733.8,-120.6,-6.9,-5.7,-552.9,144.0,-0.9,55.5,-331.8,-1014.3,0,78,268435456,129,0, 
0.0467,-510.6,-970.5,-610.5,241.2,-471.6,-231.9,356.4,-901.8,13856.7,125.1,764.4,211.2,-1752.9,-4684.8,9830.1,-141.0,-6.9,-5.7,-531.6,171.9,-0.6,78.9,-658.2,-1064.7,0,84,268435456,130,0, 
0.0500,-505.8,-951.0,-594.9,255.0,-461.4,-249.0,363.9,-899.7,-7335.9,138.0,769.8,222.9,-1737.0,-4778.4,6021.3,-140.1,-6.9,-6.0,-523.2,171.9,-0.6,90.3,-904.2,-1090.8,0,90,268435456,131,0, 
0.0533,-507.9,-960.0,-597.6,252.0,-467.1,-239.7,360.9,-898.2,-4816.5,132.3,769.2,218.1,-1721.4,-4702.5,358.8,-140.1,-6.9,-6.0,-519.6,167.4,-0.3,86.7,-753.9,-1071.3,0,96,268435456,132,0, 
0.0567,-505.2,-970.5,-612.3,232.2,-486.0,-207.9,361.8,-889.5,17487.6,117.0,749.1,198.9,-1730.4,-4535.1,4965.0,-131.4,-7.2,-5.4,-540.0,153.0,-0.9,62.7,-403.2,-1020.6,0,102,268435456,133,0, 
0.0600,-510.0,-981.6,-626.4,219.0,-498.6,-214.2,354.6,-898.8,29343.6,105.6,738.9,189.6,-1742.4,-4524.0,9763.2,-130.8,-6.6,-5.4,-552.9,145.2,-0.6,62.1,-357.6,-1023.3,0,108,268435456,134,0, 
0.0633,-512.4,-968.4,-611.4,231.9,-477.9,-239.1,355.8,-904.2,13856.7,112.5,756.9,205.2,-1751.1,-4676.4,9830.1,-140.7,-6.9,-5.4,-541.2,158.4,-0.6,73.5,-673.2,-1069.2,0,114,268435456,135,0, 
0.0667,-514.2,-954.0,-598.8,249.0,-463.8,-255.3,358.8,-907.8,-7039.5,135.6,768.9,219.6,-1740.0,-4790.1,6135.9,-147.0,-7.2,-5.7,-529.5,170.7,-0.6,89.4,-922.2,-1101.3,0,120,268435456,136,0, 
0.0700,-510.6,-958.5,-600.0,247.2,-465.6,-237.3,364.2,-894.3,-4816.5,119.1,762.6,215.4,-1740.6,-4705.2,473.7,-139.5,-7.2,-6.0,-532.5,171.6,-0.3,79.2,-755.4,-1068.6,0,126,268435456,137,0, 
0.0733,-515.7,-980.4,-621.9,229.5,-490.5,-209.4,362.7,-891.9,17561.7,105.0,739.5,192.6,-1744.8,-4530.9,5006.1,-136.8,-6.9,-5.7,-554.4,151.5,-0.9,61.8,-400.2,-1022.4,0,132,268435456,138,0, 
0.0767,-519.6,-986.1,-628.8,224.1,-495.6,-216.3,357.3,-896.7,29417.7,98.1,738.9,189.6,-1759.2,-4527.9,9754.5,-134.1,-6.9,-5.7,-553.5,151.8,-0.6,55.8,-351.6,-1019.7,0,138,268435456,139,0, 
0.0800,-520.8,-976.2,-620.1,230.4,-483.6,-245.7,352.2,-907.5,14079.0,111.0,747.6,200.7,-1764.6,-4686.0,9830.1,-144.0,-6.6,-6.0,-545.1,156.6,-0.3,62.1,-669.0,-1070.1,0,144,268435456,140,0, 
0.0833,-518.4,-961.8,-604.8,244.8,-473.1,-257.4,358.2,-909.6,-7261.8,127.8,761.1,216.6,-1741.2,-4798.5,6137.1,-147.0,-6.9,-6.0,-532.2,167.4,-0.3,76.8,-921.0,-1105.8,0,150,268435456,141,0, 
0.0867,-517.2,-966.6,-609.3,242.4,-479.7,-242.7,361.2,-896.4,-5187.0,115.5,755.7,209.1,-1733.1,-4693.2,384.0,-144.9,-6.6,-5.7,-536.7,165.3,-0.6,75.9,-753.9,-1075.2,0,156,268435456,142,0, 
0.0900,-519.0,-987.3,-631.8,223.2,-500.4,-215.4,358.8,-896.4,17561.7,92.1,729.9,183.3,-1745.1,-4538.4,4991.1,-130.8,-7.2,-5.7,-560.1,145.2,-0.6,51.3,-397.8,-1031.1,0,162,268435456,143,0, 
0.0933,-519.0,-993.0,-636.3,215.7,-504.3,-213.0,353.1,-899.7,29195.4,92.7,728.4,184.5,-1757.7,-4516.5,9762.3,-140.7,-6.9,-5.4,-556.2,145.8,-0.6,46.8,-350.1,-1026.0,0,168,268435456,144,0, 
0.0967,-519.3,-980.4,-620.7,232.2,-492.0,-245.7,355.8,-903.6,13708.5,111.6,749.4,201.9,-1759.2,-4675.8,9830.1,-145.8,-6.6,-6.3,-539.4,160.8,-0.3,66.0,-660.6,-1078.2,0,174,268435456,145,0, 
0.1000,-516.0,-956.1,-598.8,250.2,-469.2,-254.4,361.8,-898.5,-7410.0,136.8,765.3,217.2,-1739.7,-4782.9,6025.2,-149.4,-6.6,-6.0,-528.0,171.0,-0.9,81.9,-917.7,-1108.5,0,180,268435456,146,0, 
0.1033,-516.9,-966.3,-605.1,241.5,-480.9,-241.5,364.8,-894.0,-4964.7,113.4,751.2,205.2,-1729.5,-4698.0,353.7,-138.9,-6.0,-6.0,-536.1,159.9,-0.9,69.9,-754.2,-1086.3,0,186,268435456,147,0, 
0.1067,-521.7,-984.3,-626.7,224.4,-500.4,-212.1,358.5,-884.1,17487.6,92.7,733.2,185.1,-1736.1,-4538.1,4955.1,-138.3,-7.2,-5.7,-555.0,142.8,-0.6,44.7,-400.2,-1029.3,0,192,268435456,148,0, 
0.1100,-518.1,-989.4,-631.2,220.8,-504.6,-219.9,353.7,-888.3,29195.4,97.5,731.7,181.5,-1748.1,-4517.7,9752.4,-137.7,-7.2,-5.7,-557.7,144.3,-0.6,45.9,-344.7,-1039.8,0,198,268435456,149,0, 
0.1133,-519.3,-977.7,-620.1,232.5,-492.0,-241.2,353.1,-897.3,13634.4,112.2,741.6,193.5,-1747.8,-4675.5,9830.1,-145.2,-7.2,-5.7,-549.0,150.3,-0.9,56.7,-665.4,-1080.3,0,204,268435456,150,0, 
0.1167,-515.7,-960.6,-598.8,252.3,-469.2,-254.7,355.5,-893.4,-7261.8,129.0,762.9,219.3,-1736.7,-4796.7,5977.8,-152.4,-7.2,-6.0,-529.5,172.5,-0.3,81.3,-933.3,-1112.7,0,210,268435456,151,0, 
0.1200,-515.4,-963.0,-603.0,246.6,-475.8,-239.7,360.6,-885.0,-4890.6,117.6,754.8,206.7,-1733.1,-4715.1,366.6,-149.7,-6.9,-6.0,-536.7,160.5,-1.2,67.5,-783.6,-1086.6,0,216,268435456,152,0, 
0.1233,-518.4,-988.8,-626.4,221.4,-500.4,-216.9,355.8,-884.4,17635.8,93.3,730.8,183.3,-1738.2,-4547.7,4987.5,-142.2,-7.5,-6.0,-559.2,145.8,-0.6,42.9,-430.8,-1047.0,0,222,268435456,153,0, 
0.1267,-520.5,-992.4,-634.2,216.3,-510.0,-216.0,348.6,-889.2,29121.3,84.6,723.0,177.9,-1749.9,-4538.7,9758.4,-139.5,-6.9,-5.7,-565.2,136.2,-0.9,33.9,-369.3,-1039.5,0,228,268435456,154,0, 
0.1300,-519.9,-976.8,-622.8,227.4,-492.3,-241.2,351.3,-893.4,13486.2,101.1,741.6,198.0,-1751.1,-4676.1,9830.1,-148.8,-6.9,-5.7,-555.0,153.0,-0.6,55.5,-665.7,-1080.6,0,234,268435456,155,0, 
0.1333,-511.8,-955.2,-593.4,251.4,-466.8,-247.5,359.7,-885.0,-7632.3,128.7,764.1,222.6,-1726.8,-4789.5,5917.5,-159.9,-7.5,-5.7,-529.8,174.3,-0.9,75.9,-907.2,-1106.4,0,240,268435456,156,0, 
0.1367,-516.3,-967.2,-602.1,242.4,-478.2,-234.0,363.3,-882.0,-5038.8,115.8,752.4,213.9,-1737.9,-4707.6,282.9,-152.4,-6.9,-6.0,-533.1,158.4,-0.9,71.1,-754.8,-1081.2,0,246,268435456,157,0, 
0.1400,-516.3,-983.4,-619.2,225.0,-496.8,-208.5,360.3,-877.2,17709.9,91.5,737.7,192.3,-1737.6,-4549.8,4990.2,-138.0,-7.2,-5.4,-542.4,147.3,-0.6,52.2,-414.6,-1030.8,0,252,268435456,158,0, 
0.1433,-522.3,-993.9,-628.5,217.2,-502.8,-208.5,357.9,-877.8,29269.5,92.7,733.2,185.4,-1742.1,-4530.9,9772.5,-139.2,-6.9,-5.7,-546.3,149.1,-0.6,51.6,-351.9,-1027.2,0,258,268435456,159,0, 
0.1467,-521.1,-978.3,-613.2,229.2,-489.0,-232.5,356.7,-885.0,13560.3,112.5,747.9,199.8,-1735.2,-4683.6,9830.1,-147.6,-6.9,-6.3,-539.4,157.2,-0.9,64.5,-671.1,-1072.2,0,264,268435456,160,0, 
0.1500,-517.2,-958.5,-595.8,250.2,-467.1,-241.8,363.6,-881.4,-7410.0,128.1,766.2,222.6,-1728.0,-4786.5,5996.4,-155.1,-6.9,-6.3,-519.0,176.4,-0.9,88.5,-922.8,-1101.3,0,270,268435456,161,0, 
0.1533,-516.0,-964.5,-601.2,242.7,-474.9,-233.1,366.0,-872.7,-4964.7,111.9,764.4,213.3,-1714.8,-4702.5,336.0,-146.4,-6.9,-5.4,-523.8,168.0,-0.9,75.3,-762.6,-1076.4,0,276,268435456,162,0, 
0.1567,-519.6,-982.8,-620.7,225.3,-495.9,-210.3,360.6,-871.2,17487.6,105.0,742.2,192.3,-1723.8,-4538.4,4960.5,-143.7,-6.9,-6.0,-540.3,152.4,-0.3,57.6,-414.6,-1030.8,0,282,268435456,163,0, 
0.1600,-520.5,-993.3,-627.9,218.7,-501.3,-211.2,356.4,-873.3,29121.3,95.4,732.6,189.6,-1737.0,-4527.9,9759.0,-144.6,-6.9,-6.0,-548.1,147.6,-0.6,51.9,-364.5,-1031.4,0,288,268435456,164,0, 
0.1633,-518.7,-972.0,-610.8,230.4,-487.2,-236.7,358.2,-878.4,13486.2,123.9,750.9,204.9,-1735.5,-4670.4,9830.1,-152.4,-6.9,-6.0,-529.2,162.0,-0.3,72.6,-663.6,-1072.2,0,294,268435456,165,0, 
0.1667,-518.1,-960.0,-596.7,243.3,-472.2,-238.8,370.5,-874.2,-7484.1,130.2,762.0,216.6,-1733.1,-4783.5,5907.3,-157.2,-6.9,-5.4,-522.9,173.1,-0.9,88.2,-919.5,-1104.0,0,300,268435456,166,0, 
0.1700,-513.0,-963.6,-603.9,241.2,-478.5,-233.7,369.3,-865.5,-4890.6,114.9,754.2,207.3,-1718.7,-4701.0,293.4,-152.7,-6.9,-6.3,-528.3,170.4,-0.6,77.4,-760.8,-1085.1,0,306,268435456,167,0, 
0.1733,-518.4,-987.9,-626.1,222.0,-498.6,-211.2,363.6,-858.3,17487.6,97.5,735.9,189.0,-1729.2,-4536.0,4931.4,-146.7,-6.9,-6.0,-543.6,152.4,-0.6,53.4,-419.4,-1032.6,0,312,268435456,168,0, 
0.1767,-516.3,-993.6,-633.9,213.3,-510.0,-216.0,359.4,-864.9,29195.4,87.9,727.8,180.0,-1732.8,-4531.5,9750.0,-150.6,-6.9,-5.7,-558.0,146.1,-0.3,45.0,-360.9,-1038.6,0,318,268435456,169,0, 
0.1800,-516.6,-976.2,-619.8,229.8,-489.9,-237.3,360.6,-870.9,13634.4,107.4,743.7,198.6,-1728.3,-4681.5,9830.1,-158.7,-6.9,-5.7,-545.1,161.1,-0.6,64.5,-679.5,-1080.0,0,324,268435456,170,0, 
0.1833,-516.9,-963.3,-606.0,245.1,-473.1,-243.9,364.8,-867.0,-7484.1,124.5,760.8,219.3,-1720.2,-4794.9,5962.5,-163.8,-6.9,-6.3,-525.9,167.7,-0.6,77.4,-927.3,-1111.5,0,330,268435456,171,0, 
0.1867,-516.6,-968.7,-613.5,242.4,-485.4,-236.4,367.5,-857.4,-5112.9,112.5,749.4,207.9,-1719.9,-4704.6,258.0,-151.8,-6.6,-5.7,-533.1,163.5,-0.6,68.7,-751.2,-1083.0,0,336,268435456,172,0, 
0.1900,-517.8,-986.4,-636.6,222.0,-504.6,-220.5,360.0,-855.6,17561.7,98.7,733.8,183.3,-1734.0,-4538.7,4894.8,-148.8,-6.9,-6.0,-551.4,148.8,-0.6,51.0,-410.1,-1037.1,0,342,268435456,173,0, 
0.1933,-520.8,-987.0,-636.3,220.5,-504.9,-211.2,362.1,-853.8,29047.2,101.1,735.9,187.2,-1747.8,-4526.4,9737.7,-158.7,-6.9,-5.7,-549.6,150.6,-0.9,57.3,-366.0,-1025.4,0,348,268435456,174,0, 
0.1967,-521.7,-978.9,-625.5,231.3,-488.1,-240.3,360.6,-861.9,13560.3,112.2,747.0,201.3,-1739.7,-4674.3,9830.1,-163.8,-7.2,-6.0,-537.6,164.1,-0.6,68.7,-691.8,-1072.2,0,354,268435456,175,0, 
0.2000,-518.4,-960.6,-608.7,245.4,-474.6,-254.1,367.8,-860.7,-7632.3,136.5,759.6,214.2,-1727.4,-4788.6,5940.9,-165.3,-6.6,-5.7,-524.1,166.5,-0.9,86.4,-931.2,-1105.2,0,360,268435456,176,0, 
0.2033,-519.0,-965.4,-615.3,242.1,-478.8,-232.8,373.2,-850.8,-4964.7,118.8,748.8,206.4,-1717.5,-4701.6,302.4,-148.2,-6.9,-5.7,-525.0,168.3,-1.2,74.7,-765.0,-1077.3,0,366,268435456,177,0, 
0.2067,-522.3,-989.1,-636.0,219.3,-505.8,-213.6,369.0,-849.0,17561.7,99.0,731.1,185.1,-1723.8,-4539.6,4943.1,-142.8,-6.6,-5.7,-540.3,141.3,-0.9,56.1,-414.0,-1027.5,0,372,268435456,178,0, 
0.2100,-525.0,-996.3,-645.0,207.6,-518.1,-215.4,363.6,-851.7,29047.2,93.6,718.5,171.9,-1747.2,-4525.2,9749.4,-145.2,-6.9,-6.0,-556.2,129.9,-0.9,45.0,-368.4,-1027.5,0,378,268435456,179,0, 
0.2133,-525.9,-979.5,-627.0,225.3,-496.8,-238.2,362.7,-858.3,13486.2,116.4,742.8,197.1,-1757.7,-4686.9,9830.1,-158.4,-6.3,-6.0,-540.0,151.2,-0.6,66.3,-683.1,-1081.2,0,384,268435456,180,0, 
0.2167,-522.9,-963.6,-613.8,240.9,-484.5,-257.7,368.4,-858.3,-7410.0,129.6,755.7,214.8,-1745.1,-4800.6,5898.3,-159.9,-6.9,-6.0,-528.6,159.9,-0.3,80.7,-934.8,-1108.8,0,390,268435456,181,0, 
0.2200,-516.0,-969.0,-619.8,232.2,-491.7,-242.1,374.7,-849.9,-5187.0,114.3,739.8,203.4,-1716.9,-4709.4,262.2,-147.3,-6.9,-5.7,-541.2,152.4,-0.6,66.6,-768.6,-1077.9,0,396,268435456,182,0, 
0.2233,-520.8,-986.4,-641.1,219.3,-507.0,-202.2,375.9,-837.9,17413.5,89.7,722.1,182.4,-1724.1,-4537.2,4831.2,-143.4,-6.9,-6.3,-557.4,141.0,-0.6,54.9,-396.3,-1021.2,0,402,268435456,183,0, 
0.2267,-525.0,-993.0,-644.1,214.5,-511.2,-212.1,369.0,-843.3,28973.1,87.3,723.9,181.8,-1741.8,-4530.3,9734.7,-143.7,-6.6,-5.4,-558.9,139.8,-0.6,48.6,-348.9,-1020.0,0,408,268435456,184,0, 
0.2300,-522.6,-978.0,-626.1,226.2,-495.9,-238.8,368.1,-847.5,13486.2,110.1,743.4,198.6,-1736.1,-4679.7,9830.1,-159.6,-7.2,-5.7,-547.5,150.0,-0.6,67.8,-675.3,-1066.8,0,414,268435456,185,0, 
0.2333,-522.0,-960.3,-609.9,240.6,-478.2,-251.1,370.8,-849.3,-7706.4,126.6,754.8,216.9,-1723.2,-4800.0,5816.7,-162.0,-6.9,-5.7,-531.3,164.4,-0.9,82.5,-931.2,-1098.6,0,420,268435456,186,0, 
0.2367,-522.3,-969.0,-621.0,234.0,-487.8,-237.9,372.0,-844.2,-5112.9,107.1,746.4,202.2,-1719.3,-4707.3,200.1,-155.4,-6.9,-6.3,-543.9,155.4,-0.9,72.3,-767.1,-1070.7,0,426,268435456,187,0, 
0.2400,-522.6,-991.2,-641.1,215.4,-507.9,-209.7,367.5,-840.0,17561.7,87.9,723.3,176.7,-1730.4,-4557.3,4877.4,-146.7,-7.2,-5.7,-566.1,142.2,-0.6,46.8,-401.4,-1025.7,0,432,268435456,188,0, 
0.2433,-525.3,-995.7,-644.1,205.8,-521.4,-221.1,363.3,-840.0,29047.2,94.5,717.6,171.0,-1743.6,-4538.7,9743.4,-147.9,-6.9,-5.7,-564.0,128.1,-0.6,43.2,-348.3,-1026.9,0,438,268435456,189,0, 
0.2467,-522.9,-975.6,-625.8,225.6,-497.4,-238.2,361.5,-843.9,13338.0,111.6,735.0,192.6,-1751.7,-4685.7,9830.1,-156.3,-6.9,-6.0,-543.9,153.6,-0.6,66.6,-662.4,-1070.7,0,444,268435456,190,0, 
0.2500,-519.9,-961.8,-610.2,239.1,-481.5,-260.1,365.1,-843.9,-7780.5,126.0,753.0,212.4,-1735.5,-4797.3,5788.2,-163.5,-6.9,-5.7,-529.5,165.3,-0.3,79.2,-919.2,-1106.4,0,450,268435456,191,0, 
0.2533,-519.6,-970.2,-618.0,234.0,-490.5,-239.7,372.3,-835.8,-5112.9,106.5,744.6,202.8,-1731.3,-4718.7,173.4,-156.6,-7.2,-5.4,-533.7,154.5,-0.3,64.8,-748.8,-1077.3,0,456,268435456,192,0, 
0.2567,-522.9,-986.4,-636.6,215.7,-512.7,-213.0,372.0,-830.4,17561.7,87.6,723.3,179.7,-1731.0,-4553.1,4838.7,-150.0,-6.9,-5.7,-550.5,134.4,-0.6,47.4,-407.1,-1030.2,0,462,268435456,193,0, 
0.2600,-522.3,-992.1,-634.5,214.2,-513.6,-205.5,367.2,-832.8,28973.1,94.2,721.2,179.7,-1751.7,-4544.1,9743.4,-150.6,-6.9,-5.7,-554.7,139.8,-0.6,43.2,-348.6,-1021.5,0,468,268435456,194,0, 
0.2633,-520.2,-977.1,-621.3,225.0,-496.5,-235.2,368.4,-837.6,13115.7,110.7,741.0,198.9,-1752.3,-4689.0,9830.1,-153.3,-6.6,-5.7,-542.4,151.8,-0.9,65.1,-664.2,-1071.9,0,474,268435456,195,0, 
0.2667,-519.0,-963.6,-605.7,240.9,-477.3,-253.8,371.4,-836.4,-7632.3,125.1,755.7,216.0,-1746.9,-4805.4,5760.3,-160.5,-7.2,-6.0,-530.1,168.9,-0.6,81.6,-928.2,-1096.5,0,480,268435456,196,0, 
0.2700,-519.9,-970.8,-615.0,234.0,-489.3,-232.2,371.4,-828.3,-5038.8,108.9,741.6,202.2,-1735.2,-4721.7,185.7,-154.2,-6.6,-6.0,-540.6,155.4,-0.6,73.8,-767.4,-1071.6,0,486,268435456,197,0, 
0.2733,-523.2,-994.2,-635.7,216.9,-509.7,-214.8,365.7,-825.0,17487.6,93.9,724.5,183.0,-1731.6,-4563.6,4826.1,-147.6,-6.6,-5.4,-556.8,138.9,-0.3,46.2,-409.8,-1035.3,0,492,268435456,198,0, 
0.2767,-523.8,-993.0,-643.2,207.0,-519.0,-210.0,356.4,-830.1,28676.7,85.2,716.4,176.4,-1750.5,-4542.9,9737.1,-150.0,-6.6,-5.4,-559.8,131.1,-0.6,43.2,-355.8,-1027.2,0,498,268435456,199,0, 
0.2800,-522.9,-981.3,-623.7,224.7,-493.8,-230.1,360.9,-836.1,13041.6,105.9,735.6,199.8,-1746.0,-4690.5,9830.1,-151.2,-7.2,-5.7,-545.4,155.7,-0.6,66.3,-652.8,-1065.6,0,504,268435456,200,0, 
0.2833,-522.0,-965.7,-610.2,241.5,-476.1,-248.1,366.3,-837.6,-8002.8,116.1,749.7,213.0,-1736.7,-4808.1,5632.5,-152.1,-6.9,-5.7,-537.0,168.0,-0.3,81.0,-891.6,-1095.0,0,510,268435456,201,0, 
0.2867,-523.5,-975.6,-617.1,232.2,-493.2,-228.0,370.5,-833.1,-5112.9,103.5,738.0,201.0,-1727.4,-4740.3,66.0,-144.0,-7.2,-5.7,-547.2,150.9,-0.3,70.8,-747.6,-1079.7,0,516,268435456,202,0, 
0.2900,-530.1,-994.8,-639.9,210.0,-514.8,-216.0,366.9,-832.8,17487.6,80.4,717.9,176.7,-1746.6,-4572.0,4793.7,-136.5,-6.6,-6.0,-562.8,138.3,-0.9,40.5,-416.4,-1033.5,0,522,268435456,203,0, 
0.2933,-535.2,-1004.1,-646.2,205.5,-516.6,-211.8,360.9,-834.3,28899.0,83.4,716.4,175.8,-1756.8,-4554.3,9732.9,-138.9,-6.9,-6.0,-566.7,139.2,-0.6,40.8,-351.0,-1025.7,0,528,268435456,204,0, 
0.2967,-531.6,-984.3,-629.4,220.8,-497.4,-237.6,362.1,-839.7,13115.7,109.5,734.4,196.2,-1753.2,-4709.7,9830.1,-153.6,-6.6,-5.7,-548.1,158.7,-1.2,68.4,-659.4,-1070.4,0,534,268435456,205,0, 
0.3000,-526.5,-963.6,-609.3,240.3,-477.6,-249.0,366.6,-837.3,-7854.6,126.9,754.8,216.9,-1740.0,-4817.1,5669.1,-156.3,-6.9,-6.3,-534.3,175.5,-0.9,83.1,-895.5,-1099.8,0,540,268435456,206,0, 
0.3033,-526.2,-972.6,-616.8,232.5,-486.0,-241.5,367.8,-829.8,-5187.0,114.0,745.8,206.4,-1737.3,-4737.6,71.4,-148.5,-6.9,-5.4,-535.2,164.4,-0.9,73.5,-740.1,-1073.1,0,546,268435456,207,0, 
0.3067,-526.2,-988.8,-633.6,219.3,-505.2,-213.3,367.2,-824.4,17339.4,95.4,727.2,186.6,-1742.1,-4573.8,4756.5,-145.8,-7.2,-6.0,-548.7,148.8,-0.6,52.5,-394.5,-1023.0,0,552,268435456,208,0, 
0.3100,-528.3,-994.8,-637.2,214.2,-508.5,-209.4,364.2,-827.1,28602.6,93.9,726.3,185.7,-1754.1,-4548.9,9725.4,-144.3,-6.9,-6.0,-554.1,149.7,-0.6,50.4,-321.0,-1018.2,0,558,268435456,209,0, 
0.3133,-526.2,-978.3,-622.5,224.1,-495.9,-234.0,362.7,-834.3,12967.5,109.5,742.8,205.2,-1760.4,-4701.6,9830.1,-156.3,-6.9,-5.7,-544.5,160.2,-0.6,67.5,-647.4,-1063.2,0,564,268435456,210,0, 
0.3167,-522.6,-961.8,-608.7,236.4,-479.4,-250.5,369.0,-837.6,-8002.8,120.9,754.2,214.2,-1749.9,-4807.8,5571.3,-157.8,-6.6,-6.0,-530.7,172.8,-0.9,78.6,-898.2,-1102.8,0,570,268435456,211,0, 
0.3200,-522.9,-971.7,-618.0,229.5,-492.3,-236.7,371.7,-830.7,-5261.1,108.0,740.1,199.5,-1739.4,-4722.3,8.1,-147.0,-6.6,-6.0,-546.0,153.9,-0.6,65.7,-742.8,-1073.1,0,576,268435456,212,0, 
0.3233,-529.2,-990.3,-634.2,211.5,-505.8,-209.1,367.5,-826.8,17487.6,90.3,723.3,185.1,-1753.5,-4567.2,4696.8,-145.5,-6.6,-6.0,-555.9,144.9,-0.6,42.9,-388.8,-1027.5,0,582,268435456,213,0, 
0.3267,-528.3,-994.2,-637.5,210.3,-510.6,-210.9,358.8,-826.5,28676.7,99.9,727.2,188.4,-1770.6,-4554.9,9723.9,-146.7,-7.2,-6.0,-545.1,152.7,-0.6,48.6,-344.7,-1017.3,0,588,268435456,214,0, 
0.3300,-531.6,-986.4,-630.3,219.9,-499.2,-237.0,359.1,-839.4,13115.7,101.7,733.2,194.7,-1768.8,-4712.4,9830.1,-157.5,-6.6,-6.0,-542.1,155.1,-0.9,63.0,-666.0,-1069.8,0,594,268435456,215,0, 
0.3333,-527.4,-963.9,-610.8,235.8,-478.8,-248.7,360.9,-837.0,-7854.6,121.8,758.4,213.3,-1752.9,-4826.4,5604.0,-157.8,-6.6,-6.0,-526.5,175.5,0.0,80.1,-915.9,-1104.0,0,600,268435456,216,0, 
0.3367,-529.2,-975.3,-619.2,229.5,-489.3,-235.5,365.1,-831.6,-5187.0,102.6,744.6,204.6,-1751.7,-4730.1,29.1,-151.8,-7.2,-5.7,-534.0,165.0,-0.9,77.1,-748.2,-1075.2,0,606,268435456,217,0, 
0.3400,-529.8,-994.8,-637.2,214.2,-507.9,-210.3,364.2,-826.2,17487.6,83.4,724.5,182.1,-1756.8,-4575.3,4738.8,-141.3,-6.9,-6.0,-544.2,147.9,-0.6,52.2,-393.9,-1022.7,0,612,268435456,218,0, 
0.3433,-530.1,-1000.5,-641.7,206.1,-512.7,-215.4,359.4,-831.3,28824.9,84.6,717.9,180.3,-1774.5,-4555.5,9721.2,-143.4,-6.6,-6.3,-550.5,142.8,-0.6,39.6,-345.0,-1021.5,0,618,268435456,219,0, 
0.3467,-528.0,-975.0,-619.2,230.4,-488.7,-228.3,362.1,-834.0,13041.6,119.1,743.7,205.2,-1763.1,-4711.2,9830.1,-159.6,-6.9,-5.7,-528.3,165.3,0.0,71.4,-662.4,-1065.9,0,624,268435456,220,0, 
0.3500,-524.7,-964.5,-603.0,247.2,-471.0,-243.6,369.6,-833.4,-7928.7,127.2,760.2,220.5,-1743.9,-4820.7,5620.5,-160.5,-6.9,-5.4,-517.2,180.3,-0.6,95.1,-909.0,-1094.7,0,630,268435456,221,0, 
0.3533,-525.9,-970.5,-613.8,237.6,-483.3,-238.5,369.6,-827.7,-5038.8,111.6,747.3,210.9,-1734.6,-4738.2,94.8,-152.4,-6.9,-5.7,-532.2,168.9,-0.6,71.7,-759.3,-1068.0,0,636,268435456,222,0, 
0.3567,-527.7,-989.7,-633.3,221.1,-502.2,-205.8,364.5,-823.5,17709.9,90.3,726.0,190.8,-1749.3,-4566.0,4836.6,-144.9,-7.2,-6.0,-546.6,152.1,-0.6,51.0,-412.5,-1022.4,0,642,268435456,223,0, 
0.3600,-528.3,-999.0,-642.6,208.8,-513.3,-211.8,359.1,-831.3,29047.2,86.1,719.1,177.9,-1758.9,-4552.8,9732.0,-142.5,-6.6,-5.7,-557.4,147.0,-0.6,39.3,-348.0,-1022.4,0,648,268435456,224,0, 
0.3633,-527.4,-984.9,-626.4,222.0,-496.8,-235.5,357.6,-838.2,13041.6,106.5,735.3,199.2,-1763.4,-4700.4,9830.1,-152.7,-6.9,-5.7,-540.6,160.8,-0.6,67.2,-665.1,-1070.4,0,654,268435456,225,0, 
0.3667,-523.2,-964.8,-604.8,240.6,-475.5,-250.2,362.1,-834.9,-7632.3,124.5,757.8,222.6,-1746.3,-4810.2,5679.0,-163.2,-6.6,-5.7,-521.7,175.8,-0.6,82.5,-926.4,-1099.5,0,660,268435456,226,0, 
0.3700,-517.2,-968.4,-608.7,240.3,-479.1,-228.6,366.0,-826.8,-5187.0,116.1,752.4,213.0,-1737.0,-4712.4,85.5,-153.3,-6.9,-5.4,-528.6,171.3,-0.6,74.7,-745.8,-1068.6,0,666,268435456,227,0, 
0.3733,-527.4,-995.1,-637.2,215.7,-507.3,-210.9,359.1,-827.1,17709.9,83.4,723.3,180.6,-1748.7,-4569.3,4803.0,-144.3,-7.2,-5.7,-554.4,140.4,-0.3,39.9,-390.0,-1025.4,0,672,268435456,228,0, 
0.3767,-523.5,-995.7,-640.8,211.2,-510.3,-210.0,354.9,-831.0,29047.2,81.9,723.9,180.9,-1764.6,-4551.6,9756.3,-145.5,-7.2,-5.7,-550.5,140.7,-0.6,42.6,-348.9,-1017.6,0,678,268435456,229,0, 
0.3800,-525.6,-980.7,-624.9,227.4,-492.6,-234.9,354.6,-836.7,13189.8,105.3,739.5,196.8,-1768.8,-4704.3,9830.1,-158.4,-6.9,-6.0,-535.8,150.6,-0.9,54.3,-657.9,-1068.6,0,684,268435456,230,0, 
0.3833,-521.1,-961.2,-605.4,246.9,-474.0,-246.6,360.9,-833.7,-7780.5,117.3,756.6,218.4,-1747.5,-4808.4,5706.9,-159.3,-6.6,-5.4,-516.9,174.3,-0.6,81.0,-906.0,-1093.2,0,690,268435456,231,0, 
0.3867,-521.4,-969.9,-612.6,238.2,-488.7,-240.3,359.4,-829.5,-5038.8,110.1,743.7,201.6,-1739.4,-4722.3,137.4,-156.3,-6.9,-6.0,-526.5,154.8,-0.9,63.3,-744.3,-1077.9,0,696,268435456,232,0, 
0.3900,-519.6,-988.5,-632.7,221.7,-506.1,-212.4,362.4,-824.1,17858.1,89.4,731.7,184.2,-1746.9,-4558.5,4927.2,-146.4,-6.9,-6.0,-539.1,145.5,-0.3,39.9,-392.7,-1021.5,0,702,268435456,233,0, 
0.3933,-522.9,-995.7,-636.9,215.7,-510.3,-216.6,359.1,-827.7,29195.4,84.0,732.0,176.4,-1759.5,-4536.6,9764.1,-146.1,-6.6,-5.7,-543.0,138.9,-0.6,35.4,-341.1,-1022.7,0,708,268435456,234,0, 
0.3967,-523.2,-981.3,-621.6,230.4,-494.7,-236.4,360.0,-837.9,12893.4,96.9,746.7,196.5,-1769.7,-4693.8,9830.1,-152.4,-6.9,-6.0,-532.8,156.0,-0.6,54.9,-642.3,-1061.4,0,714,268435456,235,0, 
0.4000,-521.1,-966.6,-612.3,236.7,-486.9,-259.8,364.5,-841.5,-8002.8,111.9,744.0,201.3,-1753.2,-4806.0,5656.8,-156.0,-6.9,-6.0,-535.5,152.7,-0.6,65.7,-898.8,-1101.6,0,720,268435456,236,0, 
0.4033,-524.1,-983.4,-628.5,219.0,-507.3,-255.3,365.1,-840.0,-4964.7,96.3,708.3,167.1,-1761.6,-4719.6,108.0,-151.2,-6.6,-5.7,-568.8,124.2,-0.9,42.0,-732.3,-1080.0,0,726,268435456,237,0, 
0.4067,-527.1,-991.8,-645.3,203.7,-522.0,-224.7,364.8,-832.5,18154.5,76.8,684.6,144.6,-1759.5,-4555.8,5000.1,-149.4,-6.9,-5.7,-589.8,113.4,-0.6,23.4,-386.4,-1031.7,0,732,268435456,238,0, 
0.4100,-521.4,-992.4,-630.0,220.8,-503.4,-217.5,367.8,-831.9,29343.6,85.8,741.0,199.5,-1757.7,-4539.9,9798.6,-147.9,-7.2,-6.0,-545.7,160.5,-0.6,45.0,-338.7,-1012.5,0,738,268435456,239,0, 
0.4133,-519.9,-980.7,-614.1,239.4,-480.0,-240.6,363.0,-841.8,13189.8,105.3,766.2,224.1,-1759.5,-4695.9,9830.1,-148.5,-6.9,-6.0,-524.7,181.8,-0.3,63.0,-658.5,-1058.1,0,744,268435456,240,0, 
0.4167,-522.3,-964.2,-604.5,246.6,-471.9,-259.5,368.4,-840.6,-7706.4,122.1,765.0,228.0,-1754.1,-4799.4,5797.8,-159.0,-6.9,-5.7,-523.5,185.1,-0.9,81.6,-911.7,-1091.4,0,750,268435456,241,0, 
0.4200,-517.2,-965.1,-613.5,240.6,-478.5,-234.6,372.6,-833.1,-4742.4,108.9,747.6,208.5,-1743.0,-4702.8,249.9,-151.5,-6.9,-6.0,-537.6,173.1,-0.9,72.0,-734.4,-1062.9,0,756,268435456,242,0, 
0.4233,-522.3,-988.5,-633.6,218.4,-503.4,-209.1,372.9,-827.7,18376.8,91.2,717.6,182.7,-1755.6,-4532.7,5149.8,-145.8,-7.2,-6.0,-564.6,151.8,-0.6,53.4,-380.7,-1012.2,0,762,268435456,243,0, 
0.4267,-523.5,-997.5,-640.5,212.4,-505.8,-203.1,371.4,-833.4,29269.5,84.0,719.7,185.1,-1762.2,-4515.3,9797.1,-147.6,-7.2,-5.7,-566.7,152.7,-0.3,49.5,-318.3,-1002.3,0,768,268435456,244,0, 
0.4300,-523.5,-980.1,-621.0,231.3,-484.2,-231.0,369.3,-840.3,13115.7,107.4,740.4,212.4,-1758.9,-4680.9,9830.1,-156.6,-6.3,-5.7,-549.0,177.9,-0.3,74.4,-655.5,-1049.7,0,774,268435456,245,0, 
0.4333,-516.6,-959.7,-597.9,249.3,-466.2,-245.1,372.0,-838.5,-8076.9,133.5,759.9,227.4,-1736.7,-4794.0,5721.3,-159.9,-7.2,-6.0,-527.7,191.7,-0.6,97.5,-906.6,-1080.9,0,780,268435456,246,0, 
0.4367,-520.2,-965.1,-605.4,243.9,-474.3,-229.5,373.2,-835.2,-4297.8,123.0,755.4,218.4,-1742.7,-4706.1,240.0,-156.3,-6.6,-5.7,-525.6,183.3,-0.3,85.8,-748.2,-1055.7,0,786,268435456,247,0, 
0.4400,-515.1,-984.0,-627.0,222.0,-498.3,-206.4,370.8,-826.8,19043.7,94.8,724.8,191.4,-1753.8,-4532.7,5318.1,-139.8,-6.6,-5.7,-556.5,160.2,-0.9,57.6,-389.4,-1005.3,0,792,268435456,248,0, 
0.4433,-520.5,-993.3,-637.5,212.4,-507.6,-210.3,365.1,-833.4,30084.6,91.5,710.1,174.6,-1762.2,-4523.4,9830.1,-141.9,-6.9,-6.0,-573.3,153.9,-0.9,53.7,-342.3,-1003.8,0,798,268435456,249,0, 
0.4467,-518.1,-976.8,-619.5,228.9,-488.4,-228.0,365.1,-841.2,12967.5,110.7,739.5,195.0,-1754.4,-4684.5,9830.1,-151.5,-7.2,-5.7,-555.3,166.2,-0.3,69.9,-678.6,-1052.4,0,804,268435456,250,0, 
0.4500,-516.9,-959.4,-601.5,248.4,-464.7,-242.1,376.8,-838.5,-8595.6,130.5,756.3,223.2,-1745.4,-4793.4,5699.4,-156.6,-7.2,-6.0,-542.4,188.4,-0.9,90.0,-921.3,-1072.8,0,810,268435456,251,0, 
0.4533,-514.5,-964.5,-606.6,241.2,-474.6,-231.3,377.4,-833.7,-4520.1,116.1,748.5,214.2,-1734.0,-4695.3,98.4,-144.3,-7.2,-6.0,-543.6,178.5,-0.3,82.8,-728.4,-1053.0,0,816,268435456,252,0, 
0.4567,-516.3,-985.8,-629.1,220.8,-500.1,-198.3,375.0,-831.6,20155.2,86.7,726.3,188.7,-1748.1,-4511.7,5577.3,-135.9,-6.9,-6.0,-564.0,154.5,-0.6,51.9,-351.3,-1001.4,0,822,268435456,253,0, 
0.4600,-522.0,-999.3,-636.9,212.7,-502.8,-202.8,373.5,-837.3,32085.3,86.7,720.6,183.9,-1760.7,-4494.3,9830.1,-136.2,-6.9,-6.0,-566.1,157.2,-0.6,53.7,-287.7,-995.4,0,828,268435456,254,0, 
0.4633,-519.0,-970.8,-617.7,228.3,-483.6,-232.8,370.8,-845.7,13708.5,108.6,740.7,204.6,-1760.1,-4673.4,9830.1,-149.1,-7.2,-6.0,-545.4,175.8,-0.6,72.3,-655.2,-1048.5,0,834,268435456,255,0, 
0.4667,-517.2,-958.8,-599.1,246.6,-465.6,-255.6,376.2,-847.8,-11337.3,124.8,757.2,226.2,-1752.9,-4820.7,5548.8,-155.7,-6.9,-6.3,-530.7,189.6,-0.3,85.5,-959.7,-1093.8,0,840,268435456,0,0, 
0.4700,-519.0,-963.3,-613.2,234.0,-484.2,-244.5,376.2,-842.7,-6891.3,108.3,736.5,199.2,-1743.6,-4700.4,-982.5,-140.4,-6.9,-5.7,-549.6,168.0,-0.6,60.6,-746.4,-1067.7,0,846,268435456,1,0, 
0.4733,-519.3,-986.7,-630.3,216.3,-504.9,-213.6,373.5,-833.1,22007.7,90.3,720.3,180.3,-1745.7,-4497.0,5370.6,-136.2,-6.9,-5.7,-565.5,153.0,-0.9,44.1,-324.9,-1007.4,0,852,268435456,2,0, 
0.4767,-519.0,-987.0,-633.0,216.6,-504.9,-204.6,372.6,-834.3,34901.1,94.5,720.9,181.8,-1762.2,-4481.4,9830.1,-135.9,-6.9,-5.7,-560.1,158.4,-0.6,42.9,-276.9,-1000.2,0,858,268435456,3,0, 
0.4800,-520.2,-968.1,-615.9,234.0,-480.9,-236.4,374.7,-841.5,13930.8,120.0,737.4,204.9,-1758.3,-4680.3,9830.1,-147.9,-6.9,-6.0,-543.9,177.3,-0.9,76.5,-678.9,-1057.8,0,864,268435456,4,0, 
0.4833,-512.1,-945.3,-594.3,252.9,-459.9,-249.0,381.9,-840.9,-11707.8,132.6,755.7,222.6,-1726.2,-4807.8,5721.6,-150.0,-6.6,-5.7,-527.7,192.3,-0.3,94.2,-968.1,-1091.1,0,870,268435456,5,0, 
0.4867,-520.2,-959.7,-609.3,242.1,-475.5,-233.1,379.5,-837.3,-6520.8,111.6,741.0,209.1,-1719.6,-4691.1,-821.1,-142.8,-6.6,-6.0,-543.0,182.7,-0.6,78.9,-748.8,-1062.9,0,876,268435456,6,0, 
0.4900,-519.0,-981.6,-629.7,222.6,-501.0,-197.7,378.0,-829.5,22007.7,89.4,719.1,181.5,-1735.2,-4469.1,5506.8,-128.4,-7.2,-5.7,-557.4,159.3,-1.2,52.8,-294.6,-994.8,0,882,268435456,7,0, 
0.4933,-520.5,-989.4,-635.1,217.5,-501.3,-196.8,378.3,-835.8,34901.1,91.2,719.1,181.2,-1759.8,-4457.4,9830.1,-131.7,-6.9,-5.4,-562.2,165.0,-0.6,45.3,-261.9,-991.5,0,888,268435456,8,0, 
0.4967,-514.8,-965.4,-609.3,237.6,-482.7,-232.5,378.0,-840.6,13634.4,116.7,744.6,204.0,-1754.4,-4651.5,9830.1,-141.0,-6.9,-5.7,-540.0,180.6,-0.9,72.6,-678.6,-1048.8,0,894,268435456,9,0, 
0.5000,-515.4,-949.8,-594.6,252.9,-462.9,-246.0,386.1,-841.8,-11930.1,122.4,749.7,218.7,-1730.1,-4791.3,5704.8,-141.6,-6.9,-5.7,-531.9,189.6,-0.9,91.2,-980.7,-1090.5,0,900,268435456,10,0, 
0.5033,-510.0,-954.9,-601.2,248.1,-468.3,-219.0,391.2,-828.0,-6743.1,117.9,744.6,211.5,-1721.4,-4662.3,-860.7,-128.4,-6.9,-6.0,-536.7,183.3,-0.9,78.9,-738.9,-1048.2,0,906,268435456,11,0, 
0.5067,-512.4,-979.2,-626.4,225.3,-497.7,-198.3,387.6,-826.2,22452.3,90.9,714.9,182.7,-1732.2,-4465.5,5553.9,-115.2,-6.9,-6.0,-561.3,161.7,-0.9,51.3,-313.5,-993.9,0,912,268435456,12,0, 
0.5100,-509.1,-982.5,-627.0,225.9,-491.7,-191.7,385.5,-827.7,35049.3,95.1,721.5,186.9,-1748.1,-4443.3,9830.1,-122.1,-7.2,-6.0,-554.1,166.2,-0.9,60.0,-273.3,-981.6,0,918,268435456,13,0, 
0.5133,-507.3,-958.2,-604.5,244.2,-469.5,-219.9,388.5,-836.4,13856.7,118.8,744.0,211.8,-1748.4,-4646.1,9830.1,-136.8,-6.6,-5.4,-538.5,182.4,-0.6,83.4,-690.6,-1042.5,0,924,268435456,14,0, 
0.5167,-506.4,-938.4,-588.3,256.8,-454.5,-245.4,393.0,-842.1,-11930.1,136.8,758.7,224.1,-1741.5,-4784.4,5733.9,-136.2,-6.9,-6.0,-532.2,194.4,-0.6,100.5,-974.7,-1086.9,0,930,268435456,15,0, 
0.5200,-507.6,-951.6,-595.2,250.2,-462.3,-227.4,397.5,-832.2,-6669.0,123.0,746.7,212.4,-1727.1,-4653.0,-861.6,-122.1,-6.6,-6.0,-539.7,186.0,-0.6,85.8,-736.2,-1041.3,0,936,268435456,16,0, 
0.5233,-512.4,-973.5,-621.0,223.2,-491.4,-196.5,392.7,-829.5,22378.2,94.5,717.3,184.5,-1729.2,-4443.9,5543.7,-117.0,-6.9,-5.7,-559.8,161.1,-0.3,58.8,-295.5,-987.0,0,942,268435456,17,0, 
0.5267,-514.5,-982.5,-629.1,216.3,-496.5,-200.1,382.8,-834.0,35123.4,93.9,717.9,180.0,-1743.9,-4435.2,9830.1,-123.6,-6.9,-5.7,-559.8,152.1,-0.6,54.3,-266.4,-984.3,0,948,268435456,18,0, 
0.5300,-507.6,-957.9,-606.3,237.3,-471.3,-226.2,387.3,-843.0,13634.4,127.2,743.4,209.4,-1742.7,-4633.5,9830.1,-131.7,-6.6,-5.4,-538.8,178.8,-0.9,85.8,-672.9,-1045.8,0,954,268435456,19,0, 
0.5333,-507.0,-941.7,-589.2,255.0,-453.3,-249.0,395.1,-843.0,-12226.5,137.4,760.2,226.2,-1722.0,-4767.9,5646.3,-138.6,-6.9,-5.7,-527.1,194.1,-1.2,98.1,-976.5,-1081.8,0,960,268435456,20,0, 
0.5367,-506.1,-950.4,-599.4,246.0,-462.0,-224.7,398.7,-834.0,-6965.4,126.9,744.9,213.3,-1709.7,-4642.5,-990.9,-129.6,-6.6,-5.7,-532.2,184.8,-0.9,85.8,-753.9,-1047.6,0,966,268435456,21,0, 
0.5400,-504.9,-972.6,-622.8,222.6,-494.1,-194.7,394.2,-826.8,21785.4,106.5,715.8,185.4,-1714.5,-4423.8,5349.6,-108.6,-6.9,-6.0,-552.3,159.3,-0.9,63.9,-303.6,-982.2,0,972,268435456,22,0, 
0.5433,-504.0,-977.1,-625.2,223.5,-490.2,-190.8,397.2,-830.7,34530.6,106.8,721.8,192.3,-1736.1,-4416.6,9830.1,-112.2,-6.6,-6.0,-550.5,171.0,-0.6,64.8,-255.0,-976.2,0,978,268435456,23,0, 
0.5467,-501.6,-954.9,-603.0,240.6,-470.1,-229.2,392.1,-840.9,13338.0,122.4,746.7,210.9,-1749.3,-4619.1,9830.1,-126.3,-6.9,-5.4,-528.9,183.6,-0.6,87.9,-674.7,-1046.7,0,984,268435456,24,0, 
0.5500,-496.2,-932.7,-580.8,262.5,-447.0,-242.4,399.3,-837.9,-12374.7,150.3,768.0,234.9,-1741.5,-4749.6,5475.3,-132.3,-6.6,-5.7,-511.5,199.2,-0.3,110.7,-961.8,-1080.3,0,990,268435456,25,0, 
0.5533,-495.6,-941.1,-588.0,256.5,-459.0,-222.6,403.5,-831.3,-6891.3,138.6,755.4,219.9,-1716.0,-4626.0,-1075.5,-117.9,-7.2,-5.7,-517.5,194.4,-0.6,95.1,-729.0,-1046.4,0,996,268435456,26,0, 
0.5567,-496.2,-965.1,-611.7,235.2,-485.7,-195.6,396.3,-825.0,22452.3,107.7,733.2,195.3,-1724.4,-4422.3,5451.0,-108.6,-6.9,-6.0,-536.4,171.0,-0.3,66.6,-294.3,-985.5,0,1002,268435456,27,0, 
0.5600,-499.5,-973.2,-616.5,223.5,-490.5,-195.6,390.6,-831.6,35197.5,102.9,724.5,186.9,-1741.5,-4422.0,9830.1,-106.8,-7.2,-5.7,-547.8,163.2,-0.6,67.8,-253.2,-983.1,0,1008,268435456,28,0, 
0.5633,-496.2,-947.4,-591.3,247.2,-462.3,-220.8,394.2,-838.8,13412.1,136.5,754.5,217.2,-1752.9,-4627.5,9830.1,-121.8,-6.9,-5.7,-520.8,188.1,-0.3,90.3,-668.7,-1044.6,0,1014,268435456,29,0, 
0.5667,-488.1,-928.5,-572.1,267.9,-440.1,-233.4,402.3,-836.1,-12448.8,155.7,770.1,238.2,-1722.6,-4751.7,5553.0,-122.1,-6.9,-6.0,-501.9,206.1,-0.6,116.7,-964.2,-1076.7,0,1020,268435456,30,0, 
0.5700,-489.3,-936.0,-582.9,257.7,-453.3,-211.2,407.4,-826.5,-7113.6,136.8,758.1,227.1,-1704.6,-4632.3,-1056.0,-112.5,-6.6,-5.7,-515.1,192.6,-0.9,97.5,-732.9,-1037.1,0,1026,268435456,31,0, 
0.5733,-492.0,-963.6,-603.3,236.4,-476.1,-177.6,402.6,-821.1,22081.8,117.3,740.1,199.8,-1707.0,-4421.4,5386.5,-101.4,-6.9,-6.0,-527.7,171.9,-0.6,77.7,-285.9,-979.8,0,1032,268435456,32,0, 
0.5767,-498.6,-974.1,-618.0,228.0,-484.2,-195.3,394.2,-834.3,34975.2,109.5,730.8,196.2,-1740.9,-4423.8,9830.1,-103.8,-6.9,-5.7,-537.6,171.6,-1.2,70.5,-259.8,-979.8,0,1038,268435456,33,0, 
0.5800,-497.1,-950.4,-596.1,247.2,-465.9,-220.8,398.7,-841.2,13560.3,132.9,750.3,215.1,-1735.2,-4632.3,9830.1,-108.9,-6.0,-6.0,-519.0,182.4,-1.2,94.5,-676.8,-1040.1,0,1044,268435456,34,0, 
0.5833,-490.8,-931.2,-582.0,259.2,-455.7,-242.7,406.2,-839.4,-12300.6,148.5,748.5,216.6,-1713.6,-4749.0,5565.0,-117.0,-6.9,-5.7,-521.4,179.1,-0.9,100.2,-961.2,-1080.3,0,1050,268435456,35,0, 
0.5867,-491.7,-944.4,-599.1,246.3,-471.6,-215.4,408.6,-827.4,-6520.8,129.9,715.2,186.0,-1704.3,-4626.6,-961.2,-108.0,-6.9,-6.3,-553.2,163.5,-0.9,91.2,-725.4,-1043.1,0,1056,268435456,36,0, 
0.5900,-495.6,-965.7,-618.3,236.1,-484.2,-184.8,406.2,-826.2,22600.5,104.4,723.6,193.5,-1719.3,-4425.3,5598.0,-96.0,-6.6,-5.7,-556.5,174.3,-0.6,78.6,-277.2,-972.9,0,1062,268435456,37,0, 
0.5933,-494.1,-967.5,-605.4,247.5,-466.8,-170.4,403.8,-827.4,35197.5,114.0,767.4,224.4,-1739.4,-4419.3,9830.1,-99.6,-7.2,-6.0,-519.0,196.5,-0.6,90.0,-245.1,-964.8,0,1068,268435456,38,0, 
0.5967,-492.9,-945.6,-582.6,267.6,-440.7,-202.5,403.2,-833.7,13560.3,137.7,785.4,258.6,-1730.7,-4626.0,9830.1,-116.4,-6.9,-6.0,-500.7,226.5,-0.9,106.8,-662.4,-1022.7,0,1074,268435456,39,0, 
0.6000,-491.1,-926.4,-570.9,277.8,-428.7,-216.3,410.4,-832.2,-12374.7,147.9,774.0,255.3,-1718.7,-4741.8,5608.2,-116.4,-6.9,-5.7,-506.7,224.1,-0.3,124.8,-928.5,-1057.2,0,1080,268435456,40,0, 
0.6033,-493.5,-935.1,-577.8,268.8,-446.7,-201.6,408.9,-826.8,-6446.7,142.5,770.4,234.0,-1711.5,-4610.4,-882.9,-111.9,-6.9,-5.7,-506.4,202.5,-0.6,102.0,-697.2,-1029.9,0,1086,268435456,41,0, 
0.6067,-494.7,-960.0,-600.9,247.2,-470.1,-172.5,401.7,-820.2,23119.2,115.2,754.2,212.4,-1720.2,-4409.1,5704.8,-101.4,-6.6,-5.7,-519.0,185.7,-0.3,74.1,-257.7,-973.5,0,1092,268435456,42,0, 
0.6100,-497.4,-968.1,-612.0,238.5,-477.6,-176.1,393.9,-827.1,35790.3,108.9,743.7,210.6,-1744.5,-4401.6,9830.1,-111.6,-6.9,-5.4,-528.9,181.5,-0.6,69.6,-232.8,-976.8,0,1098,268435456,43,0, 
0.6133,-492.6,-948.3,-591.3,256.2,-454.8,-208.2,395.7,-836.4,14301.3,136.5,766.5,233.1,-1734.9,-4600.5,9830.1,-120.9,-6.9,-5.7,-509.7,199.8,-0.9,100.5,-650.4,-1037.1,0,1104,0,44,0, 
0.6167,-489.0,-927.9,-576.0,275.1,-435.3,-223.5,402.9,-834.9,-11559.6,157.8,778.5,250.2,-1712.1,-4727.7,6029.4,-129.3,-6.6,-5.7,-502.2,216.9,-0.9,117.9,-948.6,-1069.2,0,1110,268435456,45,0, 
0.6200,-485.1,-934.2,-585.0,267.6,-449.7,-196.8,412.2,-826.2,-5779.8,143.7,759.0,229.5,-1698.9,-4604.1,-394.5,-116.7,-6.6,-6.0,-510.3,198.3,-0.6,107.7,-701.4,-1032.3,0,1116,268435456,46,0, 
0.6233,-492.6,-962.1,-611.1,240.9,-480.0,-161.7,404.1,-826.2,23637.9,115.5,735.9,201.3,-1724.1,-4396.5,6113.1,-104.1,-6.6,-6.0,-531.6,177.6,-0.6,78.9,-265.5,-965.1,0,1122,268435456,47,0, 
0.6267,-493.5,-965.4,-612.9,231.9,-480.0,-177.9,393.3,-834.3,36234.9,117.9,738.3,203.1,-1738.2,-4387.8,9830.1,-108.3,-6.9,-6.0,-527.7,181.5,-0.9,80.7,-236.7,-967.2,0,1128,268435456,48,0, 
0.6300,-491.4,-940.5,-589.5,254.7,-453.3,-206.7,393.6,-840.6,14745.9,145.5,762.0,232.2,-1729.8,-4596.0,9830.1,-121.5,-6.3,-5.7,-504.0,207.6,-0.9,115.5,-656.7,-1027.2,0,1134,268435456,49,0, 
0.6333,-487.5,-922.5,-570.0,272.1,-435.3,-223.2,401.1,-841.5,-10892.7,168.0,783.6,248.7,-1707.3,-4720.8,6361.5,-121.2,-7.2,-6.0,-483.3,222.0,-0.9,131.1,-956.4,-1064.1,0,1140,268435456,50,0, 
0.6367,-483.6,-925.2,-575.4,266.1,-445.5,-201.3,403.8,-830.4,-5483.4,158.4,774.6,237.6,-1701.3,-4586.1,-29.1,-104.4,-6.9,-5.7,-490.5,209.7,-0.9,118.8,-712.2,-1023.6,0,1146,268435456,51,0, 
0.6400,-486.6,-954.6,-603.6,239.4,-472.5,-168.9,399.9,-827.7,23934.3,130.2,744.3,209.1,-1713.6,-4371.3,6393.3,-96.3,-7.2,-5.7,-513.6,184.8,-0.3,84.9,-274.5,-960.3,0,1152,268435456,52,0, 
0.6433,-485.7,-956.4,-610.5,234.6,-477.0,-169.5,393.9,-831.9,36753.6,134.4,742.2,203.4,-1721.4,-4354.5,9830.1,-97.8,-6.6,-6.0,-520.5,178.5,-0.6,75.6,-237.0,-961.8,0,1158,268435456,53,0, 
0.6467,-481.5,-937.2,-582.6,257.7,-449.7,-207.6,394.2,-838.8,14968.2,166.2,772.8,237.0,-1713.3,-4542.3,9830.1,-104.7,-6.9,-6.0,-491.7,207.6,-0.9,102.6,-653.4,-1016.1,0,1164,268435456,54,0, 
0.6500,-476.7,-914.7,-566.4,276.0,-432.0,-217.2,404.1,-840.6,-10744.5,180.6,786.0,252.0,-1696.8,-4669.5,6560.7,-108.3,-7.2,-5.4,-481.2,218.7,-0.6,120.9,-939.9,-1056.9,0,1170,268435456,55,0, 
0.6533,-474.6,-923.1,-576.3,265.8,-445.5,-201.9,409.2,-831.3,-5187.0,171.3,772.2,235.5,-1689.3,-4536.0,222.9,-100.2,-6.6,-5.7,-492.3,206.7,-0.9,105.3,-708.9,-1020.3,0,1176,268435456,56,0, 
0.6567,-480.0,-951.6,-605.1,242.7,-473.1,-170.4,405.3,-827.7,24230.7,139.8,738.3,207.9,-1710.3,-4332.3,6555.9,-89.4,-6.9,-6.0,-524.7,184.5,-0.6,75.0,-265.2,-960.6,0,1182,268435456,57,0, 
0.6600,-480.3,-960.6,-615.0,230.7,-480.0,-168.9,402.0,-835.5,36605.4,126.9,732.9,198.9,-1736.1,-4329.6,9830.1,-82.2,-7.2,-5.7,-530.7,176.1,-0.9,71.1,-225.0,-956.1,0,1188,268435456,58,0, 
0.6633,-475.8,-937.2,-587.7,258.3,-449.7,-193.8,405.6,-838.8,14968.2,157.8,768.3,232.5,-1733.4,-4522.2,9830.1,-95.7,-6.6,-6.0,-499.5,203.1,-0.6,114.3,-644.7,-1014.0,0,1194,268435456,59,0, 
0.6667,-468.3,-916.8,-571.8,274.2,-432.9,-217.2,411.3,-839.7,-10966.8,164.1,777.6,251.4,-1708.2,-4639.5,6547.5,-94.8,-6.9,-5.7,-492.0,217.2,-0.9,128.1,-920.4,-1053.0,0,1200,268435456,60,0, 
0.6700,-468.9,-921.3,-576.0,275.4,-439.5,-186.9,416.7,-823.5,-5112.9,159.3,773.7,247.5,-1698.6,-4517.4,220.2,-94.5,-6.9,-5.7,-492.9,213.6,-1.2,127.2,-676.2,-1011.3,0,1206,268435456,61,0, 
0.6733,-472.8,-940.5,-593.1,252.6,-459.3,-155.4,413.4,-819.0,24304.8,137.1,755.1,224.4,-1700.7,-4307.7,6604.8,-90.0,-6.6,-6.0,-504.3,195.3,-0.6,104.1,-249.6,-952.8,0,1212,268435456,62,0, 
0.6767,-472.5,-948.6,-594.9,248.4,-463.5,-162.9,404.7,-827.1,36753.6,138.9,753.6,219.9,-1721.4,-4302.9,9830.1,-93.3,-6.9,-5.4,-507.0,194.7,-0.9,99.6,-228.3,-952.5,0,1218,268435456,63,0, 
0.6800,-471.0,-930.3,-578.4,264.9,-444.0,-191.7,403.2,-835.8,14894.1,155.1,773.1,241.2,-1727.7,-4508.4,9830.1,-100.2,-6.6,-6.0,-494.4,211.2,0.0,112.8,-636.9,-1013.4,0,1224,268435456,64,0, 
0.6833,-470.7,-915.9,-561.6,282.9,-423.0,-209.7,417.0,-836.1,-11040.9,161.4,789.3,261.9,-1711.5,-4639.2,6561.6,-107.1,-6.9,-6.0,-483.3,227.7,-0.6,133.5,-923.4,-1046.4,0,1230,268435456,65,0, 
0.6867,-468.0,-921.0,-569.1,276.9,-434.1,-189.6,417.0,-826.2,-5038.8,155.1,777.9,249.0,-1685.4,-4520.1,330.6,-96.9,-6.6,-6.0,-488.4,215.4,-0.6,121.8,-710.1,-1014.9,0,1236,268435456,66,0, 
0.6900,-468.9,-947.4,-595.8,256.2,-453.9,-146.7,419.1,-821.7,24453.0,134.1,753.0,225.3,-1697.7,-4310.4,6673.8,-89.1,-6.6,-5.7,-502.8,205.5,-1.2,97.2,-260.4,-941.7,0,1242,268435456,67,0, 
0.6933,-463.5,-946.5,-592.8,252.0,-460.8,-150.0,416.1,-825.9,36605.4,140.4,761.1,223.5,-1701.3,-4282.2,9830.1,-86.7,-6.9,-5.7,-494.1,195.3,-1.2,100.2,-213.3,-946.5,0,1248,268435456,68,0, 
0.6967,-460.5,-925.5,-572.4,275.4,-433.5,-184.8,418.8,-830.7,14894.1,170.4,781.5,249.3,-1703.1,-4487.1,9830.1,-93.6,-6.9,-6.0,-476.7,221.4,-0.6,126.3,-628.2,-1001.1,0,1254,268435456,69,0, 
0.7000,-455.4,-903.3,-552.9,291.3,-413.1,-198.6,433.2,-830.4,-10818.6,186.3,794.4,266.4,-1683.3,-4618.2,6647.1,-87.9,-6.6,-6.0,-462.3,236.4,-0.9,149.1,-916.5,-1038.3,0,1260,268435456,70,0, 
0.7033,-458.1,-916.8,-561.3,287.1,-423.3,-177.9,437.7,-821.4,-5038.8,174.0,786.0,257.4,-1671.9,-4491.9,355.8,-84.0,-6.9,-6.3,-471.0,224.1,-0.6,135.0,-684.6,-1000.8,0,1266,268435456,71,0, 
0.7067,-458.1,-935.7,-584.7,258.0,-451.8,-146.4,433.2,-822.6,24230.7,140.4,760.5,225.9,-1682.1,-4283.1,6684.3,-72.6,-7.2,-5.7,-492.6,198.3,-0.6,101.4,-251.7,-942.6,0,1272,268435456,72,0, 
0.7100,-459.3,-943.2,-585.9,261.3,-452.1,-153.3,427.2,-823.5,36531.3,150.9,760.2,227.4,-1690.5,-4273.5,9830.1,-79.2,-7.2,-6.0,-492.6,203.7,-0.9,108.9,-222.0,-940.2,0,1278,268435456,73,0, 
0.7133,-453.6,-919.5,-561.6,281.7,-423.9,-182.1,427.2,-829.8,14597.7,172.5,777.9,260.4,-1699.2,-4473.9,9830.1,-86.7,-6.6,-5.7,-473.7,233.4,-0.9,135.9,-633.3,-994.5,0,1284,268435456,74,0, 
0.7167,-449.7,-895.5,-544.5,297.9,-408.6,-200.4,435.9,-829.2,-11263.2,195.3,802.2,281.1,-1679.1,-4597.5,6511.5,-83.4,-7.2,-6.0,-456.0,243.0,-0.9,155.7,-924.0,-1035.9,0,1290,268435456,75,0, 
0.7200,-450.0,-902.7,-552.9,290.1,-419.7,-176.7,441.9,-815.4,-5335.2,177.6,789.6,260.4,-1674.3,-4476.0,161.7,-79.8,-6.6,-5.7,-463.5,227.1,-0.6,142.8,-683.4,-996.0,0,1296,268435456,76,0, 
0.7233,-455.4,-929.4,-583.2,262.5,-447.0,-140.7,438.6,-815.1,24156.6,147.6,758.4,231.6,-1689.6,-4277.4,6545.4,-72.9,-6.9,-5.7,-492.3,207.0,-0.6,114.6,-246.3,-940.8,0,1302,268435456,77,0, 
0.7267,-459.9,-940.2,-587.1,257.7,-446.1,-140.1,433.5,-820.8,36531.3,141.0,757.8,234.9,-1710.3,-4279.2,9830.1,-71.4,-6.6,-6.0,-494.1,210.9,-0.6,112.8,-222.6,-935.4,0,1308,268435456,78,0, 
0.7300,-451.8,-912.9,-559.5,278.4,-417.3,-175.2,433.2,-827.4,14375.4,171.3,780.9,258.0,-1715.4,-4482.3,9830.1,-84.0,-6.6,-6.0,-467.1,231.9,-0.6,131.4,-640.2,-992.4,0,1314,268435456,79,0, 
0.7333,-449.4,-892.2,-537.3,304.2,-397.2,-184.5,445.8,-819.3,-11411.4,196.8,805.2,279.3,-1703.4,-4602.3,6407.7,-86.7,-6.9,-5.7,-445.8,247.5,-0.6,160.5,-926.7,-1023.0,0,1320,268435456,80,0, 
0.7367,-449.7,-897.9,-546.6,296.7,-410.1,-166.2,444.6,-817.2,-5779.8,185.1,792.6,267.3,-1685.7,-4469.4,-44.1,-76.8,-7.2,-5.7,-457.8,237.6,-0.6,140.4,-674.7,-989.7,0,1326,268435456,81,0, 
0.7400,-456.3,-928.2,-577.2,265.8,-442.5,-147.0,437.1,-817.5,23786.1,147.9,764.4,235.2,-1703.1,-4289.7,6418.2,-65.4,-6.9,-5.7,-483.0,210.3,-0.6,116.7,-251.1,-936.6,0,1332,268435456,82,0, 
0.7433,-456.3,-937.5,-585.0,259.5,-444.0,-141.3,430.2,-825.6,36012.6,148.2,759.6,231.0,-1717.2,-4282.8,9830.1,-64.5,-6.9,-5.7,-490.2,207.0,-0.3,103.2,-213.6,-934.2,0,1338,268435456,83,0, 
0.7467,-449.4,-909.9,-558.3,285.3,-414.6,-172.2,434.7,-827.7,14153.1,175.2,792.0,268.2,-1710.6,-4482.6,9830.1,-77.1,-6.6,-6.0,-465.6,235.2,-1.2,141.9,-635.7,-986.1,0,1344,268435456,84,0, 
0.7500,-444.6,-886.8,-531.0,313.2,-393.6,-181.2,442.8,-822.9,-11633.7,199.2,817.2,285.6,-1690.5,-4599.6,6209.4,-82.2,-6.9,-5.7,-439.2,252.3,-0.9,159.3,-907.2,-1020.9,0,1350,268435456,85,0, 
0.7533,-449.4,-903.3,-550.2,296.1,-406.8,-165.9,441.9,-820.5,-5779.8,171.6,791.7,265.8,-1689.6,-4488.6,-180.6,-73.2,-6.6,-6.0,-462.3,238.8,-1.2,140.7,-680.1,-993.0,0,1356,268435456,86,0, 
0.7567,-450.6,-929.1,-574.2,274.5,-435.6,-132.6,436.2,-813.0,23712.0,147.6,768.0,241.5,-1701.3,-4284.9,6285.0,-63.9,-7.2,-6.3,-480.0,217.5,-0.3,117.9,-235.8,-931.8,0,1362,268435456,87,0, 
0.7600,-453.9,-931.8,-580.2,265.5,-440.4,-137.1,428.4,-823.8,35938.5,140.7,765.0,234.0,-1721.7,-4284.6,9830.1,-64.5,-6.9,-6.0,-488.7,212.7,0.0,113.1,-204.6,-927.0,0,1368,268435456,88,0, 
0.7633,-449.1,-911.4,-560.4,285.0,-415.5,-167.4,427.2,-832.8,14153.1,177.3,789.0,257.4,-1719.3,-4477.8,9830.1,-72.3,-6.9,-5.7,-468.0,233.7,-0.6,136.8,-621.3,-988.2,0,1374,268435456,89,0, 
0.7667,-443.7,-889.8,-543.9,302.7,-396.9,-183.0,432.0,-830.7,-11707.8,194.1,805.8,280.2,-1699.8,-4606.8,6160.5,-78.6,-7.2,-5.7,-452.1,250.5,-0.9,157.8,-907.8,-1022.1,0,1380,268435456,90,0, 
0.7700,-444.0,-896.4,-547.2,301.8,-402.0,-155.7,438.9,-816.6,-5779.8,188.4,799.2,270.3,-1687.8,-4490.7,-234.9,-72.0,-6.6,-6.0,-456.3,250.5,-0.6,150.3,-671.1,-984.3,0,1386,268435456,91,0, 
0.7733,-448.8,-919.8,-578.4,275.1,-431.7,-126.6,436.8,-815.1,23563.8,160.2,768.0,240.6,-1703.1,-4280.1,6243.3,-57.0,-6.6,-5.7,-478.2,221.1,0.0,122.4,-239.4,-923.7,0,1392,268435456,92,0, 
0.7767,-450.9,-925.5,-578.4,271.2,-430.5,-118.8,433.2,-818.4,35938.5,155.7,771.0,240.0,-1719.6,-4284.3,9830.1,-58.2,-6.9,-5.7,-472.5,225.6,-0.6,111.9,-227.7,-928.5,0,1398,268435456,93,0, 
0.7800,-443.1,-900.6,-556.2,294.3,-408.3,-168.9,432.9,-825.3,13782.6,181.8,796.5,265.5,-1717.8,-4483.5,9830.1,-67.5,-6.9,-5.7,-453.3,242.4,-0.3,148.5,-647.7,-981.6,0,1404,268435456,94,0, 
0.7833,-442.5,-882.0,-540.9,307.8,-390.9,-181.5,440.7,-825.0,-11856.0,192.9,802.2,279.3,-1698.6,-4620.0,6068.1,-71.7,-6.9,-5.7,-446.1,256.2,-0.6,159.0,-935.7,-1023.9,0,1410,268435456,95,0, 
0.7867,-437.4,-892.2,-546.9,303.9,-400.2,-153.6,444.0,-814.5,-6224.4,187.8,799.2,273.0,-1678.8,-4492.5,-363.0,-61.2,-6.9,-5.7,-448.8,248.4,-0.6,148.8,-677.7,-976.8,0,1416,268435456,96,0, 
0.7900,-444.6,-919.5,-573.9,275.7,-431.7,-127.8,443.1,-812.4,23341.5,154.5,768.9,238.5,-1695.3,-4296.3,6126.3,-53.1,-6.9,-6.3,-473.7,221.4,-0.6,115.2,-247.2,-922.5,0,1422,268435456,97,0, 
0.7933,-442.5,-917.7,-576.3,273.0,-429.9,-127.8,439.2,-813.6,35642.1,152.1,765.0,238.2,-1710.6,-4291.8,9830.1,-53.7,-6.9,-5.7,-474.6,226.5,-0.3,111.9,-208.5,-922.2,0,1428,268435456,98,0, 
0.7967,-437.1,-894.9,-550.5,295.5,-404.4,-154.8,442.2,-819.0,13708.5,190.8,797.1,273.0,-1704.3,-4491.0,9830.1,-65.7,-6.9,-6.0,-451.5,250.2,-0.9,147.3,-639.3,-982.8,0,1434,268435456,99,0, 
0.8000,-435.3,-873.3,-535.8,311.7,-387.0,-172.5,443.4,-822.0,-12300.6,192.3,808.5,285.9,-1691.4,-4622.1,5879.7,-72.3,-6.6,-5.7,-437.7,261.0,-0.9,158.1,-927.9,-1016.4,0,1440,268435456,100,0, 
0.8033,-434.1,-888.3,-546.3,303.6,-403.2,-156.3,447.6,-813.3,-6150.3,183.9,793.8,270.6,-1687.5,-4487.7,-529.8,-58.5,-6.0,-6.0,-445.8,245.1,-0.6,148.2,-678.6,-975.9,0,1446,268435456,101,0, 
0.8067,-435.6,-908.7,-569.4,286.2,-426.6,-122.1,439.5,-808.5,23119.2,160.2,772.2,247.2,-1702.8,-4285.2,5955.0,-51.9,-6.6,-6.3,-459.0,232.8,-0.6,123.6,-221.7,-913.2,0,1452,268435456,102,0, 
0.8100,-438.6,-918.9,-573.9,275.4,-435.3,-123.6,434.7,-816.9,35419.8,156.9,770.1,236.4,-1717.8,-4286.1,9830.1,-53.4,-6.9,-6.3,-469.5,223.2,-0.9,122.4,-208.5,-918.6,0,1458,268435456,103,0, 
0.8133,-437.4,-895.5,-554.1,296.4,-410.1,-162.0,433.8,-828.0,13560.3,181.5,794.1,266.1,-1714.8,-4490.1,9830.1,-62.7,-6.9,-5.7,-454.2,245.1,-0.3,142.5,-623.7,-978.9,0,1464,268435456,104,0, 
0.8167,-440.1,-885.9,-540.3,311.4,-395.7,-182.4,438.0,-833.4,-11856.0,196.8,803.4,275.1,-1700.4,-4629.3,5854.5,-69.0,-6.6,-6.0,-447.9,253.8,-0.9,157.2,-925.2,-1020.3,0,1470,268435456,105,0, 
0.8200,-434.1,-891.0,-546.6,305.4,-404.1,-155.4,443.1,-822.3,-6150.3,185.4,796.8,267.3,-1681.5,-4503.3,-542.7,-62.7,-6.9,-6.3,-457.8,242.4,-0.6,144.0,-674.1,-979.8,0,1476,268435456,106,0, 
0.8233,-438.0,-913.5,-570.0,280.8,-433.5,-123.0,435.3,-814.8,23267.4,158.1,771.3,240.6,-1689.6,-4297.5,5984.4,-57.0,-6.9,-5.7,-473.1,215.7,-1.2,111.9,-244.5,-922.5,0,1482,268435456,107,0, 
0.8267,-440.4,-919.2,-574.2,275.1,-434.4,-132.0,429.3,-819.6,35419.8,166.8,769.8,237.0,-1698.0,-4299.0,9830.1,-66.6,-7.2,-6.0,-474.9,217.5,-0.3,117.0,-213.0,-923.7,0,1488,268435456,108,0, 
0.8300,-440.4,-900.3,-552.3,293.1,-412.5,-167.4,432.6,-825.0,13560.3,186.0,791.1,261.6,-1706.4,-4508.4,9830.1,-74.1,-6.9,-6.0,-457.5,237.3,-0.9,141.3,-636.3,-981.0,0,1494,268435456,109,0, 
0.8333,-435.9,-876.3,-535.8,312.0,-390.3,-178.2,442.2,-824.1,-12152.4,205.2,812.7,284.1,-1695.9,-4635.0,5855.1,-75.3,-7.2,-5.7,-441.9,258.3,-0.6,159.6,-924.3,-1015.8,0,1500,268435456,110,0, 
0.8367,-433.2,-891.3,-549.0,303.3,-406.8,-150.9,444.6,-814.5,-6002.1,183.9,796.8,267.0,-1685.7,-4492.2,-585.6,-57.3,-6.9,-6.3,-455.7,243.6,-0.6,141.0,-659.1,-974.1,0,1506,268435456,111,0, 
0.8400,-436.5,-913.2,-570.9,281.1,-429.3,-123.3,441.9,-810.9,23267.4,161.1,777.0,243.0,-1694.4,-4302.3,6023.4,-54.9,-6.9,-6.3,-472.5,228.6,-0.6,124.2,-228.0,-915.6,0,1512,268435456,112,0, 
0.8433,-438.9,-921.6,-575.7,276.6,-433.2,-126.0,440.7,-815.4,35493.9,153.6,779.1,238.2,-1718.1,-4305.0,9830.1,-55.5,-6.9,-5.7,-472.5,218.4,-0.9,114.6,-199.2,-913.8,0,1518,268435456,113,0, 
0.8467,-434.4,-895.5,-552.9,298.5,-407.4,-158.1,441.9,-823.8,13560.3,195.3,800.4,267.9,-1711.5,-4502.1,9830.1,-73.2,-6.6,-5.7,-454.2,244.2,-1.2,146.7,-619.8,-974.7,0,1524,268435456,114,0, 
0.8500,-433.8,-880.5,-538.5,312.3,-394.2,-173.7,445.8,-825.0,-12004.2,207.6,811.8,285.6,-1692.3,-4631.7,5879.7,-79.8,-7.2,-5.7,-443.7,262.2,-0.6,166.2,-907.8,-1013.1,0,1530,268435456,115,0, 
0.8533,-431.1,-888.9,-545.1,308.4,-400.8,-156.3,449.7,-814.2,-5928.0,192.6,810.9,276.3,-1677.0,-4498.5,-521.7,-67.8,-6.6,-5.7,-444.9,255.6,-0.9,156.6,-669.9,-973.2,0,1536,268435456,116,0, 
0.8567,-437.7,-911.4,-569.4,282.6,-434.1,-126.9,445.8,-808.2,23415.6,160.5,779.7,243.6,-1690.5,-4299.3,6046.8,-61.2,-6.9,-6.0,-469.5,226.2,-0.9,126.0,-230.7,-915.9,0,1542,268435456,117,0, 
0.8600,-439.8,-922.5,-574.8,276.0,-435.6,-131.4,442.8,-810.9,35419.8,159.0,772.5,244.2,-1704.6,-4298.1,9830.1,-55.8,-6.6,-5.7,-477.0,228.9,-0.6,121.8,-201.9,-919.2,0,1548,268435456,118,0, 
0.8633,-440.1,-896.7,-552.9,297.0,-410.4,-157.5,446.4,-819.0,13708.5,184.8,803.4,269.4,-1709.1,-4515.0,9830.1,-67.2,-6.6,-5.7,-454.8,245.1,-0.6,147.0,-632.1,-981.3,0,1554,268435456,119,0, 
0.8667,-431.7,-875.4,-528.9,315.3,-391.8,-177.9,453.0,-813.9,-12004.2,210.9,821.7,286.8,-1674.0,-4639.8,5845.2,-73.2,-6.9,-5.4,-436.8,262.8,-0.6,164.4,-938.4,-1016.7,0,1560,268435456,120,0, 
0.8700,-434.1,-886.8,-541.8,305.1,-404.7,-149.4,453.0,-803.1,-6076.2,193.2,806.4,275.7,-1670.7,-4514.1,-542.4,-62.1,-6.9,-5.7,-447.0,254.4,-0.6,153.0,-680.1,-971.4,0,1566,268435456,121,0, 
0.8733,-436.2,-911.4,-564.3,284.4,-428.1,-117.3,446.7,-801.3,23415.6,171.3,785.4,249.9,-1678.8,-4290.3,6033.3,-57.0,-6.6,-5.7,-459.0,230.4,-0.6,119.4,-247.8,-919.5,0,1572,268435456,122,0, 
0.8767,-436.8,-916.2,-566.7,282.9,-428.1,-114.6,445.8,-801.6,35123.4,172.2,783.6,252.6,-1701.3,-4287.0,9830.1,-52.8,-6.9,-6.3,-457.2,236.1,-0.6,124.2,-202.2,-915.0,0,1578,268435456,123,0, 
0.8800,-430.2,-889.5,-539.7,306.0,-400.2,-142.8,448.5,-807.3,13560.3,204.3,807.9,283.2,-1698.6,-4494.6,9830.1,-60.9,-6.6,-5.7,-434.4,258.6,-0.6,159.3,-641.1,-977.1,0,1584,268435456,124,0, 
0.8833,-431.7,-873.3,-524.1,320.4,-385.5,-168.6,453.9,-806.7,-12152.4,219.6,828.3,296.7,-1684.2,-4642.5,5782.5,-66.3,-6.6,-6.0,-422.1,269.1,-0.6,174.0,-927.9,-1008.9,0,1590,268435456,125,0, 
0.8867,-428.1,-875.7,-532.5,313.5,-396.9,-139.8,459.3,-795.6,-6150.3,207.0,813.6,281.4,-1666.5,-4504.8,-587.4,-53.1,-6.9,-6.0,-433.5,256.8,-1.2,157.5,-674.7,-970.8,0,1596,268435456,126,0, 
0.8900,-434.4,-914.1,-562.5,283.2,-430.5,-123.0,450.9,-793.2,23193.3,170.4,783.9,247.5,-1677.3,-4292.4,5980.8,-46.8,-6.9,-6.0,-458.7,229.2,-0.3,128.7,-228.3,-910.8,0,1602,268435456,127,0, 
0.8933,-435.9,-914.7,-571.8,276.6,-432.3,-126.3,444.9,-798.6,35419.8,171.3,780.6,248.4,-1696.2,-4296.3,9830.1,-50.1,-6.6,-5.7,-463.5,232.8,-0.6,125.7,-208.2,-909.9,0,1608,268435456,128,0, 
0.8967,-432.3,-891.6,-543.0,299.7,-402.9,-154.2,449.1,-801.9,13263.9,204.3,810.6,280.5,-1690.8,-4503.0,9830.1,-66.3,-7.2,-6.0,-435.3,259.2,-0.6,163.2,-625.5,-966.6,0,1614,268435456,129,0, 
0.9000,-429.6,-864.0,-522.0,329.7,-379.2,-162.0,460.2,-794.7,-12300.6,224.1,834.6,301.8,-1674.9,-4631.1,5755.5,-72.3,-7.2,-5.7,-418.2,276.0,-1.2,183.3,-907.8,-997.8,0,1620,268435456,130,0, 
0.9033,-427.5,-875.4,-537.6,317.7,-392.4,-133.5,465.6,-788.1,-6224.4,201.3,817.5,286.5,-1665.0,-4491.0,-680.7,-61.5,-6.9,-6.0,-429.6,263.7,-0.3,163.8,-654.3,-955.5,0,1626,268435456,131,0, 
0.9067,-430.5,-900.6,-556.5,296.7,-419.1,-110.7,461.1,-779.7,23415.6,184.5,792.3,261.6,-1675.5,-4287.9,5956.8,-52.8,-6.6,-5.7,-449.4,243.3,-1.2,134.7,-227.7,-896.7,0,1632,268435456,132,0, 
0.9100,-432.6,-912.0,-561.6,286.8,-426.6,-112.8,458.7,-789.3,35419.8,175.5,788.1,255.9,-1693.8,-4295.7,9830.1,-49.2,-6.6,-6.0,-451.5,236.4,-0.3,130.5,-199.8,-897.6,0,1638,268435456,133,0, 
0.9133,-431.7,-883.5,-540.3,308.1,-402.3,-145.2,461.4,-795.6,13263.9,203.7,812.1,281.7,-1694.1,-4506.6,9830.1,-64.2,-6.6,-5.7,-433.8,256.5,-0.6,156.9,-631.8,-960.9,0,1644,268435456,134,0, 
0.9167,-430.8,-872.7,-519.6,324.0,-385.2,-168.3,464.4,-794.7,-12226.5,218.1,829.2,297.3,-1667.1,-4633.5,5707.8,-67.5,-6.9,-5.7,-419.4,273.9,-0.6,177.9,-927.3,-1001.4,0,1650,268435456,135,0, 
0.9200,-431.4,-874.5,-527.1,320.7,-392.1,-136.2,467.1,-784.5,-5853.9,215.4,819.9,288.9,-1650.6,-4512.3,-598.2,-64.2,-6.9,-5.7,-431.1,267.6,-0.6,168.0,-694.5,-956.7,0,1656,268435456,136,0, 
0.9233,-432.9,-905.1,-549.9,293.7,-423.3,-116.4,459.6,-780.6,23489.7,189.6,794.4,256.8,-1658.7,-4305.0,6018.9,-51.9,-7.2,-6.0,-452.1,238.5,-0.3,141.0,-248.1,-900.9,0,1662,268435456,137,0, 
0.9267,-433.5,-912.6,-561.6,287.4,-426.0,-118.2,452.7,-782.1,35271.6,180.3,789.0,252.0,-1687.2,-4305.9,9830.1,-54.9,-6.9,-6.3,-463.5,235.8,-0.6,136.5,-222.6,-906.0,0,1668,268435456,138,0, 
0.9300,-433.8,-902.1,-557.1,297.0,-412.8,-150.9,453.6,-793.5,13115.7,190.2,781.2,263.4,-1696.2,-4517.1,9830.1,-62.4,-6.6,-5.7,-480.3,245.7,-0.3,156.3,-646.5,-966.3,0,1674,268435456,139,0, 
0.9333,-434.1,-882.3,-543.6,306.6,-402.0,-171.6,459.0,-791.7,-12448.8,204.9,772.5,258.9,-1685.1,-4643.4,5625.3,-70.2,-6.9,-6.0,-486.9,249.3,-0.9,172.5,-926.4,-1008.3,0,1680,268435456,140,0, 
0.9367,-428.4,-880.8,-528.6,316.8,-402.9,-141.3,465.0,-779.1,-6150.3,201.6,816.3,272.7,-1665.9,-4509.0,-750.6,-60.3,-6.9,-5.7,-433.8,246.9,-0.9,166.5,-679.2,-969.0,0,1686,268435456,141,0, 
0.9400,-427.5,-901.5,-540.3,305.4,-419.1,-108.6,462.9,-767.7,23119.2,186.3,832.5,271.5,-1663.2,-4311.0,5891.4,-48.6,-6.6,-5.7,-420.6,237.6,-0.3,143.4,-246.9,-905.1,0,1692,268435456,142,0, 
0.9433,-429.9,-911.1,-558.0,291.9,-429.3,-125.1,455.1,-776.7,34975.2,180.6,796.5,256.5,-1675.2,-4301.4,9830.1,-51.0,-6.9,-5.4,-453.9,234.3,-0.6,141.9,-226.8,-903.3,0,1698,268435456,143,0, 
0.9467,-431.4,-893.1,-539.7,312.3,-405.0,-149.7,458.4,-783.3,12671.1,197.1,813.9,277.2,-1684.8,-4510.8,9830.1,-61.5,-6.9,-5.4,-445.5,252.6,-0.6,162.3,-642.6,-971.4,0,1704,268435456,144,0, 
0.9500,-431.4,-872.1,-515.4,331.2,-382.8,-166.2,462.9,-781.8,-12819.3,220.5,850.2,311.4,-1659.3,-4642.2,5472.6,-66.6,-7.2,-6.0,-415.8,275.4,-0.6,182.4,-920.1,-1004.7,0,1710,268435456,145,0, 
0.9533,-430.2,-882.0,-525.9,327.0,-394.5,-137.4,467.1,-770.7,-6372.6,195.0,840.3,299.7,-1654.2,-4512.6,-917.7,-54.0,-6.9,-6.0,-422.4,267.9,-0.9,164.1,-675.6,-965.7,0,1716,268435456,146,0, 
0.9567,-432.3,-907.2,-554.7,296.4,-424.8,-115.2,460.8,-766.8,22971.0,170.4,803.1,261.9,-1665.3,-4317.3,5742.3,-47.7,-6.9,-5.7,-456.0,240.6,-0.6,135.0,-243.3,-909.3,0,1722,268435456,147,0, 
0.9600,-437.7,-915.0,-564.9,291.0,-431.4,-117.3,455.4,-770.7,34752.9,168.0,807.9,264.0,-1692.9,-4317.6,9830.1,-51.6,-7.2,-6.0,-458.1,240.0,-0.6,132.3,-217.5,-914.1,0,1728,268435456,148,0, 
0.9633,-433.2,-888.9,-539.4,317.4,-400.2,-145.5,457.5,-775.2,12374.7,200.4,831.3,300.3,-1687.2,-4519.8,9830.1,-63.0,-7.2,-6.0,-436.8,268.5,-0.9,164.4,-639.3,-970.2,0,1734,268435456,149,0, 
0.9667,-430.2,-874.8,-529.2,328.5,-384.6,-167.4,467.4,-775.5,-13041.6,211.2,832.8,307.2,-1666.2,-4649.7,5269.2,-62.1,-6.6,-6.0,-432.3,276.3,-0.9,180.3,-922.2,-1002.6,0,1740,268435456,150,0, 
0.9700,-430.8,-881.4,-533.7,319.5,-394.8,-138.6,472.2,-766.8,-6891.3,204.6,824.4,291.9,-1655.4,-4522.5,-1200.9,-54.9,-7.2,-5.7,-434.7,263.4,-0.9,168.0,-668.1,-954.9,0,1746,268435456,151,0, 
0.9733,-432.0,-908.7,-559.5,297.3,-425.4,-110.1,463.2,-758.7,22452.3,184.5,795.9,265.5,-1682.4,-4326.0,5476.2,-46.8,-7.2,-5.7,-462.6,240.3,-0.6,139.5,-239.1,-901.2,0,1752,268435456,152,0, 
0.9767,-432.6,-907.8,-564.9,289.2,-426.9,-111.3,457.2,-763.5,34382.4,178.8,789.6,258.9,-1693.5,-4332.0,9830.1,-54.0,-6.9,-5.7,-468.6,234.3,-0.9,141.3,-225.6,-898.8,0,1758,268435456,153,0, 
0.9800,-428.1,-894.0,-542.4,309.3,-403.8,-146.4,454.2,-771.6,12226.5,205.8,813.3,286.5,-1691.7,-4546.2,9830.1,-57.9,-6.9,-6.0,-450.6,255.9,-1.2,166.2,-658.2,-963.3,0,1764,268435456,154,0, 
0.9833,-428.1,-875.1,-526.8,326.4,-386.1,-160.2,461.7,-774.0,-13412.1,220.8,830.1,303.6,-1678.5,-4675.5,5020.2,-61.5,-7.2,-5.4,-432.6,271.8,-0.9,185.4,-931.2,-998.7,0,1770,268435456,155,0, 
0.9867,-430.5,-888.3,-542.7,310.2,-402.9,-138.6,465.3,-762.9,-7039.5,204.6,811.2,281.1,-1673.4,-4541.4,-1416.3,-54.0,-6.9,-6.0,-445.2,252.6,-0.6,163.8,-683.7,-962.4,0,1776,268435456,156,0, 
0.9900,-432.9,-910.5,-565.5,288.0,-428.7,-117.3,458.7,-756.6,22007.7,176.7,788.7,253.5,-1677.6,-4349.1,5260.8,-43.8,-6.9,-5.7,-471.3,228.9,-0.9,137.4,-245.1,-904.2,0,1782,268435456,157,0, 
0.9933,-433.8,-918.9,-566.7,282.9,-431.1,-118.2,452.1,-760.2,33715.5,173.7,790.2,254.7,-1701.9,-4351.8,9830.1,-48.6,-6.9,-6.0,-471.6,228.9,-0.6,135.6,-211.8,-905.4,0,1788,268435456,158,0, 
0.9967,-435.3,-897.6,-540.3,302.4,-410.7,-155.1,450.3,-767.1,11411.4,202.2,813.3,279.0,-1705.8,-4568.7,9830.1,-60.3,-6.9,-5.7,-450.9,251.7,-0.9,162.9,-645.0,-966.6,0,1794,268435456,159,0, 
1.0000,-429.0,-879.3,-525.0,324.0,-388.5,-167.1,458.7,-761.4,-13782.6,218.7,826.8,294.0,-1680.9,-4699.8,4623.3,-60.0,-6.9,-5.7,-440.7,261.3,-0.6,172.5,-933.0,-1002.6,0,1800,268435456,160,0, 
1.0033,-429.0,-886.5,-533.7,315.6,-402.9,-151.5,462.0,-754.8,-7484.1,204.3,817.5,287.4,-1667.4,-4577.1,-1722.9,-51.0,-6.9,-6.0,-448.2,254.4,-0.9,162.3,-691.2,-961.8,0,1806,268435456,161,0, 
1.0067,-433.5,-912.9,-561.0,293.1,-425.7,-116.4,456.0,-747.0,21637.2,173.1,793.2,262.8,-1684.8,-4372.2,4951.5,-44.1,-7.2,-5.7,-474.0,233.7,-0.9,138.0,-234.9,-908.1,0,1812,268435456,162,0, 
1.0100,-434.1,-915.0,-564.6,288.0,-428.1,-114.9,450.6,-750.9,33493.2,164.7,792.9,260.4,-1705.2,-4379.4,9830.1,-41.1,-6.6,-6.0,-475.2,234.3,-0.6,141.3,-225.3,-907.5,0,1818,268435456,163,0, 
1.0133,-429.0,-896.4,-541.8,308.4,-404.1,-145.2,450.3,-759.0,10966.8,194.4,813.3,281.4,-1707.9,-4583.4,9830.1,-58.8,-6.9,-6.0,-460.2,255.9,-0.9,164.4,-648.0,-965.4,0,1824,268435456,164,0, 
1.0167,-425.7,-872.1,-519.6,334.5,-381.0,-162.0,459.9,-755.4,-14079.0,217.8,835.8,312.0,-1682.7,-4716.9,4379.4,-62.7,-6.9,-5.7,-435.6,276.3,-0.6,192.0,-950.4,-1000.5,0,1830,268435456,165,0, 
1.0200,-426.6,-883.8,-533.4,323.7,-393.6,-134.1,465.3,-747.0,-7706.4,204.9,820.5,293.7,-1677.6,-4587.9,-1976.7,-47.1,-6.6,-6.0,-453.0,264.6,-0.6,174.6,-681.9,-962.4,0,1836,268435456,166,0, 
1.0233,-429.9,-907.5,-559.2,296.7,-423.6,-105.9,461.7,-739.8,21563.1,174.6,796.2,266.1,-1691.1,-4388.1,4742.4,-39.3,-6.9,-5.7,-474.3,240.9,-0.6,141.9,-252.3,-906.9,0,1842,268435456,167,0, 
1.0267,-430.2,-916.2,-566.4,290.7,-430.5,-116.4,457.2,-750.3,32900.4,171.9,788.7,260.7,-1710.6,-4399.2,9830.1,-35.4,-6.9,-6.0,-483.6,235.2,-0.9,135.9,-232.2,-912.3,0,1848,268435456,168,0, 
1.0300,-430.8,-888.3,-543.6,310.2,-406.2,-145.2,460.8,-755.7,10744.5,202.5,817.8,285.3,-1701.0,-4603.8,9830.1,-53.1,-6.6,-6.0,-457.2,252.0,-0.6,169.5,-646.5,-962.7,0,1854,268435456,169,0, 
1.0333,-426.3,-871.2,-518.1,332.7,-377.1,-152.1,471.0,-753.0,-15042.3,230.4,843.3,311.4,-1675.8,-4730.1,3988.5,-60.9,-6.9,-6.0,-432.3,280.8,-0.3,193.5,-927.0,-989.7,0,1860,268435456,170,0, 
1.0367,-434.7,-885.9,-539.4,318.9,-398.1,-137.7,471.0,-743.4,-8447.4,201.6,819.6,287.4,-1660.2,-4614.3,-2409.6,-48.3,-7.2,-5.7,-456.0,257.1,-0.6,175.2,-681.0,-960.3,0,1866,268435456,171,0, 
1.0400,-432.9,-904.8,-564.9,292.5,-428.7,-110.7,467.1,-738.3,20896.2,177.9,798.3,259.2,-1674.6,-4412.4,4285.8,-33.6,-6.9,-5.7,-472.5,234.3,-0.9,140.7,-241.5,-897.6,0,1872,268435456,172,0, 
1.0433,-437.1,-915.6,-566.4,291.6,-423.9,-105.6,462.3,-742.2,32381.7,175.8,798.6,262.8,-1695.0,-4430.4,9830.1,-42.0,-6.9,-6.0,-465.6,238.2,-0.6,147.6,-213.6,-900.0,0,1878,268435456,173,0, 
1.0467,-433.5,-890.7,-544.2,309.9,-402.6,-147.3,467.1,-753.3,10151.7,205.5,817.5,287.1,-1692.3,-4635.6,9830.1,-45.9,-6.9,-5.4,-448.8,258.6,-0.6,170.1,-634.8,-963.0,0,1884,268435456,174,0, 
1.0500,-429.0,-873.9,-528.0,327.0,-386.1,-163.5,477.0,-750.9,-15338.7,224.1,831.9,301.8,-1672.8,-4759.5,3582.3,-44.7,-6.9,-6.0,-435.9,270.6,-1.2,187.2,-904.2,-993.9,0,1890,268435456,175,0, 
1.0533,-426.9,-878.7,-535.2,322.8,-396.0,-138.0,478.8,-741.3,-9188.4,214.8,826.5,294.3,-1653.6,-4628.4,-2819.1,-48.0,-7.2,-6.0,-441.9,265.2,-0.6,179.7,-665.7,-947.7,0,1896,268435456,176,0, 
1.0567,-434.1,-909.3,-567.3,296.1,-424.2,-109.8,472.8,-740.7,20007.0,179.1,797.4,262.8,-1670.4,-4441.5,3774.9,-34.5,-7.2,-5.7,-466.5,240.6,-0.3,146.1,-235.8,-892.2,0,1902,268435456,177,0, 
1.0600,-437.1,-912.0,-569.7,291.3,-426.6,-117.0,464.7,-749.1,31344.3,175.5,797.4,263.7,-1691.1,-4447.2,9800.7,-37.5,-7.2,-5.7,-468.9,241.8,-0.6,145.8,-225.9,-896.4,0,1908,268435456,178,0, 
1.0633,-432.3,-890.1,-547.8,312.9,-398.4,-146.1,470.4,-757.2,8817.9,206.7,819.6,290.7,-1696.5,-4664.7,9744.9,-48.6,-6.9,-5.7,-447.6,262.2,-0.3,171.3,-635.7,-954.9,0,1914,268435456,179,0, 
1.0667,-429.3,-864.6,-522.0,330.3,-376.2,-163.8,473.1,-755.4,-16376.1,224.1,839.1,305.1,-1674.9,-4811.4,2757.9,-55.5,-6.6,-5.7,-432.6,276.9,-0.9,189.9,-934.8,-998.1,0,1920,268435456,180,0, 
1.0700,-428.1,-879.9,-537.3,321.9,-395.1,-143.4,477.9,-748.2,-10151.7,205.5,824.1,290.7,-1656.0,-4680.3,-3511.5,-42.9,-7.2,-5.7,-444.0,261.9,-0.9,177.3,-683.1,-959.4,0,1926,268435456,181,0, 
1.0733,-435.0,-902.4,-558.9,302.4,-417.6,-111.3,472.5,-742.5,19043.7,181.5,798.3,269.1,-1674.0,-4488.6,2951.1,-39.9,-7.2,-5.7,-462.3,247.8,-0.9,149.4,-264.6,-901.5,0,1932,268435456,182,0, 
1.0767,-432.6,-910.5,-560.7,298.2,-420.9,-117.3,469.5,-750.9,30306.9,182.7,798.3,264.9,-1689.3,-4500.3,9687.0,-38.4,-6.9,-5.7,-458.7,239.4,-0.6,149.1,-234.0,-900.9,0,1938,268435456,183,0, 
1.0800,-430.2,-887.1,-536.4,319.5,-396.0,-147.9,472.2,-759.6,7928.7,204.6,830.7,293.4,-1679.4,-4713.0,9556.8,-46.8,-6.9,-6.0,-434.7,266.1,-0.6,171.9,-661.8,-962.4,0,1944,268435456,184,0, 
1.0833,-427.2,-867.6,-518.1,338.4,-376.2,-161.4,476.4,-755.4,-17709.9,228.6,849.6,315.6,-1660.8,-4842.3,1866.9,-49.5,-6.6,-5.7,-417.9,280.8,-0.6,195.3,-939.9,-992.4,0,1950,268435456,185,0, 
1.0867,-427.2,-876.0,-522.9,331.2,-386.7,-131.7,478.5,-746.4,-11189.1,222.9,840.6,303.0,-1654.8,-4722.3,-4255.5,-46.5,-6.6,-5.7,-425.1,273.6,-0.6,185.1,-684.6,-954.3,0,1956,268435456,186,0, 
1.0900,-432.3,-900.3,-553.8,307.8,-413.7,-102.3,473.4,-741.6,18154.5,193.2,813.3,276.3,-1673.1,-4538.4,2159.4,-38.4,-6.6,-5.7,-444.3,254.7,-0.6,150.6,-251.7,-895.5,0,1962,268435456,187,0, 
1.0933,-433.2,-907.2,-555.9,299.4,-418.8,-114.0,467.4,-746.4,29417.7,192.6,814.8,272.4,-1686.9,-4540.8,9552.3,-38.4,-6.9,-6.0,-444.3,253.2,-0.6,150.9,-217.2,-893.7,0,1968,268435456,188,0, 
1.0967,-430.8,-885.3,-537.9,317.1,-395.4,-135.3,470.4,-759.0,7039.5,204.3,830.4,292.8,-1682.1,-4753.8,9359.1,-49.5,-6.9,-5.7,-430.2,264.0,-0.6,176.7,-635.4,-955.2,0,1974,268435456,189,0, 
1.1000,-426.9,-867.3,-519.6,334.5,-374.7,-166.5,465.6,-760.2,-18006.3,230.1,846.9,317.1,-1669.8,-4891.8,1249.2,-53.4,-6.6,-6.0,-417.0,290.7,-0.6,194.7,-920.1,-997.8,0,1980,268435456,190,0, 
1.1033,-427.8,-876.0,-530.4,329.1,-389.4,-140.1,471.3,-748.8,-11485.5,215.7,833.1,298.2,-1659.0,-4773.9,-4656.3,-43.8,-6.6,-5.7,-430.5,270.0,-0.3,177.0,-671.1,-955.8,0,1986,268435456,191,0, 
1.1067,-427.8,-900.9,-553.8,304.8,-417.0,-108.9,465.0,-743.7,18006.3,182.1,814.8,270.6,-1669.5,-4578.6,1824.9,-37.2,-6.9,-6.0,-447.6,247.5,-0.3,149.7,-233.7,-899.1,0,1992,268435456,192,0, 
1.1100,-429.9,-902.4,-557.4,300.0,-416.4,-108.0,463.2,-750.0,29788.2,179.7,809.7,274.8,-1691.1,-4588.8,9469.5,-41.4,-6.6,-5.7,-455.1,252.3,-0.6,150.0,-209.4,-897.3,0,1998,268435456,193,0, 
1.1133,-426.3,-885.3,-532.2,322.5,-389.7,-140.7,464.7,-758.1,7410.0,204.6,833.1,300.3,-1695.0,-4797.3,9360.6,-54.0,-6.9,-6.3,-432.3,273.3,-0.9,174.3,-630.6,-959.1,0,2004,268435456,194,0, 
1.1167,-426.9,-870.6,-519.9,337.5,-375.3,-154.8,472.5,-760.2,-17784.0,214.8,839.4,309.6,-1671.6,-4937.7,1287.9,-54.6,-6.9,-5.7,-424.8,284.1,-0.6,181.2,-911.4,-995.1,0,2010,268435456,195,0, 
1.1200,-424.8,-880.5,-525.3,329.7,-386.7,-129.9,469.5,-750.9,-10892.7,207.3,832.5,300.9,-1657.2,-4801.2,-4529.7,-52.2,-6.9,-6.0,-428.4,273.9,-0.9,172.2,-663.9,-954.9,0,2016,268435456,196,0, 
1.1233,-427.5,-907.2,-552.3,305.4,-412.5,-102.0,467.1,-742.8,18895.5,182.4,804.3,272.1,-1669.2,-4611.9,2175.3,-43.5,-7.2,-5.7,-454.5,251.4,0.0,145.5,-250.8,-900.0,0,2022,268435456,197,0, 
1.1267,-429.6,-913.2,-560.1,294.0,-420.6,-104.4,462.0,-750.6,30603.3,172.8,800.1,264.6,-1686.9,-4616.4,9565.2,-45.0,-6.9,-6.3,-458.1,250.8,-1.2,142.2,-215.4,-898.2,0,2028,268435456,198,0, 
1.1300,-425.1,-881.7,-528.3,323.7,-386.1,-132.6,464.1,-756.6,8521.5,214.5,831.9,303.0,-1679.7,-4818.0,9543.9,-60.3,-6.9,-6.0,-432.3,279.0,-0.9,186.0,-642.0,-952.5,0,2034,268435456,199,0, 
1.1333,-426.9,-869.4,-515.7,335.4,-376.2,-152.7,467.1,-759.3,-16598.4,226.8,843.3,312.6,-1668.3,-4939.8,1966.2,-61.2,-7.2,-6.0,-422.7,282.0,-0.9,189.0,-917.7,-992.4,0,2040,268435456,200,0, 
1.1367,-426.0,-873.0,-524.1,331.2,-385.8,-128.1,470.1,-749.7,-9633.0,219.3,832.5,303.3,-1655.4,-4805.4,-3873.0,-57.9,-7.2,-6.6,-428.1,276.6,-0.6,179.7,-660.0,-951.0,0,2046,268435456,201,0, 
1.1400,-424.2,-897.0,-546.0,305.4,-410.7,-98.1,465.6,-742.8,20007.0,188.7,811.8,278.7,-1661.1,-4594.5,2946.6,-51.9,-7.5,-6.0,-449.1,254.4,-0.6,155.4,-223.2,-895.8,0,2052,268435456,202,0, 
1.1433,-426.6,-906.3,-547.8,300.6,-412.2,-100.2,460.5,-747.9,31937.1,186.6,811.8,278.1,-1671.0,-4594.2,9726.3,-56.1,-6.3,-5.4,-446.1,254.4,-0.6,150.3,-199.2,-897.9,0,2058,268435456,203,0, 
1.1467,-426.9,-885.3,-531.9,318.9,-392.4,-137.4,460.5,-762.3,9707.1,207.9,827.7,300.3,-1673.7,-4806.6,9727.5,-66.3,-6.9,-6.0,-429.3,268.2,-0.9,169.2,-627.3,-960.0,0,2064,268435456,204,0, 
1.1500,-424.2,-865.8,-515.4,335.4,-374.7,-151.8,467.1,-760.5,-15264.6,229.8,840.6,312.9,-1659.3,-4926.6,2891.4,-66.9,-6.9,-6.0,-417.9,277.8,-0.9,186.3,-902.7,-996.6,0,2070,268435456,205,0, 
1.1533,-422.1,-876.0,-526.5,324.3,-387.0,-129.6,471.0,-747.6,-8373.3,207.3,826.8,296.4,-1644.3,-4800.3,-3074.7,-58.2,-7.2,-5.7,-433.2,267.3,-1.5,168.3,-647.7,-953.7,0,2076,268435456,206,0, 
1.1567,-424.5,-897.9,-546.9,304.2,-413.1,-109.5,461.7,-742.5,21118.5,187.5,809.4,276.3,-1657.2,-4588.8,3827.7,-45.3,-7.2,-5.7,-450.6,245.1,-0.9,151.8,-214.5,-901.8,0,2082,268435456,207,0, 
1.1600,-429.0,-905.7,-555.6,298.5,-412.5,-100.8,456.0,-747.6,32826.3,187.8,807.6,275.1,-1684.5,-4593.6,9830.1,-56.1,-7.2,-6.0,-455.7,246.9,-0.9,145.5,-186.0,-893.7,0,2088,268435456,208,0, 
1.1633,-424.8,-883.8,-531.0,318.9,-389.4,-138.0,464.4,-753.0,10299.9,205.2,835.2,298.5,-1675.5,-4774.2,9829.8,-62.1,-6.3,-5.7,-429.0,264.0,-0.9,172.5,-607.2,-959.7,0,2094,268435456,209,0, 
1.1667,-420.3,-861.0,-514.2,333.9,-371.4,-156.0,467.7,-752.1,-14820.0,227.4,842.4,313.5,-1664.7,-4885.5,3437.1,-66.3,-7.5,-6.0,-416.1,276.3,-0.6,186.9,-882.0,-999.6,0,2100,268435456,210,0, 
1.1700,-425.4,-880.2,-533.1,320.1,-393.6,-146.7,468.3,-751.8,-8002.8,204.9,823.5,294.0,-1654.2,-4759.8,-2671.8,-61.5,-6.6,-6.0,-433.8,259.2,-0.6,172.5,-641.1,-968.1,0,2106,268435456,211,0, 
1.1733,-429.9,-906.0,-560.7,295.2,-420.9,-116.7,463.2,-749.4,21414.9,168.6,797.4,264.3,-1659.3,-4552.5,4209.6,-50.4,-6.9,-5.4,-462.9,232.8,-0.9,140.1,-215.4,-906.9,0,2112,268435456,212,0, 
1.1767,-426.3,-910.5,-561.0,293.4,-418.5,-115.2,460.8,-753.0,32900.4,175.8,798.9,270.9,-1676.4,-4549.2,9830.1,-56.1,-6.9,-6.3,-458.1,239.1,-0.6,142.5,-193.5,-905.7,0,2118,268435456,213,0, 
1.1800,-425.7,-890.4,-539.4,309.3,-396.3,-145.5,461.1,-765.0,10374.0,198.9,819.0,289.8,-1675.2,-4752.3,9830.1,-66.9,-6.9,-6.0,-441.3,256.5,-1.2,164.1,-627.6,-969.0,0,2124,268435456,214,0, 
1.1833,-424.8,-869.7,-518.7,333.0,-379.2,-162.6,468.3,-761.7,-14671.8,220.5,838.8,310.5,-1663.8,-4880.7,3616.5,-67.5,-6.9,-6.3,-420.9,270.6,-0.6,184.5,-920.7,-1004.1,0,2130,268435456,215,0, 
1.1867,-423.9,-879.6,-528.3,327.0,-385.5,-135.3,470.1,-751.8,-7928.7,205.5,831.3,302.7,-1652.7,-4743.6,-2560.8,-57.6,-6.9,-6.0,-432.0,266.1,-1.2,165.9,-660.6,-961.2,0,2136,268435456,216,0, 
1.1900,-424.2,-897.0,-547.8,305.1,-408.3,-103.5,469.5,-744.9,21414.9,186.0,813.6,276.3,-1662.3,-4540.5,4263.3,-54.9,-6.9,-5.7,-444.9,244.5,-0.6,148.2,-219.3,-900.9,0,2142,268435456,217,0, 
1.1933,-423.9,-905.4,-555.3,298.8,-410.7,-110.1,462.0,-753.0,32826.3,184.2,809.4,270.3,-1681.2,-4544.7,9830.1,-58.2,-6.9,-5.7,-451.8,244.2,-0.9,149.7,-202.8,-897.0,0,2148,268435456,218,0, 
1.1967,-422.4,-886.2,-531.3,318.6,-389.7,-144.3,464.7,-764.7,10151.7,215.7,828.9,300.0,-1682.1,-4744.5,9830.1,-71.1,-7.2,-5.4,-429.3,260.1,-0.6,174.9,-630.9,-967.2,0,2154,268435456,219,0, 
1.2000,-420.6,-866.4,-513.9,335.1,-372.0,-154.5,473.1,-762.3,-14820.0,229.8,849.3,314.1,-1672.2,-4862.7,3562.8,-73.2,-6.6,-5.7,-409.5,278.4,-0.9,190.8,-905.1,-1001.4,0,2160,268435456,220,0, 
1.2033,-421.5,-881.1,-526.8,323.4,-388.2,-140.4,470.7,-757.2,-8299.2,205.8,830.7,298.5,-1663.2,-4723.2,-2661.3,-59.1,-6.9,-5.7,-423.6,261.0,-0.6,176.4,-660.6,-958.8,0,2166,268435456,221,0, 
1.2067,-424.8,-908.1,-548.7,303.6,-414.3,-111.9,462.9,-754.2,21044.4,181.8,809.4,272.4,-1664.1,-4521.9,4146.0,-53.1,-6.9,-6.0,-444.3,241.5,-0.6,150.3,-217.2,-900.9,0,2172,268435456,222,0, 
1.2100,-424.2,-909.0,-549.0,300.0,-413.4,-120.0,454.5,-761.7,32307.6,189.0,810.6,273.9,-1668.9,-4532.1,9830.1,-57.6,-7.2,-5.7,-443.7,242.1,-0.6,151.2,-200.1,-905.1,0,2178,268435456,223,0, 
1.2133,-418.2,-886.5,-525.9,321.9,-386.4,-134.7,461.4,-765.9,9707.1,211.8,839.1,304.8,-1673.1,-4725.3,9826.5,-66.9,-6.9,-5.7,-414.6,266.7,-0.6,180.3,-608.7,-953.7,0,2184,268435456,224,0, 
1.2167,-418.5,-867.9,-510.6,338.4,-366.3,-157.2,464.7,-769.2,-15561.0,229.2,853.2,324.6,-1653.3,-4856.1,3330.9,-72.3,-6.6,-5.4,-397.5,280.8,-0.3,198.6,-891.9,-995.7,0,2190,268435456,225,0, 
1.2200,-415.2,-879.3,-524.7,327.9,-383.7,-142.8,469.5,-762.3,-8373.3,211.8,838.8,303.6,-1646.1,-4729.2,-2810.7,-56.7,-6.6,-6.3,-404.7,262.5,-0.3,172.8,-637.5,-958.2,0,2196,268435456,226,0, 
1.2233,-418.5,-901.8,-545.4,305.7,-408.3,-111.9,466.2,-756.0,21044.4,185.4,820.5,280.2,-1667.4,-4528.2,4034.4,-53.7,-6.9,-5.7,-425.7,245.4,-0.9,154.8,-210.6,-895.5,0,2202,268435456,227,0, 
1.2267,-420.9,-905.4,-548.4,298.8,-410.7,-110.1,460.5,-764.1,32455.8,189.0,816.6,278.7,-1678.8,-4527.9,9830.1,-60.9,-7.2,-5.7,-429.3,237.9,-0.6,154.8,-184.5,-899.4,0,2208,268435456,228,0, 
1.2300,-420.3,-886.5,-530.1,313.8,-393.3,-147.3,458.7,-778.2,9855.3,208.2,829.8,298.2,-1690.5,-4748.4,9826.2,-75.0,-6.6,-5.1,-417.9,253.2,-0.9,177.0,-625.2,-968.1,0,2214,268435456,229,0, 
1.2333,-416.7,-864.3,-507.6,334.2,-370.2,-165.0,462.6,-773.7,-15486.9,230.7,852.0,318.9,-1670.4,-4856.7,3315.6,-76.2,-6.9,-6.0,-390.3,268.8,-0.9,188.4,-903.0,-1001.1,0,2220,268435456,230,0, 
1.2367,-419.4,-881.4,-525.3,320.4,-388.2,-145.5,462.3,-766.8,-8595.6,208.2,835.2,302.4,-1659.0,-4731.0,-2851.2,-70.5,-6.9,-5.7,-408.9,254.1,-0.9,168.6,-660.3,-969.3,0,2226,268435456,231,0, 
1.2400,-424.5,-902.4,-550.2,295.8,-418.5,-116.4,456.6,-766.8,21118.5,182.1,805.2,267.3,-1672.5,-4532.1,4002.9,-64.2,-6.9,-6.0,-435.3,230.4,-0.6,145.2,-218.7,-911.7,0,2232,268435456,232,0, 
1.2433,-425.1,-912.9,-555.6,293.1,-421.8,-118.5,453.0,-769.2,32455.8,176.1,802.8,268.5,-1685.4,-4535.1,9830.1,-67.2,-6.9,-6.3,-441.9,231.3,-0.6,137.4,-192.9,-916.2,0,2238,268435456,233,0, 
1.2467,-423.9,-887.7,-531.3,315.0,-391.8,-148.2,458.4,-776.7,9929.4,204.0,829.8,298.5,-1683.3,-4752.6,9827.1,-76.5,-6.9,-5.4,-419.4,255.0,-0.6,168.3,-625.8,-973.5,0,2244,268435456,234,0, 
1.2500,-418.5,-862.5,-513.3,335.4,-372.3,-160.2,462.6,-775.2,-15264.6,222.3,847.2,314.7,-1662.3,-4869.6,3355.8,-86.4,-6.6,-5.7,-405.3,272.1,-0.6,182.7,-919.8,-1013.7,0,2250,268435456,235,0, 
1.2533,-417.0,-871.8,-523.2,326.4,-384.9,-139.5,465.3,-762.6,-8373.3,214.8,833.4,300.9,-1659.0,-4734.9,-2803.5,-74.4,-6.6,-5.7,-411.6,261.0,-0.6,174.0,-661.8,-970.2,0,2256,268435456,236,0, 
1.2567,-420.3,-895.8,-546.9,305.7,-412.8,-114.6,459.6,-762.6,21044.4,188.1,809.7,273.3,-1667.4,-4530.6,4015.5,-67.5,-6.9,-6.0,-433.8,237.6,-0.6,142.5,-226.5,-909.3,0,2262,268435456,237,0, 
1.2600,-420.3,-899.4,-545.1,303.9,-410.4,-111.3,456.9,-767.7,32011.2,194.1,819.3,279.0,-1675.2,-4525.8,9830.1,-65.7,-6.9,-5.4,-429.6,238.8,-0.6,150.0,-199.5,-908.7,0,2268,268435456,238,0, 
1.2633,-425.7,-884.4,-532.8,316.5,-395.4,-146.1,456.3,-777.9,9410.7,205.2,828.6,296.4,-1685.4,-4751.4,9798.0,-80.1,-6.9,-6.3,-423.3,253.5,-0.6,165.0,-638.7,-977.4,0,2274,268435456,239,0, 
1.2667,-426.3,-869.7,-519.6,331.8,-376.2,-171.6,456.9,-780.9,-15709.2,218.4,840.9,311.1,-1667.1,-4867.8,3108.3,-84.9,-6.9,-5.7,-411.6,266.7,-0.3,183.9,-921.3,-1016.1,0,2280,268435456,240,0, 
1.2700,-425.1,-880.2,-525.6,324.9,-390.3,-147.9,459.9,-774.3,-8966.1,207.0,835.8,292.8,-1654.8,-4749.3,-3066.3,-78.3,-6.9,-5.7,-415.8,251.4,-0.6,167.7,-668.4,-975.3,0,2286,268435456,241,0, 
1.2733,-429.3,-903.6,-553.8,302.1,-412.8,-122.7,458.7,-768.3,20525.7,175.2,808.2,273.6,-1673.4,-4553.7,3749.4,-68.7,-6.9,-6.0,-438.6,239.7,-0.9,141.3,-240.9,-920.4,0,2292,268435456,242,0, 
1.2767,-431.7,-910.8,-559.2,294.6,-416.4,-127.2,451.2,-777.9,31640.7,178.2,805.2,271.8,-1675.5,-4557.9,9823.2,-75.6,-6.6,-6.0,-441.3,237.6,-0.9,141.6,-240.6,-924.0,0,2298,268435456,243,0, 
1.2800,-425.7,-888.9,-535.8,316.8,-392.1,-150.6,456.6,-782.4,8817.9,201.9,828.6,290.4,-1674.6,-4762.2,9727.2,-87.0,-6.3,-5.7,-423.3,252.6,-0.3,162.0,-654.0,-977.1,0,2304,268435456,244,0, 
1.2833,-420.9,-865.8,-515.4,333.6,-376.2,-173.7,458.7,-781.2,-16598.4,220.5,850.2,309.6,-1651.8,-4888.5,2719.5,-91.5,-7.2,-6.0,-409.8,269.1,-0.6,181.2,-932.4,-1023.6,0,2310,268435456,245,0, 
1.2867,-420.6,-881.1,-527.4,330.0,-386.1,-141.3,459.0,-772.2,-9707.1,206.1,834.0,295.2,-1654.2,-4761.6,-3469.2,-85.2,-6.6,-5.7,-426.3,254.7,-0.6,165.9,-665.4,-977.4,0,2316,268435456,246,0, 
1.2900,-426.3,-904.5,-555.6,300.3,-418.5,-118.8,456.0,-771.3,19784.7,174.3,808.8,267.0,-1667.4,-4558.2,3190.8,-78.3,-6.6,-5.7,-450.3,236.4,-0.9,142.2,-246.0,-923.7,0,2322,268435456,247,0, 
1.2933,-426.6,-911.4,-557.4,295.5,-418.5,-118.8,449.1,-779.4,30973.8,181.5,811.8,270.3,-1688.7,-4563.9,9744.3,-77.4,-6.9,-5.7,-443.1,240.6,-0.9,137.7,-221.1,-924.6,0,2328,268435456,248,0, 
1.2967,-429.6,-889.8,-539.7,310.2,-399.9,-154.8,451.2,-786.3,8076.9,197.1,827.7,283.8,-1697.7,-4787.7,9610.5,-92.1,-6.9,-5.7,-433.5,243.9,-0.6,158.4,-670.5,-993.3,0,2334,268435456,249,0, 
1.3000,-426.9,-870.0,-522.0,328.8,-380.4,-169.5,456.3,-789.3,-16894.8,213.9,836.4,300.6,-1671.3,-4917.9,2180.4,-97.2,-6.6,-5.4,-419.4,261.3,-0.9,169.5,-942.0,-1029.3,0,2340,268435456,250,0, 
1.3033,-431.4,-882.3,-532.8,318.9,-390.6,-153.9,457.5,-784.2,-10077.6,206.7,831.0,294.3,-1660.8,-4791.6,-3850.8,-88.8,-6.9,-6.0,-427.2,255.0,-0.6,160.8,-685.2,-991.5,0,2346,268435456,251,0, 
1.3067,-432.0,-908.4,-554.7,299.4,-416.7,-115.5,454.2,-780.6,19191.9,178.8,808.5,270.0,-1663.8,-4590.0,2775.3,-76.5,-6.9,-5.4,-448.5,237.0,-0.6,136.8,-255.3,-934.5,0,2352,268435456,252,0, 
1.3100,-434.4,-912.6,-561.3,289.8,-421.5,-125.7,450.9,-784.5,30381.0,171.9,804.3,267.0,-1683.0,-4605.9,9678.6,-82.2,-7.2,-6.0,-453.9,233.7,-0.6,136.8,-236.7,-932.7,0,2358,268435456,253,0, 
1.3133,-431.1,-886.5,-537.0,310.2,-396.3,-155.7,450.3,-795.3,7706.4,200.1,825.9,291.3,-1680.0,-4809.9,9499.2,-94.2,-6.6,-5.7,-431.4,255.6,-0.6,162.3,-666.3,-995.7,0,2364,268435456,254,0, 
1.3167,-425.1,-869.7,-518.7,329.1,-375.9,-167.4,461.4,-792.0,-17487.6,220.2,843.9,310.2,-1671.6,-4936.2,1742.1,-96.9,-6.6,-6.0,-416.4,267.9,-1.2,178.8,-939.0,-1027.8,0,2370,268435456,255,0, 
1.3200,-425.4,-887.7,-534.3,316.8,-392.7,-151.8,461.4,-788.1,-10374.0,200.4,825.9,293.7,-1662.9,-4813.5,-4170.0,-91.2,-6.6,-5.4,-431.1,256.5,-0.6,166.5,-683.4,-989.4,0,2376,268435456,0,0, 
1.3233,-426.9,-908.1,-559.5,292.2,-417.3,-120.9,458.4,-785.7,18895.5,171.6,800.7,263.7,-1673.7,-4608.3,2454.9,-77.4,-6.9,-5.7,-456.3,229.8,-0.3,141.3,-245.4,-933.0,0,2382,268435456,1,0, 
1.3267,-430.5,-913.2,-563.7,288.3,-423.3,-125.7,446.7,-787.2,30010.5,167.7,802.5,262.2,-1695.0,-4621.8,9635.4,-85.2,-6.6,-5.7,-461.4,223.2,-0.6,129.3,-237.6,-943.5,0,2388,268435456,2,0, 
1.3300,-429.0,-895.5,-542.1,308.1,-397.8,-155.1,451.5,-797.1,7484.1,189.0,817.8,285.3,-1689.9,-4836.9,9432.0,-95.1,-6.6,-5.7,-436.5,242.7,-0.3,152.1,-664.5,-1002.3,0,2394,268435456,3,0, 
1.3333,-422.4,-875.7,-522.9,320.4,-382.5,-183.3,453.0,-802.2,-17561.7,211.2,838.8,305.7,-1670.1,-4962.0,1559.7,-99.6,-6.9,-5.4,-419.1,262.8,-1.2,170.7,-948.6,-1040.7,0,2400,268435456,4,0, 
1.3367,-423.3,-888.9,-534.9,308.4,-393.9,-152.4,459.6,-792.6,-10448.1,199.5,822.9,288.0,-1663.8,-4824.0,-4263.6,-93.3,-6.6,-6.0,-434.4,246.3,-0.3,156.6,-685.5,-996.3,0,2406,268435456,5,0, 
1.3400,-428.1,-918.6,-562.8,284.4,-420.6,-120.6,452.7,-788.7,19266.0,177.3,801.0,261.3,-1676.1,-4630.5,2444.1,-83.7,-6.9,-5.7,-456.6,225.3,-0.6,130.8,-252.9,-933.9,0,2412,268435456,6,0, 
1.3433,-428.1,-919.5,-566.1,279.3,-427.8,-129.9,449.1,-795.0,30455.1,162.9,796.5,256.2,-1697.7,-4637.1,9636.0,-85.2,-6.6,-6.0,-455.7,216.3,-0.9,128.1,-228.0,-941.7,0,2418,268435456,7,0, 
1.3467,-427.5,-896.7,-544.5,301.5,-404.1,-162.3,448.2,-803.1,7928.7,192.3,822.6,282.9,-1692.6,-4856.1,9471.0,-98.4,-6.9,-5.4,-433.2,240.0,-0.9,155.4,-663.0,-1005.0,0,2424,268435456,8,0, 
1.3500,-426.6,-881.1,-528.3,319.8,-383.7,-179.7,454.2,-804.3,-17043.0,211.8,839.1,302.1,-1680.3,-4981.8,1741.2,-101.4,-6.9,-5.4,-416.7,259.2,-0.6,169.5,-930.0,-1041.9,0,2430,268435456,9,0, 
1.3533,-428.4,-893.1,-542.4,309.0,-399.6,-152.7,453.6,-796.8,-9929.4,191.4,820.8,281.4,-1684.5,-4842.3,-4080.3,-94.2,-6.9,-6.0,-429.3,239.4,-0.6,151.8,-656.7,-998.7,0,2436,268435456,10,0, 
1.3567,-435.3,-917.7,-565.8,284.1,-428.4,-127.5,451.5,-792.3,19710.6,163.2,799.2,255.6,-1690.8,-4636.8,2709.3,-79.8,-6.6,-5.7,-450.0,216.0,-0.3,126.3,-222.9,-935.7,0,2442,268435456,11,0, 
1.3600,-433.5,-924.0,-568.2,277.2,-426.0,-131.7,446.1,-798.0,30899.7,160.8,795.6,261.9,-1706.7,-4646.7,9698.4,-89.1,-7.2,-6.0,-448.2,223.2,-0.9,134.7,-219.0,-937.5,0,2448,268435456,12,0, 
1.3633,-428.4,-899.1,-544.8,300.6,-401.4,-156.9,449.1,-806.7,8447.4,195.0,818.7,286.2,-1695.0,-4851.0,9568.8,-105.9,-6.9,-5.7,-429.9,245.1,-0.6,154.2,-652.2,-997.2,0,2454,268435456,13,0, 
1.3667,-429.3,-884.1,-529.5,317.1,-385.5,-183.3,451.2,-809.7,-16376.1,201.6,833.4,300.6,-1682.4,-4976.1,2198.1,-102.6,-6.9,-6.0,-414.6,258.0,-0.6,175.2,-930.6,-1036.5,0,2460,268435456,14,0, 
1.3700,-429.3,-895.5,-541.2,306.6,-396.3,-164.4,453.6,-802.8,-9040.2,187.8,819.6,288.3,-1668.6,-4842.0,-3607.2,-89.4,-6.9,-5.7,-428.4,247.2,-0.6,153.6,-672.6,-997.5,0,2466,268435456,15,0, 
1.3733,-432.0,-916.2,-566.1,282.3,-427.2,-131.1,446.4,-799.8,20377.5,165.3,794.7,257.4,-1687.5,-4635.0,3260.7,-78.0,-6.9,-5.7,-446.4,225.6,-1.2,127.8,-231.3,-938.7,0,2472,268435456,16,0, 
1.3767,-428.7,-914.4,-563.4,287.1,-418.2,-128.7,446.4,-798.9,31566.6,171.3,804.6,268.5,-1692.9,-4625.7,9769.8,-81.9,-6.6,-5.4,-439.5,236.7,-0.6,136.8,-203.1,-934.2,0,2478,268435456,17,0, 
1.3800,-432.3,-900.0,-545.1,301.2,-400.5,-165.0,441.6,-810.6,8817.9,192.6,818.4,283.2,-1697.7,-4832.7,9668.4,-93.6,-6.6,-5.7,-424.2,244.5,-0.9,151.5,-642.3,-1002.9,0,2484,268435456,18,0, 
1.3833,-433.5,-886.8,-532.2,315.0,-386.1,-181.5,448.5,-814.8,-15709.2,204.3,826.8,294.9,-1693.8,-4956.6,2652.6,-95.7,-6.9,-5.4,-418.8,255.9,-0.3,165.6,-929.4,-1041.9,0,2490,268435456,19,0, 
1.3867,-435.0,-903.3,-545.4,305.7,-400.5,-160.2,449.1,-811.5,-8373.3,185.4,813.6,280.2,-1685.7,-4826.4,-3209.7,-89.1,-6.9,-5.7,-432.3,246.0,-0.6,147.0,-667.5,-999.9,0,2496,268435456,20,0, 
1.3900,-440.1,-928.2,-578.1,272.4,-434.4,-140.7,443.4,-811.8,21266.7,151.8,781.8,243.9,-1696.8,-4621.5,3718.2,-74.7,-6.9,-5.7,-464.4,211.8,-0.9,117.6,-241.5,-944.1,0,2502,268435456,21,0, 
1.3933,-441.3,-932.7,-583.2,269.1,-437.4,-141.0,440.4,-815.1,32233.5,146.7,779.1,244.5,-1714.2,-4624.5,9818.1,-76.8,-6.9,-5.7,-467.4,215.7,-0.9,115.8,-227.7,-945.6,0,2508,268435456,22,0, 
1.3967,-441.3,-909.0,-556.8,293.7,-410.7,-173.7,442.8,-819.6,9410.7,178.5,809.1,273.6,-1705.8,-4844.4,9761.7,-93.3,-6.9,-5.7,-443.1,236.1,-0.6,147.6,-656.1,-1004.4,0,2514,268435456,23,0, 
1.4000,-435.0,-887.7,-537.6,312.9,-390.9,-192.9,444.9,-818.7,-15857.4,199.5,823.2,290.4,-1682.4,-4935.3,2927.1,-99.0,-6.6,-6.0,-428.7,253.2,-0.3,161.7,-912.3,-1039.8,0,2520,268435456,24,0, 
1.4033,-434.4,-899.1,-552.0,295.5,-409.2,-170.1,453.3,-808.5,-8299.2,186.6,802.2,261.9,-1668.9,-4801.5,-3083.1,-88.5,-7.5,-5.4,-449.1,228.9,-0.6,137.7,-655.2,-1000.8,0,2526,268435456,25,0, 
1.4067,-440.4,-923.1,-586.8,263.7,-452.4,-148.2,442.2,-807.9,21192.6,158.4,749.1,209.1,-1700.4,-4602.0,3861.9,-84.0,-6.6,-6.0,-495.3,182.4,-0.3,95.1,-232.8,-951.6,0,2532,268435456,26,0, 
1.4100,-443.1,-933.0,-591.3,260.4,-451.2,-151.8,433.8,-817.2,32455.8,161.7,748.5,214.5,-1720.8,-4621.8,9830.1,-86.1,-6.9,-6.0,-495.3,192.6,-0.9,96.6,-246.9,-951.9,0,2538,268435456,27,0, 
1.4133,-438.0,-903.9,-553.8,297.9,-405.0,-168.9,439.2,-820.8,9484.8,199.5,828.0,288.3,-1706.4,-4816.5,9779.4,-94.5,-6.9,-5.7,-432.6,255.6,-0.9,143.4,-657.9,-999.3,0,2544,268435456,28,0, 
1.4167,-432.3,-886.5,-541.2,308.1,-392.1,-192.9,446.1,-819.6,-15783.3,204.3,837.3,299.1,-1680.6,-4924.2,3060.9,-93.6,-6.9,-5.7,-423.9,261.0,-0.3,151.8,-910.2,-1037.4,0,2550,268435456,29,0, 
1.4200,-438.0,-906.9,-567.9,281.7,-417.6,-173.7,446.4,-817.2,-8151.0,182.1,782.7,256.5,-1684.5,-4796.1,-2938.8,-81.6,-7.2,-5.7,-467.7,226.8,-0.3,121.2,-652.2,-999.3,0,2556,268435456,30,0, 
1.4233,-441.6,-928.8,-590.1,260.1,-439.8,-140.7,443.7,-811.8,21489.0,154.2,761.7,231.9,-1698.0,-4591.2,4030.5,-75.6,-6.9,-5.7,-483.3,212.4,-0.6,104.7,-225.6,-936.0,0,2562,268435456,31,0, 
1.4267,-445.2,-933.6,-591.9,256.8,-442.5,-142.8,437.4,-822.0,32381.7,145.8,776.1,237.9,-1728.3,-4599.9,9830.1,-79.8,-6.6,-5.7,-474.6,210.6,-0.3,109.5,-210.6,-940.8,0,2568,268435456,32,0, 
1.4300,-444.9,-914.1,-569.1,279.9,-415.8,-181.2,435.3,-831.3,9633.0,170.7,796.5,267.6,-1723.2,-4800.3,9798.3,-93.0,-7.2,-6.3,-452.1,239.7,-0.9,141.6,-649.8,-1004.1,0,2574,268435456,33,0, 
1.4333,-444.9,-895.5,-553.2,294.3,-400.5,-194.7,441.0,-831.6,-15190.5,181.8,813.0,285.0,-1704.3,-4922.7,3225.9,-96.9,-6.9,-6.0,-444.0,248.1,-0.6,159.3,-917.4,-1035.6,0,2580,268435456,34,0, 
1.4367,-444.3,-903.3,-557.7,289.5,-407.7,-166.5,441.6,-818.7,-7780.5,172.2,801.6,270.9,-1690.5,-4790.7,-2767.2,-84.3,-6.9,-5.7,-446.4,241.8,-0.6,132.6,-663.6,-989.4,0,2586,268435456,35,0, 
1.4400,-443.4,-926.7,-580.5,268.5,-434.7,-144.6,435.3,-813.0,21563.1,155.4,777.0,240.0,-1700.4,-4589.7,4195.8,-78.3,-7.2,-6.0,-467.4,223.8,-0.9,115.5,-228.6,-932.7,0,2592,268435456,36,0, 
1.4433,-442.8,-930.0,-582.0,269.1,-431.7,-141.0,433.2,-815.1,32529.9,154.2,777.3,243.9,-1715.7,-4588.8,9830.1,-81.9,-6.6,-5.7,-468.0,224.4,-0.9,116.4,-218.4,-930.3,0,2598,268435456,37,0, 
1.4467,-445.5,-910.2,-564.6,286.8,-409.5,-174.6,433.8,-828.9,9781.2,178.8,797.1,267.0,-1726.2,-4804.5,9814.8,-96.9,-7.2,-5.4,-448.2,239.1,-0.6,137.7,-655.5,-993.3,0,2604,268435456,38,0, 
1.4500,-440.7,-891.9,-546.6,302.4,-393.3,-201.6,435.9,-830.7,-15042.3,191.7,814.2,282.9,-1701.6,-4920.9,3357.0,-96.3,-6.9,-5.7,-433.8,250.5,-0.9,158.7,-945.3,-1030.2,0,2610,268435456,39,0, 
1.4533,-441.0,-898.2,-556.8,296.7,-405.6,-174.3,437.7,-817.2,-7928.7,175.8,807.0,268.5,-1697.7,-4780.5,-2668.5,-91.5,-6.3,-6.0,-443.7,242.4,-0.6,144.0,-680.4,-991.8,0,2616,268435456,40,0, 
1.4567,-444.9,-928.8,-583.8,270.9,-432.6,-139.5,431.7,-817.8,21711.3,152.4,776.7,242.1,-1697.4,-4577.4,4275.3,-79.2,-7.2,-6.0,-472.2,222.9,-0.6,115.2,-240.0,-931.2,0,2622,268435456,41,0, 
1.4600,-449.1,-933.3,-591.0,263.7,-435.6,-146.1,424.8,-825.6,32529.9,142.8,770.1,240.0,-1711.2,-4580.7,9830.1,-85.8,-6.9,-5.4,-481.8,220.2,-0.3,113.7,-230.4,-939.6,0,2628,268435456,42,0, 
1.4633,-448.2,-914.7,-569.1,281.4,-414.3,-177.0,425.7,-832.8,9633.0,168.0,792.6,259.5,-1706.7,-4787.4,9822.0,-93.6,-6.9,-5.7,-463.2,237.3,-0.3,133.2,-654.6,-992.7,0,2634,268435456,43,0, 
1.4667,-443.4,-894.6,-553.8,299.1,-397.2,-195.9,431.4,-832.5,-15338.7,188.7,812.7,280.2,-1689.6,-4909.5,3295.5,-95.7,-6.6,-6.0,-447.0,252.3,-0.9,149.7,-929.4,-1027.8,0,2640,268435456,44,0, 
1.4700,-441.3,-898.5,-556.8,298.2,-407.1,-171.0,435.0,-822.0,-8002.8,180.6,810.9,269.1,-1671.6,-4766.1,-2739.3,-86.7,-7.2,-5.7,-446.7,245.1,-0.6,143.7,-665.4,-984.9,0,2646,268435456,45,0, 
1.4733,-447.6,-927.3,-587.1,273.9,-432.0,-141.9,430.8,-819.3,21266.7,143.4,780.3,243.0,-1691.4,-4557.9,4125.3,-76.8,-6.9,-6.0,-477.9,220.2,-0.6,109.2,-220.5,-928.8,0,2652,268435456,46,0, 
1.4767,-454.8,-933.6,-593.1,266.4,-440.7,-146.1,421.8,-830.7,32233.5,143.7,772.5,235.2,-1713.9,-4578.9,9830.1,-82.2,-6.9,-6.0,-485.7,213.9,-0.9,111.3,-222.6,-926.1,0,2658,268435456,47,0, 
1.4800,-447.6,-912.9,-569.7,282.9,-414.9,-182.7,426.9,-839.7,9262.5,170.1,793.2,262.8,-1717.5,-4785.6,9785.4,-89.7,-6.9,-6.0,-464.1,231.6,-0.6,141.0,-650.4,-992.1,0,2664,268435456,48,0, 
1.4833,-449.1,-893.7,-549.6,302.1,-391.5,-184.8,433.8,-839.1,-15486.9,192.3,813.3,281.1,-1700.7,-4910.7,3130.8,-96.6,-6.9,-6.0,-446.4,248.7,-0.6,159.9,-940.2,-1026.6,0,2670,268435456,49,0, 
1.4867,-446.1,-903.6,-561.9,295.5,-408.3,-174.3,436.8,-829.5,-8447.4,179.1,806.7,274.5,-1687.8,-4770.9,-2894.7,-80.1,-6.9,-5.7,-450.0,244.2,-0.6,147.6,-669.3,-984.0,0,2676,268435456,50,0, 
1.4900,-451.5,-932.1,-587.4,266.1,-434.7,-149.7,427.5,-830.1,21044.4,144.6,777.9,240.3,-1698.3,-4581.3,3982.5,-78.0,-7.2,-6.0,-476.4,218.7,-0.9,117.3,-248.4,-932.4,0,2682,268435456,51,0, 
1.4933,-450.0,-934.5,-595.2,258.6,-439.8,-156.6,421.8,-837.9,31788.9,141.3,765.3,235.5,-1723.5,-4584.3,9830.1,-78.0,-6.9,-6.0,-487.8,215.4,-0.9,112.8,-239.4,-938.4,0,2688,268435456,52,0, 
1.4967,-451.5,-912.9,-567.3,286.8,-408.3,-183.0,427.2,-844.2,8669.7,180.6,802.8,267.3,-1722.9,-4806.0,9723.3,-97.8,-6.9,-6.0,-458.4,241.5,-0.6,147.9,-665.1,-996.9,0,2694,268435456,53,0, 
1.5000,-447.9,-895.2,-552.6,302.4,-393.9,-201.6,425.7,-847.5,-16376.1,195.0,815.1,279.0,-1710.6,-4928.7,2697.3,-102.6,-6.9,-6.0,-449.7,252.9,0.0,152.1,-935.4,-1033.2,0,2700,268435456,54,0, 
1.5033,-450.9,-910.8,-566.4,282.0,-415.2,-183.3,433.5,-841.2,-9188.4,168.6,792.0,259.5,-1704.3,-4791.3,-3318.6,-86.4,-6.9,-6.3,-471.6,231.0,-0.9,136.5,-673.2,-995.4,0,2706,268435456,55,0, 
1.5067,-448.5,-927.6,-587.4,266.1,-438.0,-147.3,427.5,-833.4,20081.1,147.3,773.7,234.6,-1714.2,-4582.8,3387.0,-74.7,-6.9,-5.7,-486.3,216.0,-0.6,105.6,-223.5,-934.8,0,2712,268435456,56,0, 
1.5100,-452.1,-942.6,-596.4,260.7,-441.0,-154.2,425.4,-839.1,30825.6,145.8,772.5,234.6,-1728.9,-4615.8,9776.7,-73.8,-6.9,-6.0,-495.3,213.0,-0.9,110.7,-227.7,-939.6,0,2718,268435456,57,0, 
1.5133,-451.8,-916.2,-573.3,280.2,-417.9,-186.3,426.0,-846.0,7706.4,166.8,789.9,261.0,-1731.3,-4820.1,9564.3,-77.7,-7.2,-6.0,-470.4,234.0,-1.2,135.0,-655.8,-997.2,0,2724,268435456,58,0, 
1.5167,-448.2,-898.5,-558.3,295.5,-400.8,-207.0,428.7,-847.2,-17191.2,181.2,802.8,273.3,-1714.2,-4953.9,2026.8,-91.8,-6.9,-6.0,-462.0,241.5,-0.9,151.8,-952.5,-1039.5,0,2730,268435456,59,0, 
1.5200,-446.7,-909.0,-566.1,287.7,-411.3,-177.6,430.5,-838.5,-9929.4,174.3,790.8,261.0,-1698.9,-4825.8,-3840.0,-84.9,-6.6,-6.0,-470.4,235.8,-0.6,140.4,-692.7,-990.9,0,2736,268435456,60,0, 
1.5233,-453.0,-932.7,-591.6,264.9,-438.9,-158.4,427.2,-834.6,19414.2,142.8,770.1,234.0,-1716.3,-4627.2,2810.1,-75.3,-6.9,-5.7,-492.3,215.4,-0.6,117.0,-260.1,-932.7,0,2742,268435456,61,0, 
1.5267,-450.6,-936.0,-593.7,261.9,-439.5,-159.9,420.6,-839.7,29936.4,149.4,769.8,233.1,-1727.1,-4638.3,9704.7,-79.5,-7.2,-6.0,-491.1,215.4,-0.6,111.6,-261.0,-940.8,0,2748,268435456,62,0, 
1.5300,-450.6,-916.2,-574.8,282.0,-418.2,-186.0,422.4,-852.3,6743.1,174.0,791.7,257.4,-1725.6,-4860.3,9385.8,-91.2,-7.2,-5.7,-476.4,225.6,-1.2,139.8,-691.2,-1002.3,0,2754,268435456,63,0, 
1.5333,-445.2,-889.8,-551.4,303.6,-396.3,-207.0,431.4,-847.2,-18525.0,190.8,817.5,281.1,-1695.6,-4961.7,1252.5,-89.7,-6.9,-6.3,-450.0,255.0,-0.9,161.4,-941.4,-1035.9,0,2760,268435456,64,0, 
1.5367,-448.5,-904.8,-566.1,287.1,-414.0,-188.4,433.8,-838.5,-10892.7,174.9,800.1,262.5,-1688.4,-4846.8,-4556.1,-83.7,-6.6,-5.4,-471.3,235.2,-0.6,143.1,-692.4,-996.3,0,2766,268435456,65,0, 
1.5400,-452.4,-931.2,-591.9,263.1,-439.2,-163.8,427.5,-838.8,18376.8,147.9,774.9,230.4,-1706.1,-4647.3,2011.8,-74.4,-7.2,-6.0,-490.8,214.2,-0.9,108.3,-260.1,-944.1,0,2772,268435456,66,0, 
1.5433,-457.5,-939.0,-595.8,256.8,-444.3,-167.1,423.3,-845.1,29343.6,147.0,768.9,234.0,-1719.6,-4674.9,9558.9,-78.6,-6.6,-5.7,-488.4,213.6,-0.3,111.3,-257.7,-940.5,0,2778,268435456,67,0, 
1.5467,-451.2,-914.7,-567.3,283.2,-414.3,-197.1,422.1,-850.5,6150.3,180.0,795.6,265.2,-1718.7,-4883.1,9153.0,-91.8,-6.9,-6.3,-466.2,242.4,-0.6,144.9,-699.9,-1005.9,0,2784,268435456,68,0, 
1.5500,-448.5,-893.7,-552.6,295.5,-402.3,-213.3,426.0,-853.8,-18895.5,192.9,810.9,279.6,-1702.5,-5007.0,643.2,-96.3,-6.6,-5.7,-453.9,250.8,-0.6,163.5,-967.2,-1039.8,0,2790,268435456,69,0, 
1.5533,-450.3,-909.0,-568.5,279.6,-415.5,-192.0,430.2,-845.1,-11485.5,176.1,791.4,256.8,-1700.4,-4872.0,-4972.8,-81.3,-6.9,-5.7,-472.5,235.5,-0.9,138.3,-709.5,-998.7,0,2796,268435456,70,0, 
1.5567,-452.1,-933.6,-592.5,257.4,-439.8,-167.4,427.8,-842.1,18006.3,149.1,772.2,235.8,-1705.5,-4682.7,1474.5,-74.1,-6.9,-5.7,-487.5,214.5,-0.6,111.6,-276.9,-945.9,0,2802,268435456,71,0, 
1.5600,-454.8,-939.3,-593.7,249.9,-447.9,-168.9,424.5,-848.1,28232.1,153.0,770.7,228.3,-1724.1,-4703.7,9414.0,-77.1,-6.9,-6.0,-488.7,209.4,-0.6,107.7,-258.6,-943.8,0,2808,268435456,72,0, 
1.5633,-453.9,-920.7,-578.4,267.9,-423.3,-203.1,418.5,-858.9,5335.2,172.5,784.5,254.4,-1731.3,-4925.1,8871.0,-85.5,-6.6,-5.7,-471.0,233.7,-0.6,133.8,-690.0,-1011.6,0,2814,268435456,73,0, 
1.5667,-452.7,-902.1,-558.3,291.0,-404.4,-217.5,426.9,-858.9,-19710.6,190.8,805.8,273.0,-1706.1,-5051.4,-63.9,-92.1,-6.9,-5.7,-450.9,244.2,-0.6,150.3,-959.7,-1036.8,0,2820,268435456,74,0, 
1.5700,-449.7,-906.9,-567.9,283.5,-413.4,-194.7,429.0,-847.2,-12152.4,179.4,796.2,263.1,-1690.2,-4917.9,-5522.7,-80.4,-6.9,-6.0,-462.6,237.9,-0.6,141.9,-706.2,-994.8,0,2826,268435456,75,0, 
1.5733,-454.8,-936.0,-598.5,259.5,-445.2,-168.0,422.1,-850.2,17191.2,145.8,764.4,230.7,-1710.9,-4725.6,798.9,-77.7,-6.9,-6.0,-492.9,207.9,-0.9,115.5,-280.8,-942.9,0,2832,268435456,76,0, 
1.5767,-455.1,-937.5,-597.0,254.4,-445.2,-164.7,419.4,-854.1,27713.4,151.2,761.4,229.8,-1732.2,-4746.0,9222.6,-82.5,-6.9,-6.0,-486.3,212.1,-0.9,110.1,-286.2,-944.7,0,2838,268435456,77,0, 
1.5800,-448.5,-910.8,-569.4,281.4,-419.7,-204.6,420.9,-858.9,4371.9,188.7,795.9,262.5,-1725.6,-4961.7,8550.6,-92.7,-6.6,-6.3,-456.0,234.0,-0.6,147.3,-711.6,-998.4,0,2844,268435456,78,0, 
1.5833,-449.4,-894.9,-555.9,293.4,-405.0,-219.6,427.5,-861.0,-20822.1,193.2,803.4,273.6,-1717.5,-5094.9,-760.5,-87.3,-6.9,-6.0,-448.5,242.7,-0.6,158.7,-979.5,-1039.8,0,2850,268435456,79,0, 
1.5867,-447.0,-906.3,-569.4,281.1,-420.3,-190.8,428.7,-852.3,-13412.1,181.8,789.3,260.1,-1695.3,-4959.6,-6159.3,-80.7,-6.9,-6.0,-463.2,231.3,-0.3,143.4,-704.4,-992.4,0,2856,268435456,80,0, 
1.5900,-451.5,-930.3,-586.5,265.2,-438.9,-158.1,423.0,-845.7,15857.4,156.3,772.2,241.5,-1715.4,-4767.6,-87.0,-76.8,-6.6,-5.7,-473.7,217.5,-0.6,127.5,-270.0,-933.0,0,2862,268435456,81,0, 
1.5933,-454.5,-938.4,-597.0,255.0,-446.7,-161.1,419.1,-852.9,26527.8,147.6,766.2,233.4,-1733.7,-4796.4,8744.7,-78.6,-6.9,-6.0,-482.4,206.1,-0.6,120.3,-276.9,-941.4,0,2868,268435456,82,0, 
1.5967,-450.6,-912.0,-570.0,279.9,-419.7,-201.0,414.3,-860.7,3556.8,174.6,792.9,260.4,-1733.7,-5026.2,7968.9,-91.2,-6.6,-6.3,-455.4,230.4,-0.6,146.1,-717.9,-1005.6,0,2874,268435456,83,0, 
1.6000,-447.9,-892.2,-549.3,299.1,-400.8,-213.9,422.1,-859.8,-21266.7,202.5,816.0,282.6,-1701.9,-5141.1,-1517.7,-94.2,-6.6,-5.4,-433.5,244.8,-0.6,159.9,-990.0,-1036.5,0,2880,268435456,84,0, 
1.6033,-447.9,-910.8,-564.0,285.3,-416.4,-192.0,418.8,-852.3,-13782.6,183.0,791.7,261.0,-1697.7,-5018.1,-6740.1,-84.6,-7.2,-6.3,-452.1,231.9,-0.9,142.8,-719.4,-1000.5,0,2886,268435456,85,0, 
1.6067,-452.1,-932.7,-590.7,258.9,-445.5,-162.3,419.7,-847.2,15412.8,151.5,766.8,231.9,-1714.5,-4822.2,-574.2,-76.5,-7.2,-5.7,-477.0,207.0,-0.3,116.4,-285.0,-939.3,0,2892,268435456,86,0, 
1.6100,-452.7,-938.4,-598.5,256.8,-444.6,-163.2,414.9,-851.7,26009.1,149.7,765.6,234.3,-1737.6,-4847.4,8301.6,-82.5,-6.6,-6.0,-477.3,213.0,-1.2,117.9,-280.5,-942.9,0,2898,268435456,87,0, 
1.6133,-451.2,-913.8,-568.5,277.5,-419.1,-200.1,414.0,-856.8,2964.0,180.9,792.3,263.1,-1737.0,-5065.8,7495.8,-96.6,-7.2,-5.7,-456.0,238.5,-1.2,147.6,-715.5,-1004.7,0,2904,268435456,88,0, 
1.6167,-444.3,-896.1,-551.1,297.9,-398.4,-205.2,428.1,-850.2,-22007.7,192.9,808.5,282.0,-1721.1,-5174.1,-2007.6,-93.3,-7.2,-6.3,-443.1,253.5,-0.6,164.1,-957.9,-1028.4,0,2910,268435456,89,0, 
1.6200,-451.2,-911.4,-567.6,286.8,-419.1,-184.8,432.3,-847.5,-14153.1,174.9,792.0,264.6,-1713.9,-5061.0,-7158.3,-84.6,-7.2,-5.7,-464.1,236.4,-0.9,137.1,-696.9,-991.8,0,2916,268435456,90,0, 
1.6233,-449.4,-937.8,-589.2,267.0,-441.9,-151.5,423.0,-838.5,15338.7,152.4,771.6,236.7,-1729.5,-4868.4,-870.9,-80.7,-7.2,-6.0,-484.5,212.1,-0.9,117.6,-267.6,-938.1,0,2922,268435456,91,0, 
1.6267,-448.5,-936.0,-594.9,258.3,-444.3,-170.7,417.9,-843.0,26157.3,149.7,766.2,235.8,-1737.6,-4884.9,8137.2,-81.9,-6.6,-5.7,-488.1,215.1,-0.6,114.9,-268.5,-941.1,0,2928,268435456,92,0, 
1.6300,-449.7,-915.0,-574.5,275.1,-426.3,-204.6,413.4,-854.1,3260.4,166.8,792.9,255.0,-1737.0,-5103.3,7445.7,-94.5,-6.9,-5.7,-465.9,225.6,-0.9,136.2,-705.6,-1006.5,0,2934,0,93,0, 
1.6333,-447.3,-895.8,-557.1,292.2,-404.7,-216.6,420.0,-852.3,-21192.6,192.3,807.9,272.7,-1725.0,-5224.8,-1854.0,-98.7,-6.9,-6.0,-448.8,239.1,-0.6,153.9,-967.5,-1039.5,0,2940,0,94,0, 
1.6367,-450.0,-911.4,-571.8,279.0,-425.1,-195.0,419.1,-843.9,-13263.9,168.9,786.0,253.8,-1725.9,-5097.9,-6830.1,-83.7,-6.9,-6.3,-465.6,223.5,-0.9,135.9,-706.8,-994.5,0,2946,0,95,0, 
1.6400,-451.8,-933.0,-593.4,259.8,-444.3,-161.7,414.3,-836.7,16672.5,153.9,764.1,231.3,-1731.6,-4895.7,-395.7,-77.7,-7.2,-6.0,-489.3,210.0,-0.3,109.8,-271.8,-936.3,0,2952,0,96,0, 
1.6433,-456.0,-939.3,-602.7,247.5,-459.0,-173.4,406.2,-847.8,27417.0,148.2,757.8,221.1,-1755.0,-4912.2,8681.7,-83.7,-7.2,-6.0,-489.6,192.6,-0.3,108.6,-292.2,-952.5,0,2958,0,97,0, 
1.6467,-451.8,-920.1,-579.3,272.4,-430.8,-201.9,414.0,-852.0,4371.9,173.1,784.8,253.5,-1747.5,-5119.8,8127.3,-93.9,-6.9,-6.0,-469.5,220.5,-0.6,132.3,-702.0,-1010.7,0,2964,0,98,0, 
1.6500,-450.3,-901.2,-563.7,290.7,-414.0,-222.3,417.9,-851.1,-20229.3,187.2,799.5,270.0,-1726.5,-5232.6,-1233.3,-94.8,-6.9,-6.3,-457.8,233.1,-0.9,149.7,-963.0,-1042.5,0,2970,0,99,0, 
1.6533,-450.3,-906.9,-568.8,287.1,-417.6,-191.1,423.9,-835.2,-12522.9,179.7,792.9,265.5,-1720.8,-5087.1,-6271.2,-87.0,-6.9,-5.7,-465.3,227.4,-0.6,145.5,-697.2,-996.3,0,2976,0,100,0, 
1.6567,-458.1,-938.1,-592.8,263.4,-442.8,-156.3,422.4,-827.4,17117.1,156.3,772.5,234.0,-1729.2,-4885.5,122.7,-81.6,-7.2,-5.7,-485.7,207.3,-0.9,114.9,-273.0,-934.8,0,2982,0,101,0, 
1.6600,-457.5,-943.2,-603.3,253.8,-451.2,-171.6,416.4,-836.1,27565.2,146.4,768.6,226.2,-1741.2,-4895.7,8926.5,-85.2,-6.6,-6.0,-493.8,201.0,-0.6,107.1,-275.4,-946.5,0,2988,0,102,0, 
1.6633,-456.3,-919.5,-577.5,275.7,-423.0,-198.3,422.7,-836.4,4668.3,175.8,786.3,254.1,-1739.4,-5107.2,8341.8,-97.2,-6.9,-5.7,-476.1,218.4,-0.9,136.2,-702.9,-1004.1,0,2994,0,103,0, 
1.6667,-453.3,-904.8,-561.3,289.8,-412.8,-218.4,423.0,-835.8,-20377.5,184.8,797.1,269.1,-1725.6,-5220.3,-1045.8,-95.4,-6.6,-5.4,-463.8,235.2,-0.3,150.9,-961.5,-1042.2,0,3000,0,104,0, 
1.6700,-454.5,-911.4,-569.7,280.8,-421.8,-184.8,427.5,-827.1,-12374.7,173.1,789.0,260.4,-1717.2,-5089.8,-6142.8,-89.1,-7.2,-5.4,-471.0,223.5,-0.6,138.6,-703.2,-993.6,0,3006,0,105,0, 
1.6733,-455.1,-936.9,-595.8,256.2,-448.2,-163.2,419.4,-822.9,16968.9,145.5,761.4,230.4,-1729.2,-4886.7,207.9,-81.0,-6.6,-5.7,-493.2,200.1,-0.6,111.6,-275.4,-933.6,0,3012,0,106,0, 
1.6767,-459.3,-942.3,-599.4,251.1,-453.3,-168.3,416.7,-829.5,27565.2,141.6,758.7,226.8,-1751.7,-4897.8,8963.7,-86.1,-7.2,-6.0,-494.1,197.4,-1.2,109.8,-277.8,-942.6,0,3018,0,107,0, 
1.6800,-459.6,-921.0,-582.0,272.7,-429.3,-202.2,417.0,-837.9,4297.8,169.8,783.6,250.5,-1753.2,-5111.1,8313.0,-97.2,-6.9,-5.7,-473.4,217.8,-0.6,133.2,-713.4,-1011.3,0,3024,0,108,0, 
1.6833,-459.0,-907.5,-563.1,293.1,-405.0,-211.5,425.7,-832.2,-20377.5,181.5,799.8,272.7,-1747.2,-5225.7,-1077.6,-95.7,-6.9,-5.7,-460.5,240.0,-0.6,150.6,-979.2,-1035.3,0,3030,0,109,0, 
1.6867,-457.8,-913.5,-571.2,283.2,-421.5,-186.9,425.7,-820.8,-12374.7,176.1,787.8,256.5,-1734.0,-5088.6,-6165.6,-91.5,-6.6,-6.0,-466.5,219.6,-0.9,141.9,-709.5,-993.6,0,3036,0,110,0, 
1.6900,-461.1,-938.7,-593.4,263.7,-441.9,-155.1,421.8,-816.6,16746.6,147.3,770.4,236.1,-1747.8,-4871.4,145.8,-81.9,-6.9,-5.7,-478.5,212.7,-0.9,123.3,-256.2,-927.6,0,3042,0,111,0, 
1.6933,-463.2,-944.1,-600.0,252.9,-453.0,-171.3,416.4,-826.5,27565.2,145.8,765.0,233.4,-1765.2,-4895.7,8908.5,-83.7,-6.9,-5.7,-486.0,201.0,-0.3,115.2,-270.6,-936.6,0,3048,0,112,0, 
1.6967,-461.7,-921.9,-573.3,277.5,-425.7,-201.3,421.8,-829.5,4297.8,178.2,794.1,261.0,-1760.7,-5099.1,8331.3,-101.4,-6.9,-5.7,-459.0,224.4,-0.6,150.0,-700.5,-998.4,0,3054,0,113,0, 
1.7000,-456.0,-899.4,-551.1,298.2,-404.1,-214.2,430.5,-825.6,-20081.1,195.6,813.0,281.4,-1735.5,-5220.0,-1025.1,-106.5,-6.9,-5.7,-443.1,239.1,-0.9,158.7,-960.9,-1028.1,0,3060,0,114,0, 
1.7033,-455.7,-909.3,-565.8,291.0,-417.3,-186.9,434.1,-811.8,-12004.2,184.2,801.9,270.0,-1725.9,-5094.0,-6024.9,-99.6,-7.2,-6.0,-453.9,230.7,-0.6,153.0,-703.2,-985.5,0,3066,0,115,0, 
1.7067,-457.8,-934.2,-591.3,260.7,-447.9,-159.6,431.7,-807.6,17191.2,158.7,765.9,239.4,-1743.9,-4879.8,343.8,-88.5,-6.6,-6.0,-481.5,206.4,-0.3,118.8,-250.2,-922.8,0,3072,0,116,0, 
1.7100,-462.0,-938.1,-595.5,255.6,-452.1,-161.1,427.5,-812.7,28083.9,158.4,766.5,232.2,-1766.1,-4898.1,9012.9,-96.3,-6.9,-5.7,-483.3,198.3,-0.9,114.9,-265.2,-941.1,0,3078,0,117,0, 
1.7133,-457.5,-912.6,-570.6,281.7,-417.3,-203.4,428.7,-819.6,5038.8,187.2,798.9,265.5,-1761.0,-5108.7,8518.2,-102.0,-6.9,-6.0,-459.6,230.4,-0.9,147.3,-697.2,-998.1,0,3084,0,118,0, 
1.7167,-460.2,-899.7,-557.7,292.5,-408.0,-217.2,437.7,-821.4,-19636.5,198.3,807.3,275.7,-1749.3,-5215.5,-687.3,-103.5,-6.6,-6.0,-446.1,234.3,-0.6,167.4,-948.3,-1028.7,0,3090,0,119,0, 
1.7200,-458.4,-911.1,-564.6,285.9,-416.4,-187.2,443.7,-808.5,-11856.0,176.7,802.8,266.4,-1739.1,-5064.9,-5827.8,-95.4,-6.6,-6.0,-456.6,229.2,-0.3,154.2,-667.8,-982.2,0,3096,0,120,0, 
1.7233,-460.8,-939.3,-592.8,261.9,-444.3,-160.5,436.5,-807.6,17858.1,146.1,776.7,238.8,-1758.3,-4872.9,696.0,-86.1,-7.2,-5.7,-475.8,206.1,-0.3,121.8,-240.3,-930.3,0,3102,0,121,0, 
1.7267,-468.0,-938.1,-596.1,254.1,-447.9,-165.9,429.0,-813.0,28454.4,149.7,770.7,238.5,-1778.7,-4881.3,9178.2,-92.1,-6.9,-5.7,-475.5,202.2,-1.2,125.1,-247.5,-937.2,0,3108,0,122,0, 
1.7300,-466.2,-920.7,-571.5,277.8,-419.7,-189.0,430.8,-816.6,5261.1,174.0,794.1,264.9,-1784.1,-5095.8,8652.3,-104.1,-6.9,-6.0,-455.7,227.7,-0.6,139.5,-676.8,-998.7,0,3114,0,123,0, 
1.7333,-463.2,-899.1,-553.5,292.2,-409.2,-209.7,433.8,-818.4,-19340.1,194.7,814.8,280.2,-1747.8,-5200.2,-395.4,-109.8,-6.9,-5.7,-442.2,232.5,-0.3,163.2,-936.6,-1037.7,0,3120,0,124,0, 
1.7367,-460.5,-911.1,-567.3,282.9,-419.1,-181.2,440.1,-804.6,-11040.9,168.0,795.6,260.7,-1741.8,-5068.2,-5503.2,-96.0,-7.2,-6.3,-459.6,221.7,-0.6,138.0,-673.5,-992.7,0,3126,0,125,0, 
1.7400,-461.1,-934.5,-594.6,258.6,-448.5,-154.8,433.5,-801.0,18673.2,146.4,770.7,235.8,-1752.9,-4866.3,1208.1,-86.1,-6.9,-6.0,-484.8,200.7,-0.6,121.2,-255.6,-940.8,0,3132,0,126,0, 
1.7433,-460.8,-934.8,-591.6,256.5,-447.9,-159.9,426.3,-804.3,29047.2,157.2,775.2,239.7,-1773.0,-4875.6,9373.2,-90.3,-6.9,-6.3,-478.8,209.4,-0.3,125.7,-246.0,-939.3,0,3138,0,127,0, 
1.7467,-460.8,-917.1,-575.7,271.8,-427.8,-191.4,428.1,-814.8,5779.8,176.1,795.9,261.6,-1788.3,-5073.3,8867.7,-98.1,-6.6,-5.7,-465.0,216.9,-1.2,140.1,-662.7,-1002.0,0,3144,0,128,0, 
1.7500,-461.1,-904.2,-560.7,290.4,-413.1,-207.3,434.7,-815.7,-18302.7,189.6,808.8,273.9,-1766.4,-5195.7,177.3,-104.1,-6.9,-5.7,-447.9,234.3,-1.2,156.3,-942.0,-1040.7,0,3150,0,129,0, 
1.7533,-463.5,-915.6,-574.8,279.0,-426.3,-183.9,432.3,-804.9,-10225.8,171.3,795.6,259.8,-1745.4,-5062.2,-4983.6,-100.5,-6.9,-5.7,-463.8,221.4,-1.5,145.5,-675.0,-992.1,0,3156,0,130,0, 
1.7567,-468.0,-940.5,-603.9,251.1,-456.9,-162.0,427.5,-797.7,19414.2,138.0,767.4,225.9,-1759.2,-4852.5,1838.1,-93.6,-6.9,-5.7,-486.3,191.1,-0.6,105.6,-247.8,-939.3,0,3162,0,131,0, 
1.7600,-468.6,-945.0,-607.5,247.5,-457.2,-168.6,422.1,-801.9,30010.5,134.7,766.2,225.9,-1779.3,-4858.8,9535.8,-91.5,-6.9,-6.0,-488.1,190.8,-0.9,110.7,-248.4,-944.7,0,3168,0,132,0, 
1.7633,-465.3,-925.5,-584.4,267.9,-431.1,-196.5,424.5,-811.2,6891.3,161.4,786.0,254.7,-1768.2,-5058.0,9183.9,-105.0,-6.9,-6.0,-468.6,214.8,-0.3,139.2,-684.3,-1005.9,0,3174,0,133,0, 
1.7667,-465.3,-904.2,-562.8,291.3,-410.7,-214.5,429.6,-805.2,-17339.4,180.6,805.8,275.7,-1751.7,-5168.4,940.2,-112.8,-6.6,-5.7,-448.2,231.0,-0.6,148.5,-953.7,-1039.8,0,3180,0,134,0, 
1.7700,-462.3,-915.3,-573.3,281.1,-424.5,-183.6,434.7,-793.2,-9336.6,165.3,794.7,257.7,-1746.6,-5010.9,-4399.5,-98.7,-6.9,-5.4,-462.9,220.5,-0.6,133.5,-664.8,-994.8,0,3186,0,135,0, 
1.7733,-468.6,-938.1,-600.9,252.0,-455.1,-159.9,425.4,-792.9,20377.5,137.1,763.8,226.5,-1755.9,-4805.4,2564.1,-90.6,-7.2,-6.0,-489.6,198.6,-0.6,111.0,-234.9,-936.6,0,3192,0,136,0, 
1.7767,-471.6,-947.1,-603.9,246.0,-456.3,-165.3,423.0,-800.4,31196.1,140.4,763.8,226.5,-1773.6,-4816.8,9685.5,-99.6,-7.2,-6.0,-493.2,195.3,-0.9,107.7,-254.4,-938.7,0,3198,0,137,0, 
1.7800,-470.1,-924.3,-578.7,271.2,-428.1,-201.9,419.4,-804.9,8151.0,163.8,787.8,252.0,-1756.2,-5015.7,9467.1,-110.4,-6.6,-6.3,-476.1,216.6,-0.9,132.6,-695.7,-1004.7,0,3204,0,138,0, 
1.7833,-465.3,-909.0,-563.7,289.2,-412.5,-210.9,428.7,-801.3,-16302.0,179.7,803.7,269.4,-1736.4,-5119.5,1870.5,-107.4,-6.9,-6.0,-462.9,230.7,-0.6,152.7,-946.5,-1032.6,0,3210,0,139,0, 
1.7867,-467.1,-916.8,-577.5,279.0,-432.6,-194.1,430.2,-791.4,-7928.7,163.2,790.2,252.3,-1725.6,-4966.5,-3573.9,-99.3,-6.9,-6.0,-473.7,217.8,-0.6,133.5,-670.5,-994.5,0,3216,0,140,0, 
1.7900,-471.6,-944.4,-608.7,251.1,-458.1,-165.6,426.6,-787.8,21933.6,132.0,761.7,221.4,-1734.9,-4761.6,3604.5,-91.8,-7.2,-5.7,-499.5,193.2,-0.3,101.4,-249.6,-934.2,0,3222,0,141,0, 
1.7933,-473.1,-952.2,-610.5,244.2,-464.4,-171.6,418.2,-795.6,32233.5,133.2,756.6,218.7,-1755.6,-4758.0,9830.1,-91.5,-6.9,-6.0,-505.5,187.5,-0.6,98.1,-239.7,-939.3,0,3228,0,142,0, 
1.7967,-473.1,-926.7,-584.7,267.0,-436.2,-196.5,422.1,-804.6,9484.8,160.5,779.1,245.7,-1758.6,-4962.0,9708.3,-105.9,-6.9,-5.7,-486.9,209.1,-0.6,128.4,-686.4,-1001.7,0,3234,268435456,143,0, 
1.8000,-469.5,-913.5,-566.7,282.9,-418.8,-217.8,427.5,-805.8,-14820.0,173.1,797.7,264.0,-1742.4,-5059.2,2918.1,-103.5,-6.9,-6.0,-474.9,226.2,-0.9,144.3,-942.9,-1032.0,0,3240,268435456,144,0, 
1.8033,-473.1,-922.8,-578.7,273.0,-434.7,-194.7,430.5,-794.7,-6372.6,148.2,781.2,245.7,-1733.1,-4906.8,-2632.5,-94.8,-7.2,-6.0,-486.3,213.9,-0.3,127.8,-675.6,-993.6,0,3246,268435456,145,0, 
1.8067,-473.1,-945.0,-601.8,247.8,-460.5,-154.2,425.1,-788.1,23193.3,134.7,755.1,219.9,-1740.9,-4698.0,4624.8,-93.0,-6.6,-6.0,-502.8,187.5,-0.6,103.8,-251.4,-928.2,0,3252,268435456,146,0, 
1.8100,-473.4,-949.2,-606.0,246.3,-458.4,-169.8,416.7,-792.0,34011.9,134.7,758.7,224.1,-1765.5,-4694.7,9830.1,-92.4,-7.2,-6.0,-504.9,193.5,-0.9,108.3,-250.5,-949.2,0,3258,268435456,147,0, 
1.8133,-475.2,-930.0,-585.9,263.7,-435.0,-198.0,420.6,-801.3,10744.5,156.3,779.1,249.6,-1768.2,-4899.0,9830.1,-105.6,-7.2,-6.3,-488.4,212.1,-0.6,127.8,-671.1,-1005.0,0,3264,268435456,148,0, 
1.8167,-471.0,-913.5,-565.8,282.3,-414.6,-216.3,429.3,-798.9,-13486.2,174.3,797.7,267.6,-1739.1,-4993.5,3925.2,-106.8,-7.2,-6.0,-474.0,227.7,-1.2,145.2,-930.3,-1039.8,0,3270,268435456,149,0, 
1.8200,-472.5,-926.1,-582.6,268.8,-430.2,-188.4,429.0,-791.1,-5187.0,157.5,787.2,248.1,-1732.2,-4845.3,-1701.0,-100.2,-6.9,-6.0,-484.5,214.5,-0.9,124.2,-667.8,-994.8,0,3276,268435456,150,0, 
1.8233,-472.2,-945.6,-603.3,245.7,-454.8,-159.9,424.5,-786.9,24453.0,132.6,767.4,222.6,-1743.0,-4619.4,5492.4,-91.2,-7.2,-6.0,-492.6,196.8,-0.6,106.8,-223.2,-935.4,0,3282,268435456,151,0, 
1.8267,-478.5,-958.2,-614.4,240.3,-462.6,-172.8,411.6,-797.1,34901.1,131.4,753.0,219.0,-1769.4,-4633.2,9830.1,-97.5,-6.6,-6.0,-498.9,193.5,-1.2,99.6,-231.6,-943.2,0,3288,268435456,152,0, 
1.8300,-472.8,-929.7,-591.3,258.0,-437.4,-204.6,415.2,-802.8,12004.2,154.8,773.1,247.2,-1770.3,-4826.1,9830.1,-108.0,-6.6,-6.0,-480.3,213.6,-0.9,130.2,-672.6,-1011.0,0,3294,268435456,153,0, 
1.8333,-470.4,-917.1,-576.0,277.2,-420.0,-223.8,418.8,-803.7,-12226.5,169.8,785.7,258.0,-1749.9,-4935.9,4894.8,-111.0,-7.2,-6.0,-467.4,220.8,-0.9,140.7,-942.6,-1042.2,0,3300,268435456,154,0, 
1.8367,-474.0,-928.2,-589.8,263.4,-436.8,-201.3,419.1,-795.9,-4075.5,144.9,770.1,240.6,-1729.8,-4782.3,-799.5,-99.0,-6.9,-5.7,-482.7,203.7,-0.6,115.5,-662.4,-998.4,0,3306,268435456,155,0, 
1.8400,-477.0,-950.7,-612.0,239.4,-462.9,-171.6,413.7,-792.6,25638.6,122.1,748.5,215.7,-1745.7,-4571.7,6329.4,-93.0,-6.6,-6.0,-497.4,186.3,-0.6,92.1,-236.7,-943.2,0,3312,268435456,156,0, 
1.8433,-475.5,-954.9,-609.9,239.1,-462.0,-170.7,409.5,-799.5,35864.4,122.7,758.7,221.7,-1765.5,-4563.6,9830.1,-95.4,-6.9,-6.0,-489.9,188.1,-0.9,100.8,-248.4,-946.8,0,3318,268435456,157,0, 
1.8467,-474.0,-930.0,-585.9,258.9,-435.0,-203.4,412.2,-806.4,12597.0,147.9,777.6,241.5,-1762.2,-4763.4,9830.1,-115.5,-7.2,-5.7,-474.9,208.8,-0.6,121.5,-687.0,-1011.0,0,3324,268435456,158,0, 
1.8500,-470.1,-913.5,-570.0,273.6,-420.6,-217.2,420.0,-805.5,-12152.4,164.4,788.7,257.4,-1742.4,-4857.9,5399.4,-114.9,-6.9,-5.7,-468.9,217.2,-0.9,132.9,-938.7,-1037.4,0,3330,268435456,159,0, 
1.8533,-476.7,-927.3,-580.5,264.6,-429.0,-192.3,420.6,-795.9,-3853.2,152.1,780.0,247.8,-1734.6,-4709.7,-405.6,-107.4,-6.9,-6.3,-476.4,207.0,-0.9,118.5,-665.7,-996.3,0,3336,268435456,160,0, 
1.8567,-476.1,-949.5,-598.8,245.7,-456.6,-167.4,417.0,-790.5,25638.6,127.8,762.3,225.9,-1739.1,-4505.1,6606.6,-99.9,-6.9,-5.7,-489.9,188.7,-0.6,101.7,-235.8,-941.4,0,3342,268435456,161,0, 
1.8600,-480.3,-955.2,-607.8,236.4,-467.1,-174.0,410.4,-798.9,35790.3,123.0,751.2,213.9,-1765.5,-4506.6,9830.1,-102.6,-6.9,-5.4,-501.6,182.7,-0.9,89.1,-241.8,-947.1,0,3348,268435456,162,0, 
1.8633,-479.1,-930.9,-586.5,255.6,-441.9,-210.9,409.5,-810.6,12374.7,147.9,771.3,240.0,-1774.2,-4714.8,9830.1,-119.4,-6.6,-5.7,-483.9,202.2,-0.6,116.4,-679.2,-1013.7,0,3354,268435456,163,0, 
1.8667,-476.4,-914.4,-567.0,279.0,-417.9,-228.0,414.0,-806.7,-11930.1,167.7,797.1,268.5,-1744.8,-4822.8,5507.7,-123.6,-6.6,-5.7,-460.8,218.7,-1.2,142.2,-951.6,-1044.0,0,3360,268435456,164,0, 
1.8700,-475.5,-927.9,-583.2,262.5,-435.3,-203.7,414.6,-801.9,-3927.3,145.8,777.0,245.4,-1740.6,-4672.8,-327.3,-109.8,-6.6,-5.7,-478.5,208.2,-0.9,118.8,-674.4,-1011.0,0,3366,268435456,165,0, 
1.8733,-477.0,-951.3,-609.6,235.5,-466.8,-179.7,408.6,-801.6,25416.3,124.8,757.2,218.1,-1757.1,-4472.4,6614.4,-102.6,-6.9,-6.0,-499.5,184.2,-0.9,92.4,-259.2,-951.3,0,3372,268435456,166,0, 
1.8767,-478.5,-953.4,-610.5,232.5,-467.7,-181.2,399.6,-811.2,35271.6,122.4,760.2,217.5,-1769.1,-4477.8,9830.1,-107.1,-6.9,-5.7,-494.7,180.3,-0.9,95.1,-257.4,-961.2,0,3378,268435456,167,0, 
1.8800,-478.8,-936.9,-589.2,256.8,-437.1,-202.5,406.8,-816.3,11485.5,154.8,781.5,247.5,-1777.5,-4683.9,9830.1,-117.9,-6.6,-6.0,-472.5,209.4,-0.3,126.0,-698.1,-1011.0,0,3384,268435456,168,0, 
1.8833,-471.0,-917.7,-573.9,266.1,-426.0,-228.6,414.6,-816.0,-13560.3,167.1,792.9,258.6,-1759.8,-4776.3,4959.3,-114.3,-6.6,-5.7,-463.8,214.5,-0.3,138.9,-944.1,-1046.1,0,3390,268435456,169,0, 
1.8867,-473.4,-924.3,-580.2,261.6,-439.2,-200.4,416.1,-804.0,-5409.3,148.8,782.1,245.1,-1747.8,-4645.8,-1022.1,-112.5,-6.9,-5.7,-472.8,205.5,-0.3,123.9,-682.2,-1005.6,0,3396,268435456,170,0, 
1.8900,-473.7,-940.8,-599.1,243.6,-459.0,-170.7,413.1,-799.2,23860.2,132.3,768.3,226.5,-1753.2,-4450.2,5952.6,-103.8,-6.9,-6.3,-489.0,191.7,-0.6,102.9,-257.1,-948.0,0,3402,268435456,171,0, 
1.8933,-472.8,-947.4,-599.7,247.2,-457.5,-171.0,411.9,-804.0,33863.7,132.3,769.5,225.6,-1772.7,-4471.8,9830.1,-106.5,-6.6,-5.7,-484.8,190.5,-0.6,105.6,-269.7,-949.8,0,3408,268435456,172,0, 
1.8967,-469.5,-922.5,-576.3,264.9,-431.1,-203.7,414.9,-812.4,10003.5,157.5,791.7,252.6,-1774.8,-4677.6,9830.1,-114.3,-6.9,-5.7,-467.1,216.9,-0.6,133.5,-697.5,-1005.6,0,3414,268435456,173,0, 
1.9000,-465.6,-907.2,-559.2,284.4,-414.3,-219.3,421.8,-809.4,-14968.2,179.7,810.6,269.7,-1747.2,-4785.6,4063.5,-112.8,-6.6,-6.0,-451.8,225.9,-0.9,148.8,-963.6,-1037.1,0,3420,268435456,174,0, 
1.9033,-465.3,-920.7,-573.3,268.2,-431.1,-196.5,423.0,-802.2,-7187.7,157.2,794.4,251.7,-1736.1,-4648.5,-2034.6,-100.2,-6.9,-6.0,-468.6,210.3,-0.6,130.5,-690.0,-993.6,0,3426,268435456,175,0, 
1.9067,-471.9,-947.4,-602.4,246.6,-455.1,-163.8,413.1,-798.9,21933.6,126.3,762.0,218.7,-1747.2,-4465.2,4863.0,-96.3,-6.9,-5.7,-496.5,186.6,-0.6,92.4,-272.4,-944.4,0,3432,268435456,176,0, 
1.9100,-471.0,-948.0,-597.6,243.6,-458.1,-172.2,411.0,-802.5,31714.8,130.5,768.3,225.6,-1754.7,-4487.4,9830.1,-104.1,-6.9,-6.0,-494.1,192.9,-0.6,103.5,-302.1,-951.0,0,3438,268435456,177,0, 
1.9133,-469.8,-923.7,-572.4,263.7,-430.2,-206.7,410.7,-813.0,7854.6,159.6,797.4,253.5,-1749.9,-4709.7,9725.4,-113.1,-6.3,-6.3,-472.5,213.9,-0.6,129.3,-737.4,-1012.8,0,3444,268435456,178,0, 
1.9167,-467.1,-902.7,-553.5,283.2,-409.5,-221.1,419.7,-809.1,-17191.2,181.5,812.4,275.7,-1738.8,-4840.5,2444.7,-116.7,-7.2,-6.3,-454.2,230.7,-0.6,150.9,-999.9,-1043.4,0,3450,268435456,179,0, 
1.9200,-464.1,-915.3,-568.8,273.9,-424.2,-193.5,423.0,-799.2,-9484.8,164.4,801.6,254.1,-1731.3,-4712.7,-3484.5,-101.4,-6.9,-6.0,-463.2,210.3,-0.6,132.9,-723.6,-1001.7,0,3456,268435456,180,0, 
1.9233,-471.3,-946.5,-601.2,247.5,-455.7,-170.1,416.4,-800.4,19414.2,131.7,764.7,224.4,-1748.4,-4532.7,3061.5,-87.9,-6.6,-5.7,-489.3,185.4,-1.2,99.3,-306.6,-944.4,0,3462,268435456,181,0, 
1.9267,-469.8,-951.3,-601.2,246.0,-454.5,-171.3,411.0,-805.2,28676.7,136.8,765.3,229.5,-1760.4,-4557.6,9789.9,-102.9,-7.2,-5.7,-487.5,190.2,-0.6,108.3,-318.3,-951.0,0,3468,268435456,182,0, 
1.9300,-468.0,-922.5,-576.9,269.7,-425.4,-210.0,412.8,-809.7,4668.3,159.3,794.4,257.4,-1758.9,-4784.1,9044.4,-108.0,-6.9,-6.0,-465.3,216.9,-0.6,131.1,-755.4,-1013.7,0,3474,268435456,183,0, 
1.9333,-464.7,-909.0,-560.1,287.4,-411.3,-224.1,418.2,-811.5,-20303.4,173.1,811.8,271.2,-1739.7,-4926.0,182.1,-109.8,-7.2,-6.0,-451.2,222.9,-0.6,144.3,-1011.6,-1046.1,0,3480,268435456,184,0, 
1.9367,-461.7,-920.4,-570.0,279.6,-423.9,-198.6,423.3,-801.3,-12671.1,159.6,798.0,258.0,-1727.7,-4800.6,-5400.6,-94.5,-7.2,-6.0,-462.3,212.1,-0.9,133.5,-736.5,-1002.6,0,3486,268435456,185,0, 
1.9400,-464.4,-946.2,-598.2,252.6,-453.9,-165.3,417.0,-793.8,16079.7,130.5,765.6,228.6,-1743.6,-4623.3,590.1,-85.2,-6.9,-5.1,-483.6,190.5,-0.6,101.7,-301.2,-946.5,0,3492,268435456,186,0, 
1.9433,-466.8,-946.5,-597.0,252.9,-447.0,-167.7,411.6,-796.2,25712.7,139.5,769.2,234.6,-1757.4,-4660.5,9015.3,-85.8,-6.9,-5.7,-485.7,197.4,-0.9,102.0,-303.9,-945.9,0,3498,268435456,187,0, 
1.9467,-465.9,-920.1,-575.1,269.4,-432.3,-207.6,410.1,-806.7,1407.9,160.2,789.6,251.4,-1748.4,-4895.7,7570.8,-99.3,-6.9,-6.0,-465.3,206.1,-0.6,131.1,-753.6,-1013.1,0,3504,268435456,188,0, 
1.9500,-464.1,-903.9,-558.0,288.0,-404.7,-218.7,419.1,-806.4,-23712.0,170.1,805.5,268.5,-1732.5,-5040.3,-2300.4,-102.6,-6.9,-5.7,-452.4,222.6,-0.9,141.6,-1027.5,-1047.0,0,3510,268435456,189,0, 
1.9533,-467.4,-916.2,-574.5,270.9,-425.4,-204.3,416.1,-804.3,-16079.7,144.6,786.9,252.9,-1729.8,-4929.9,-7718.1,-90.0,-7.2,-6.0,-468.0,212.1,-0.3,124.8,-755.1,-1015.5,0,3516,268435456,190,0, 
1.9567,-467.4,-940.2,-598.5,249.9,-455.1,-174.0,412.8,-800.7,12967.5,126.3,771.6,225.3,-1751.4,-4751.7,-1772.4,-80.7,-6.6,-6.0,-479.7,188.1,-0.9,95.7,-335.7,-954.0,0,3522,268435456,191,0, 
1.9600,-468.9,-946.8,-602.7,246.9,-454.2,-172.2,405.3,-805.2,22155.9,129.6,767.1,224.7,-1762.5,-4800.6,6573.3,-83.4,-7.2,-6.0,-483.3,187.2,-0.6,104.4,-336.3,-955.2,0,3528,268435456,192,0, 
1.9633,-467.7,-926.4,-582.0,261.6,-433.2,-206.7,408.6,-816.3,-2000.7,154.5,785.7,247.5,-1763.7,-5044.2,5113.8,-96.9,-6.6,-6.0,-467.1,208.5,-0.9,123.3,-779.7,-1021.5,0,3534,268435456,193,0, 
1.9667,-462.0,-900.6,-560.4,281.1,-409.8,-216.9,417.0,-810.6,-26824.2,177.3,808.8,270.3,-1741.5,-5182.2,-4691.1,-107.1,-6.6,-6.0,-446.4,226.2,-0.6,146.7,-1030.5,-1053.3,0,3540,268435456,194,0, 
1.9700,-465.6,-915.6,-573.9,267.3,-430.8,-196.2,416.4,-805.2,-18450.9,154.2,795.6,255.9,-1735.2,-5080.5,-9830.1,-95.4,-7.2,-6.0,-455.4,211.5,-0.9,134.4,-778.8,-1010.1,0,3546,268435456,195,0, 
1.9733,-464.1,-935.4,-598.2,245.7,-452.7,-173.4,409.8,-797.4,10670.4,135.9,774.3,229.8,-1741.5,-4889.7,-3771.9,-88.8,-6.9,-6.0,-479.1,193.8,-0.3,107.1,-338.7,-948.0,0,3552,805306368,196,0, 
1.9767,-465.6,-938.7,-603.3,242.7,-454.8,-174.3,410.1,-804.3,20229.3,133.8,768.6,228.9,-1751.7,-4938.9,4656.6,-95.1,-7.2,-5.7,-484.2,194.4,-0.6,105.3,-339.9,-953.4,0,3558,805306368,197,0, 
1.9800,-463.5,-919.8,-580.5,267.0,-426.0,-204.6,411.3,-813.6,-3630.9,159.9,792.0,255.0,-1756.8,-5177.1,3477.0,-104.4,-6.6,-6.0,-468.6,214.2,-0.9,138.6,-775.8,-1012.2,0,3564,805306368,198,0, 
1.9833,-457.8,-897.0,-561.6,285.9,-408.3,-215.1,419.4,-810.0,-28973.1,170.7,816.3,273.6,-1740.0,-5320.8,-6292.2,-102.9,-7.2,-6.0,-445.2,230.1,-0.6,153.0,-1047.6,-1041.9,0,3570,805306368,199,0, 
1.9867,-464.1,-909.0,-577.5,271.8,-424.5,-201.9,415.2,-804.6,-21637.2,159.3,797.7,254.7,-1732.8,-5219.4,-9830.1,-93.0,-6.9,-5.7,-464.7,209.4,-0.9,132.6,-792.6,-1009.8,0,3576,805306368,200,0, 
1.9900,-464.4,-935.1,-604.5,253.2,-447.9,-174.3,408.9,-798.6,6743.1,133.5,770.4,233.1,-1755.6,-5054.4,-6155.4,-87.0,-6.9,-6.3,-486.6,197.1,-0.6,107.4,-368.1,-953.4,0,3582,805306368,201,0, 
1.9933,-471.6,-946.8,-619.2,241.8,-453.0,-178.2,408.6,-805.2,15190.5,123.9,752.1,221.7,-1774.8,-5102.7,1940.4,-84.6,-6.6,-6.0,-511.8,188.7,-0.9,98.4,-363.9,-958.8,0,3588,805306368,202,0, 
1.9967,-467.7,-928.8,-599.4,264.3,-429.6,-206.4,412.5,-807.9,-9336.6,147.3,759.0,239.4,-1776.3,-5364.9,6.9,-96.6,-6.9,-5.7,-513.3,206.7,-0.9,125.1,-799.8,-1017.0,0,3594,805306368,203,0, 
2.0000,-465.9,-909.0,-568.8,284.4,-414.6,-225.6,415.5,-810.0,-34234.2,167.1,794.1,255.9,-1743.3,-5520.0,-8816.1,-99.9,-7.2,-5.7,-465.3,212.4,-0.6,133.5,-1075.8,-1049.7,0,3600,805306368,204,0, 
2.0033,-465.0,-907.8,-564.6,286.5,-420.3,-204.9,414.6,-801.0,-26527.8,165.9,818.7,259.5,-1728.9,-5419.2,-9830.1,-91.8,-6.6,-6.3,-429.9,212.7,-0.6,130.2,-801.6,-1014.0,0,3606,805306368,205,0, 
2.0067,-468.0,-935.4,-593.1,255.6,-448.5,-177.0,409.5,-797.4,2667.6,138.3,781.8,231.9,-1738.5,-5255.7,-8835.0,-89.1,-6.9,-5.7,-467.4,195.6,-0.3,108.9,-373.8,-951.3,0,3612,805306368,206,0, 
2.0100,-467.1,-935.7,-593.1,259.5,-441.6,-175.5,408.3,-800.1,12004.2,146.1,798.6,245.1,-1750.8,-5310.3,-990.3,-96.6,-7.5,-6.0,-460.8,204.6,-0.6,117.6,-363.3,-953.1,0,3618,805306368,207,0, 
2.0133,-465.0,-914.1,-567.3,275.7,-418.2,-211.8,412.8,-807.6,-11559.6,168.9,825.0,270.0,-1741.5,-5553.0,-2669.4,-101.7,-6.9,-6.0,-441.3,223.8,-1.2,146.4,-788.4,-1015.2,0,3624,805306368,208,0, 
2.0167,-463.8,-898.2,-559.5,287.4,-409.8,-223.8,417.0,-810.9,-35716.2,183.9,824.4,277.8,-1722.6,-5700.3,-9623.4,-105.6,-6.9,-6.6,-442.8,232.8,-0.9,156.6,-1050.3,-1050.6,0,3630,805306368,209,0, 
2.0200,-461.4,-911.1,-573.0,277.5,-426.6,-205.8,422.7,-801.9,-27268.8,168.6,805.2,256.5,-1713.0,-5594.4,-9756.3,-91.8,-6.9,-5.7,-459.6,213.9,-0.6,133.2,-764.7,-1006.2,0,3636,805306368,210,0, 
2.0233,-464.4,-938.1,-600.9,256.5,-451.8,-177.3,418.8,-798.3,2371.2,136.8,780.3,227.1,-1736.1,-5424.9,-9327.3,-85.5,-6.9,-6.0,-481.8,190.5,-0.3,103.5,-324.3,-948.9,0,3642,805306368,211,0, 
2.0267,-470.7,-949.8,-608.1,246.0,-457.8,-182.4,414.9,-811.5,12374.7,127.8,772.8,221.4,-1758.6,-5467.8,-1851.0,-86.1,-6.9,-6.0,-492.3,186.0,-0.6,98.7,-326.1,-954.3,0,3648,805306368,212,0, 
2.0300,-473.7,-932.7,-588.0,264.6,-432.6,-214.2,412.8,-821.4,-10818.6,152.4,791.4,246.6,-1755.0,-5711.4,-2998.5,-97.8,-6.6,-5.7,-470.1,206.7,-0.6,119.4,-763.5,-1016.7,0,3654,805306368,213,0, 
2.0333,-466.5,-906.0,-570.9,279.6,-418.2,-231.6,422.4,-819.3,-34752.9,176.1,796.5,265.8,-1733.4,-5841.6,-9679.5,-99.3,-6.9,-6.0,-462.9,219.3,-0.6,138.6,-1015.5,-1047.9,0,3660,805306368,214,0, 
2.0367,-469.2,-921.9,-584.4,265.8,-434.7,-205.8,420.9,-810.9,-25712.7,156.6,783.6,243.3,-1728.3,-5734.5,-9794.7,-96.3,-6.9,-6.0,-470.4,203.4,-1.2,126.0,-739.2,-1003.8,0,3666,805306368,215,0, 
2.0400,-471.6,-946.5,-605.7,241.5,-459.9,-179.1,411.3,-809.7,4075.5,130.8,763.5,221.1,-1743.9,-5551.8,-9061.5,-89.4,-6.9,-5.7,-492.3,185.1,-0.3,97.5,-299.4,-954.9,0,3672,805306368,216,0, 
2.0433,-472.5,-949.5,-612.6,240.0,-458.7,-173.7,410.1,-813.0,14227.2,127.5,761.1,217.5,-1759.5,-5584.2,-1173.6,-90.6,-7.2,-5.4,-492.9,183.3,-0.6,96.9,-304.5,-949.8,0,3678,805306368,217,0, 
2.0467,-470.1,-929.7,-588.3,261.3,-435.9,-213.0,410.7,-821.7,-9040.2,156.3,789.9,246.9,-1760.1,-5806.8,-2150.1,-104.7,-6.6,-6.3,-471.9,211.2,-0.6,123.3,-736.8,-1015.2,0,3684,805306368,218,0, 
2.0500,-471.6,-911.7,-573.6,271.5,-421.8,-232.5,414.0,-821.4,-32752.2,168.6,801.0,261.3,-1752.9,-5929.2,-9355.5,-108.9,-6.9,-6.0,-464.4,217.8,-1.2,135.3,-986.7,-1046.4,0,3690,805306368,219,0, 
2.0533,-471.6,-927.9,-592.5,256.2,-444.3,-220.8,415.2,-816.0,-23712.0,148.8,777.3,237.9,-1732.2,-5796.0,-9830.1,-92.4,-6.9,-6.3,-483.9,197.1,-0.6,116.4,-701.4,-1009.2,0,3696,805306368,220,0, 
2.0567,-469.5,-948.9,-616.5,234.0,-468.6,-184.8,409.2,-813.3,6224.4,124.5,757.8,208.2,-1743.9,-5604.9,-8437.8,-84.9,-7.2,-6.0,-496.2,175.5,-0.6,89.1,-279.6,-947.1,0,3702,805306368,221,0, 
2.0600,-469.8,-950.7,-612.9,237.6,-461.1,-183.0,405.9,-814.5,16302.0,129.9,759.6,215.1,-1761.3,-5627.7,85.2,-83.7,-6.9,-6.0,-495.9,183.0,-0.6,98.7,-278.1,-948.6,0,3708,805306368,222,0, 
2.0633,-468.9,-927.6,-589.5,260.4,-437.7,-214.2,407.4,-824.1,-6891.3,153.6,788.1,239.7,-1760.7,-5840.4,-841.8,-93.9,-7.2,-6.0,-470.1,204.0,-0.3,120.0,-718.8,-1009.2,0,3714,805306368,223,0, 
2.0667,-467.1,-911.4,-573.6,278.1,-424.5,-233.1,412.2,-827.4,-30603.3,169.5,801.0,253.8,-1746.0,-5953.8,-8708.1,-98.7,-6.9,-6.0,-461.7,218.1,-0.6,137.7,-977.4,-1045.5,0,3720,805306368,224,0, 
2.0700,-467.1,-921.3,-582.3,272.1,-426.6,-193.5,419.4,-814.5,-21563.1,158.4,793.2,250.2,-1733.7,-5807.7,-9830.1,-85.8,-7.2,-6.0,-465.0,217.2,-1.2,129.6,-699.0,-993.3,0,3726,805306368,225,0, 
2.0733,-470.1,-944.7,-607.5,241.5,-462.6,-177.3,413.4,-815.7,8076.9,126.3,762.3,215.7,-1742.1,-5602.2,-7492.5,-71.4,-6.9,-5.7,-491.7,183.3,-0.6,105.3,-252.6,-940.8,0,3732,805306368,226,0, 
2.0767,-468.3,-949.8,-611.1,238.5,-461.1,-183.6,405.9,-820.5,18080.4,128.7,762.3,216.0,-1763.7,-5616.0,1468.8,-79.5,-7.2,-5.7,-494.7,186.3,-0.6,110.1,-252.3,-944.1,0,3738,805306368,227,0, 
2.0800,-471.3,-933.6,-591.0,261.6,-438.0,-214.5,402.3,-832.2,-4964.7,150.0,784.2,239.7,-1766.7,-5835.0,523.5,-96.0,-7.2,-5.7,-478.5,203.4,-0.3,126.6,-706.2,-1009.2,0,3744,805306368,228,0, 
2.0833,-465.0,-915.0,-575.7,274.5,-422.4,-231.3,407.7,-831.0,-28676.7,165.0,803.1,253.8,-1743.9,-5934.9,-7880.7,-101.7,-6.3,-6.0,-462.9,219.0,-0.6,138.6,-963.9,-1047.9,0,3750,805306368,229,0, 
2.0867,-469.2,-930.3,-589.2,260.1,-437.7,-209.1,409.8,-822.0,-19562.4,145.5,780.9,234.9,-1736.4,-5785.5,-9830.1,-88.2,-6.6,-5.4,-479.1,200.7,-0.6,114.0,-690.3,-1004.4,0,3756,805306368,230,0, 
2.0900,-469.5,-953.1,-611.7,237.9,-461.7,-178.2,405.9,-820.8,10299.9,123.6,753.0,210.9,-1743.6,-5575.2,-6358.5,-77.4,-6.6,-6.0,-500.7,185.1,-0.6,89.1,-253.2,-947.1,0,3762,805306368,231,0, 
2.0933,-467.1,-950.4,-613.5,235.8,-465.6,-185.1,402.6,-828.6,20155.2,120.6,754.5,211.8,-1759.2,-5587.5,2914.2,-87.9,-7.2,-6.0,-495.0,177.3,-0.9,91.5,-270.9,-955.2,0,3768,805306368,232,0, 
2.0967,-467.4,-930.0,-592.8,255.9,-441.6,-223.8,400.2,-834.3,-2964.0,150.0,779.7,241.2,-1759.8,-5779.2,1876.5,-95.4,-6.9,-5.4,-476.4,210.0,-0.9,117.3,-699.6,-1011.9,0,3774,805306368,233,0, 
2.1000,-466.8,-915.0,-579.6,266.4,-428.4,-240.9,403.8,-838.5,-27046.5,158.1,789.9,249.3,-1750.8,-5884.8,-6937.2,-98.4,-6.9,-6.0,-468.9,211.5,-0.6,123.3,-957.6,-1046.4,0,3780,805306368,234,0, 
2.1033,-467.7,-929.4,-591.6,256.5,-443.4,-222.3,406.2,-833.1,-17858.1,141.0,776.4,234.6,-1738.5,-5725.8,-9830.1,-85.8,-7.2,-6.0,-481.2,198.3,-0.9,109.8,-670.8,-1011.0,0,3786,805306368,235,0, 
2.1067,-471.0,-951.0,-620.7,232.8,-471.0,-190.5,401.4,-828.3,12226.5,110.7,748.5,203.4,-1746.6,-5520.9,-5095.8,-77.1,-6.9,-6.0,-507.6,172.8,-0.9,84.6,-237.9,-948.0,0,3792,805306368,236,0, 
2.1100,-470.4,-953.7,-618.9,231.0,-469.2,-193.2,394.5,-832.8,21859.5,114.9,754.8,208.8,-1749.6,-5514.9,4212.9,-83.7,-7.2,-6.0,-504.0,178.8,-0.9,86.1,-235.5,-955.8,0,3798,805306368,237,0, 
2.1133,-471.9,-931.5,-593.1,253.2,-445.8,-229.2,394.2,-842.7,-1407.9,138.3,774.6,230.4,-1749.3,-5720.4,3161.4,-95.1,-6.9,-6.0,-484.5,194.4,-0.6,109.2,-680.7,-1015.8,0,3804,805306368,238,0, 
2.1167,-470.7,-917.1,-576.6,267.3,-427.8,-244.5,400.8,-841.8,-25194.0,160.2,791.1,251.7,-1737.6,-5825.4,-5793.0,-95.7,-7.2,-6.3,-468.0,216.0,-0.3,129.6,-931.8,-1053.0,0,3810,805306368,239,0, 
2.1200,-471.6,-929.7,-592.8,254.4,-447.6,-217.5,402.6,-839.4,-15857.4,132.0,771.3,228.3,-1731.0,-5663.7,-9830.1,-89.7,-7.2,-6.0,-484.5,189.9,-0.9,112.8,-650.7,-1014.3,0,3816,805306368,240,0, 
