Time,P3,C3,F3,Fz,F4,C4,P4,Cz,CM,A1,Fp1,Fp2,T3,T5,O1,O2,X3,X2,F7,F8,X1,A2,T6,T4,Trigger,Time_Offset,ADC_Status,ADC_Sequence,Event,Comments
0.0033,426.9,-1652.7,35.4,-746.1,9729.3,-256.5,-340.2,9830.1,240750.9,493.2,3524.1,6572.1,309.0,9131.4,9830.1,9830.1,-7.2,-5.7,9830.1,9830.1,-0.9,590.7,7377.9,1846.5,0,6,36218653949952,110,0, 
0.0067,466.2,-1726.8,52.2,-695.7,-4241.4,-503.4,-274.5,2468.1,190955.7,624.6,-1960.5,-714.6,-211.5,9827.1,9830.1,3197.1,-6.9,-6.0,684.9,-3412.2,-0.6,724.8,-6835.5,1773.6,0,12,36218653949952,111,0, 
0.0100,454.2,-1736.1,43.8,-695.1,-9819.9,-618.9,-269.1,-9830.1,125970.0,636.3,-7998.0,-8794.2,-553.8,2819.1,9830.1,-9830.1,-6.6,-5.7,-9830.1,-9830.1,-0.6,727.8,-9830.1,1719.0,0,18,36218653949952,112,0, 
0.0133,403.8,-1704.6,19.8,-745.2,-8816.1,-470.1,-328.8,-9005.1,134565.6,531.9,-6490.8,-6602.7,-272.1,5232.6,9830.1,-8626.5,-6.6,-5.7,-8716.2,-9830.1,-0.6,628.2,-9738.9,1761.3,0,24,36218653949952,113,0, 
0.0167,393.6,-1642.5,26.7,-765.9,3877.2,-242.4,-366.6,5790.9,203256.3,449.1,3.9,2086.2,248.1,9827.1,9830.1,6417.9,-7.2,-5.7,3295.5,568.8,-0.3,549.3,1945.8,1836.9,0,30,36218653949952,114,0, 
0.0200,422.4,-1652.1,52.5,-728.4,9681.3,-249.9,-346.8,9830.1,240158.1,498.6,3541.2,6644.1,320.1,9126.9,9830.1,9830.1,-6.6,-5.7,9830.1,9830.1,-0.9,594.9,7314.3,1843.5,0,36,36218653949952,115,0, 
0.0233,469.8,-1706.7,64.8,-675.6,-4355.1,-489.0,-279.3,2318.1,190214.7,620.1,-2111.4,-729.6,-200.7,9827.1,9830.1,3050.1,-6.9,-5.7,363.3,-3358.2,-0.3,716.7,-6913.2,1772.1,0,42,36218653949952,116,0, 
0.0267,452.1,-1731.6,46.8,-680.7,-9819.9,-598.5,-267.6,-9830.1,125377.2,644.7,-8190.6,-8744.4,-540.3,2695.2,9830.1,-9830.1,-6.9,-5.7,-9830.1,-9830.1,-0.9,748.2,-9830.1,1725.3,0,48,36218653949952,117,0, 
0.0300,414.0,-1679.7,27.0,-732.9,-8832.6,-459.0,-321.0,-9070.8,133602.3,533.4,-6587.4,-6584.1,-274.8,5093.7,9830.1,-8680.8,-6.6,-5.7,-8790.3,-9830.1,-0.9,641.4,-9760.5,1754.7,0,54,36218653949952,118,0, 
0.0333,404.4,-1632.9,41.4,-747.9,3900.6,-230.7,-357.6,5696.4,202663.5,451.5,-87.3,2053.5,271.8,9827.1,9830.1,6381.0,-6.6,-6.0,3159.3,458.7,-0.6,552.3,1889.1,1842.0,0,60,36218653949952,119,0, 
0.0367,437.4,-1642.8,60.3,-721.5,9679.5,-239.7,-333.0,9830.1,239787.6,498.3,3392.4,6616.8,317.7,9115.8,9830.1,9830.1,-6.9,-5.7,9830.1,9830.1,-0.9,592.8,7261.2,1843.5,0,66,36218653949952,120,0, 
0.0400,478.8,-1707.3,71.4,-671.4,-4305.0,-482.4,-271.5,2336.1,189621.9,626.4,-2106.0,-658.8,-192.9,9827.1,9830.1,3055.5,-7.2,-5.7,153.9,-3236.7,-0.9,726.6,-6902.4,1778.7,0,72,36218653949952,121,0, 
0.0433,468.6,-1717.8,69.9,-671.7,-9819.9,-592.2,-254.7,-9830.1,124710.3,652.8,-8259.3,-8804.4,-528.9,2579.7,9830.1,-9830.1,-6.9,-6.0,-9830.1,-9830.1,-0.6,750.6,-9830.1,1736.1,0,78,36218653949952,122,0, 
0.0467,418.2,-1687.8,37.8,-729.6,-8849.7,-440.7,-321.9,-9052.5,133305.9,543.6,-6697.8,-6716.1,-247.2,5077.2,9830.1,-8703.9,-6.6,-5.7,-8855.7,-9830.1,-0.9,643.2,-9759.6,1780.2,0,84,36218653949952,123,0, 
0.0500,403.8,-1636.2,32.7,-760.5,3786.6,-209.7,-354.6,5703.0,201996.6,453.9,-149.4,2020.2,264.0,9827.1,9830.1,6264.6,-6.9,-6.0,2982.0,525.9,-0.6,560.1,1875.9,1852.2,0,90,36218653949952,124,0, 
0.0533,447.6,-1635.6,53.7,-729.3,9600.3,-214.5,-321.6,9830.1,238676.1,513.9,3357.0,6614.4,334.8,9119.7,9830.1,9830.1,-6.9,-6.0,9830.1,9830.1,-0.9,612.0,7250.1,1862.7,0,96,36218653949952,125,0, 
0.0567,488.1,-1702.5,80.4,-675.3,-4394.4,-453.6,-260.1,2332.2,188880.9,628.8,-2170.5,-637.8,-183.3,9827.1,9830.1,2903.1,-7.2,-6.3,-166.8,-3241.2,-0.6,742.5,-6917.4,1791.9,0,102,36218653949952,126,0, 
0.0600,474.9,-1726.2,65.4,-683.4,-9819.9,-589.2,-252.9,-9830.1,123747.0,657.9,-8391.0,-8708.1,-524.4,2564.7,9830.1,-9830.1,-6.6,-5.7,-9830.1,-9830.1,-0.9,771.9,-9830.1,1746.9,0,108,36218653949952,127,0, 
0.0633,420.3,-1694.7,35.4,-737.7,-8906.1,-439.5,-318.0,-9096.6,132120.3,555.0,-6898.5,-6540.6,-257.1,5028.6,9830.1,-8770.8,-6.9,-6.0,-8977.5,-9830.1,-0.6,654.6,-9768.6,1779.3,0,114,36218653949952,128,0, 
0.0667,403.5,-1643.1,27.6,-768.9,3716.7,-225.3,-362.7,5602.2,201033.3,450.6,-344.7,2133.9,257.4,9827.1,9830.1,6189.6,-6.3,-6.0,2599.8,749.7,-0.6,557.4,1822.8,1840.2,0,120,36218653949952,129,0, 
0.0700,437.7,-1656.9,52.5,-737.7,9542.7,-234.3,-336.3,9830.1,237935.1,497.7,3141.9,6795.6,320.7,9111.0,9830.1,9830.1,-7.2,-6.0,9830.1,9830.1,-0.9,602.7,7150.2,1853.1,0,126,36218653949952,130,0, 
0.0733,480.6,-1712.7,70.2,-690.3,-4453.5,-481.8,-270.0,2184.0,188065.8,625.5,-2336.4,-474.9,-198.9,9827.1,9830.1,2864.4,-7.2,-5.7,-438.3,-3031.5,-0.3,732.9,-6976.5,1784.1,0,132,36218653949952,131,0, 
0.0767,467.7,-1736.4,63.0,-692.4,-9819.9,-606.0,-267.3,-9830.1,123006.0,651.3,-8453.7,-8494.5,-538.5,2540.1,9830.1,-9830.1,-6.9,-6.0,-9830.1,-9830.1,-0.9,757.8,-9830.1,1734.3,0,138,36218653949952,132,0, 
0.0800,426.6,-1683.9,55.2,-738.6,-8938.2,-441.3,-311.4,-9132.0,131082.9,555.0,-6910.2,-6231.9,-248.7,4959.6,9830.1,-8812.2,-6.9,-5.7,-9007.8,-9801.0,-0.6,658.5,-9798.9,1782.3,0,144,36218653949952,133,0, 
0.0833,411.3,-1638.9,49.2,-751.2,3661.5,-209.4,-355.2,5570.4,200070.0,462.0,-380.4,2309.4,271.2,9827.1,9830.1,6093.6,-7.2,-6.0,2505.6,988.5,-0.9,570.6,1704.3,1853.1,0,150,36218653949952,134,0, 
0.0867,444.3,-1642.8,71.4,-714.3,9495.0,-202.8,-325.5,9830.1,236823.6,517.5,3126.3,6946.8,343.5,9112.5,9830.1,9830.1,-6.6,-6.0,9830.1,9830.1,-0.3,624.6,7119.3,1871.1,0,156,36218653949952,135,0, 
0.0900,481.8,-1714.2,78.3,-667.5,-4480.5,-453.0,-270.0,2204.7,187324.8,634.2,-2301.0,-290.4,-188.7,9827.1,9830.1,2754.6,-6.9,-5.4,-668.1,-2663.1,-0.9,742.8,-6996.0,1797.9,0,162,36218653949952,136,0, 
0.0933,466.8,-1731.0,64.2,-676.2,-9819.9,-593.1,-259.8,-9830.1,122339.1,653.1,-8460.3,-8439.9,-532.2,2540.4,9830.1,-9830.1,-6.6,-6.0,-9830.1,-9830.1,-0.6,762.6,-9830.1,1752.3,0,168,36218653949952,137,0, 
0.0967,422.1,-1686.3,38.7,-727.2,-8963.4,-431.1,-316.5,-9154.2,130267.8,558.3,-6959.7,-6207.3,-249.0,4897.8,9830.1,-8857.8,-6.9,-5.7,-9078.3,-9702.9,-0.9,655.2,-9804.9,1787.7,0,174,36218653949952,138,0, 
0.1000,406.2,-1631.4,44.4,-756.9,3562.8,-211.2,-354.6,5500.5,199180.8,464.4,-557.7,2415.9,271.5,9827.1,9830.1,6023.1,-6.6,-6.0,2452.5,1292.4,-0.6,572.7,1701.9,1865.4,0,180,36218653949952,139,0, 
0.1033,442.2,-1638.3,65.4,-719.4,9362.7,-201.3,-330.6,9830.1,236008.5,511.8,2952.3,7050.3,339.6,9099.3,9830.1,9830.1,-6.9,-5.7,9830.1,9830.1,-0.9,613.5,7088.1,1878.6,0,186,36218653949952,140,0, 
0.1067,481.5,-1702.5,79.2,-672.3,-4581.9,-464.1,-264.3,2160.9,186139.2,640.2,-2488.5,-160.8,-184.2,9827.1,9830.1,2754.0,-6.6,-6.0,-546.3,-2162.7,-0.6,739.5,-7001.1,1808.7,0,192,36218653949952,141,0, 
0.1100,463.5,-1722.3,62.7,-680.7,-9819.9,-591.9,-258.0,-9830.1,120931.2,666.0,-8733.3,-8340.3,-539.7,2182.8,9830.1,-9830.1,-6.9,-6.0,-9830.1,-9830.1,-1.2,753.9,-9830.1,1755.6,0,198,36218653949952,142,0, 
0.1133,423.0,-1680.9,50.4,-731.1,-8996.4,-442.5,-308.7,-9173.7,129230.4,559.8,-7116.0,-6166.8,-250.8,4648.5,9830.1,-8841.6,-6.6,-5.7,-9068.1,-9609.0,-0.3,647.7,-9817.5,1792.5,0,204,36218653949952,143,0, 
0.1167,407.1,-1629.6,40.8,-759.0,3503.7,-216.9,-351.0,5427.9,198069.3,483.0,-617.7,2576.1,263.7,9827.1,9830.1,6029.1,-6.6,-6.0,2397.3,1801.8,-0.9,564.9,1634.7,1875.0,0,210,36218653949952,144,0, 
0.1200,445.8,-1638.3,61.5,-732.0,9296.4,-231.0,-324.6,9830.1,235045.2,534.6,2935.5,7115.4,325.5,9087.0,9830.1,9830.1,-7.2,-6.0,9830.1,9830.1,-0.6,616.2,7009.2,1878.6,0,216,36218653949952,145,0, 
0.1233,489.3,-1700.4,80.4,-678.0,-4659.9,-470.1,-261.9,2091.3,185324.1,661.8,-2588.4,-111.3,-185.1,9827.1,9830.1,2711.1,-7.2,-5.7,-499.2,-1637.1,-1.2,736.8,-7039.5,1807.5,0,222,36218653949952,146,0, 
0.1267,474.0,-1730.7,60.6,-691.5,-9819.9,-601.5,-255.0,-9830.1,120042.0,663.6,-8798.1,-8158.8,-543.3,2025.6,9830.1,-9830.1,-6.9,-5.7,-9830.1,-9830.1,-0.9,756.0,-9830.1,1758.3,0,228,36218653949952,147,0, 
0.1300,425.1,-1686.9,43.8,-737.7,-9014.1,-445.8,-307.8,-9183.9,128118.9,541.2,-7168.8,-5840.1,-270.9,4549.5,9830.1,-8855.4,-6.6,-6.0,-9062.4,-9467.1,-0.6,656.7,-9830.1,1800.9,0,234,36218653949952,148,0, 
0.1333,408.3,-1631.1,38.4,-765.3,3428.4,-209.4,-348.0,5460.6,197402.4,458.7,-688.8,2713.5,250.5,9827.1,9830.1,6017.1,-7.2,-6.0,2474.7,2334.3,-0.6,577.8,1594.5,1875.0,0,240,36218653949952,149,0, 
0.1367,444.9,-1643.7,59.7,-729.0,9342.0,-215.1,-327.0,9830.1,234600.6,492.9,2883.3,7404.6,318.3,9082.8,9830.1,9830.1,-6.6,-6.3,9830.1,9830.1,-0.3,617.7,7073.4,1870.5,0,246,36218653949952,150,0, 
0.1400,481.2,-1710.0,74.7,-684.3,-4594.8,-466.2,-265.8,2172.0,184805.4,608.7,-2603.7,125.1,-202.5,9827.1,9830.1,2654.7,-7.5,-5.7,-430.8,-982.2,-0.9,755.1,-7046.7,1807.2,0,252,36218653949952,151,0, 
0.1433,461.7,-1736.1,59.1,-694.8,-9819.9,-592.2,-258.3,-9830.1,119671.5,627.6,-8772.0,-7905.6,-548.4,2091.3,9830.1,-9830.1,-6.6,-5.4,-9830.1,-9830.1,-1.2,765.9,-9830.1,1757.4,0,258,36218653949952,152,0, 
0.1467,420.9,-1691.7,38.7,-739.2,-9008.7,-432.6,-305.7,-9163.5,127970.7,531.0,-7026.0,-5621.1,-267.9,4669.2,9830.1,-8853.9,-6.9,-6.3,-9062.7,-9284.7,-0.6,663.0,-9830.1,1809.3,0,264,36218653949952,153,0, 
0.1500,405.6,-1641.0,32.1,-766.5,3508.2,-218.7,-351.3,5488.8,196957.8,448.8,-556.5,2939.4,247.2,9827.1,9830.1,6045.3,-6.6,-5.7,2350.8,2919.6,-0.9,567.0,1594.2,1877.1,0,270,36218653949952,154,0, 
0.1533,442.5,-1660.2,55.8,-734.4,9365.1,-223.8,-324.0,9830.1,234304.2,495.9,2925.6,7450.2,321.9,9096.0,9830.1,9830.1,-7.2,-5.4,9830.1,9830.1,-1.2,615.9,7015.5,1891.2,0,276,36218653949952,155,0, 
0.1567,479.7,-1720.8,70.8,-682.2,-4588.8,-478.5,-266.7,2232.0,184583.1,616.2,-2582.7,133.2,-202.5,9827.1,9830.1,2790.0,-6.9,-5.7,-715.5,-578.7,-1.2,735.3,-7045.8,1816.2,0,282,36218653949952,156,0, 
0.1600,471.0,-1732.8,66.0,-688.2,-9819.9,-603.3,-255.3,-9830.1,119226.9,645.6,-8816.4,-7908.9,-534.0,2241.3,9830.1,-9830.1,-6.6,-6.0,-9830.1,-9830.1,-0.9,756.3,-9830.1,1780.5,0,288,36218653949952,157,0, 
0.1633,426.9,-1688.7,49.2,-737.7,-8987.1,-449.1,-304.5,-9157.5,127526.1,539.1,-7227.3,-5787.3,-255.9,4673.4,9830.1,-8844.0,-6.3,-5.7,-9138.9,-9194.7,-0.6,651.0,-9830.1,1825.2,0,294,36218653949952,158,0, 
0.1667,416.4,-1644.3,48.0,-761.4,3551.4,-228.3,-345.0,5502.9,196735.5,453.9,-736.2,2818.5,262.2,9827.1,9830.1,6057.3,-6.9,-6.0,2219.4,3107.7,-0.9,568.5,1624.8,1893.0,0,300,36218653949952,159,0, 
0.1700,457.8,-1642.5,62.7,-726.9,9389.1,-223.2,-315.6,9830.1,233785.5,509.1,2955.3,7365.9,335.4,9088.5,9830.1,9830.1,-7.2,-5.7,9830.1,9830.1,-0.3,612.0,7041.0,1906.5,0,306,36218653949952,160,0, 
0.1733,489.6,-1721.7,70.2,-679.8,-4556.4,-482.1,-256.2,2215.5,184138.5,627.9,-2548.5,69.6,-191.1,9827.1,9830.1,2811.6,-6.9,-6.3,-677.4,-353.1,-0.9,727.5,-7004.4,1827.3,0,312,36218653949952,161,0, 
0.1767,474.6,-1736.7,65.1,-683.1,-9819.9,-612.0,-250.2,-9830.1,118856.4,643.2,-8759.1,-8023.5,-546.0,2090.1,9830.1,-9830.1,-6.9,-6.0,-9830.1,-9830.1,-0.9,758.1,-9830.1,1786.2,0,318,36218653949952,162,0, 
0.1800,428.1,-1698.9,49.8,-734.7,-8991.0,-456.9,-298.2,-9161.7,127007.4,546.9,-7293.6,-5887.2,-271.8,4534.2,9830.1,-8853.3,-7.2,-6.0,-9168.6,-9120.3,-0.6,654.9,-9830.1,1829.1,0,324,36218653949952,163,0, 
0.1833,416.7,-1648.2,48.3,-751.8,3570.9,-219.6,-343.5,5486.7,196068.6,459.3,-727.5,2769.9,246.0,9827.1,9830.1,6039.9,-6.9,-6.0,2146.5,3274.5,-0.9,561.6,1581.9,1906.5,0,330,36218653949952,164,0, 
0.1867,455.7,-1649.7,75.6,-715.5,9405.6,-213.6,-310.5,9830.1,233266.8,504.3,2817.6,7330.2,319.5,9080.1,9830.1,9830.1,-7.2,-6.0,9830.1,9830.1,-1.2,605.4,7125.6,1904.1,0,336,36218653949952,165,0, 
0.1900,497.7,-1710.3,83.4,-670.2,-4567.8,-479.7,-256.2,2210.4,183471.6,623.4,-2631.3,-25.2,-198.9,9827.1,9830.1,2748.6,-7.2,-6.0,-856.2,-211.8,-0.6,738.0,-6982.8,1839.9,0,342,36218653949952,166,0, 
0.1933,484.2,-1739.1,68.7,-677.7,-9819.9,-600.9,-240.6,-9830.1,118337.7,645.9,-8742.3,-8171.7,-535.8,1911.9,9830.1,-9830.1,-6.6,-5.7,-9830.1,-9830.1,-0.6,763.8,-9830.1,1788.9,0,348,36218653949952,167,0, 
0.1967,435.6,-1698.9,51.0,-724.2,-8969.1,-448.8,-298.5,-9172.2,126192.3,546.0,-7154.1,-6113.7,-251.4,4428.9,9830.1,-8861.4,-7.2,-6.0,-9180.9,-9071.1,-0.9,647.1,-9827.4,1825.8,0,354,36218653949952,168,0, 
0.2000,414.6,-1649.7,44.4,-756.9,3541.5,-224.7,-345.0,5473.2,195475.8,454.8,-683.1,2497.5,261.9,9827.1,9830.1,6031.5,-7.2,-6.0,1958.1,3371.1,-0.9,553.2,1599.6,1885.2,0,360,36218653949952,169,0, 
0.2033,449.7,-1656.0,69.3,-726.6,9411.6,-223.5,-321.3,9830.1,232896.3,505.5,2855.7,7111.2,331.8,9072.0,9830.1,9830.1,-6.9,-6.0,9830.1,9830.1,-0.6,604.5,7095.3,1893.9,0,366,36218653949952,170,0, 
0.2067,491.7,-1727.7,75.9,-676.5,-4585.5,-476.4,-258.9,2231.1,183101.1,634.2,-2670.3,-161.4,-190.5,9827.1,9830.1,2862.3,-6.6,-6.3,-1038.9,-110.1,-0.6,732.9,-7023.3,1816.8,0,372,36218653949952,171,0, 
0.2100,475.2,-1751.7,75.0,-675.3,-9819.9,-600.0,-247.8,-9830.1,117819.0,642.3,-8699.1,-8149.2,-538.8,1690.5,9830.1,-9830.1,-6.6,-6.0,-9830.1,-9830.1,-0.6,753.6,-9830.1,1772.4,0,378,36218653949952,172,0, 
0.2133,432.9,-1704.6,50.4,-718.2,-8999.4,-432.3,-296.4,-9167.1,125970.0,546.9,-7160.1,-5874.6,-257.4,4375.5,9830.1,-8827.8,-6.9,-5.7,-9202.8,-9088.8,-1.2,650.7,-9830.1,1812.6,0,384,36218653949952,173,0, 
0.2167,416.1,-1650.3,54.0,-744.0,3515.1,-206.1,-342.3,5495.7,195253.5,473.7,-683.4,2702.1,264.6,9827.1,9830.1,6108.0,-6.9,-6.0,2096.4,3357.6,-0.6,569.4,1613.7,1885.8,0,390,36218653949952,174,0, 
0.2200,448.5,-1668.0,66.0,-717.6,9432.0,-221.1,-327.6,9830.1,232674.0,504.0,2818.2,7341.3,317.4,9084.3,9830.1,9830.1,-6.9,-6.0,9830.1,9830.1,-0.9,603.3,7146.3,1879.5,0,396,36218653949952,175,0, 
0.2233,495.9,-1720.2,79.5,-658.5,-4533.0,-464.4,-258.0,2343.3,183101.1,631.2,-2595.0,115.8,-191.1,9827.1,9830.1,2886.6,-6.6,-6.0,-933.9,-5.7,-0.3,742.2,-6975.6,1812.9,0,402,36218653949952,176,0, 
0.2267,471.6,-1749.3,57.0,-672.3,-9819.9,-597.3,-256.2,-9830.1,117819.0,646.5,-8693.4,-7829.1,-549.0,1922.1,9830.1,-9830.1,-6.3,-6.0,-9830.1,-9830.1,-0.6,750.9,-9830.1,1747.5,0,408,36218653949952,177,0, 
0.2300,426.9,-1699.2,36.6,-723.0,-8949.3,-456.3,-314.7,-9104.4,126118.2,550.2,-7124.4,-5575.8,-270.0,4481.1,9830.1,-8769.9,-6.6,-5.7,-9138.3,-8962.5,-0.6,633.3,-9797.1,1780.5,0,414,36218653949952,178,0, 
0.2333,414.0,-1652.7,31.5,-747.6,3674.1,-224.7,-347.4,5664.9,195624.0,457.2,-552.9,3050.4,254.4,9827.1,9830.1,6241.8,-7.2,-5.7,2322.9,3644.7,-0.6,552.6,1803.9,1864.8,0,420,36218653949952,179,0, 
0.2367,456.6,-1641.6,47.4,-725.1,9603.6,-235.5,-321.9,9830.1,233340.9,495.0,2974.8,7688.1,321.0,9081.3,9830.1,9830.1,-6.9,-6.3,9830.1,9830.1,-0.9,613.2,7237.8,1869.6,0,426,36218653949952,180,0, 
0.2400,489.0,-1727.7,54.6,-679.2,-4399.8,-485.7,-267.3,2549.1,183842.1,628.2,-2473.2,288.0,-194.1,9827.1,9830.1,3087.6,-6.9,-6.0,-631.2,-4.8,-0.3,705.0,-6967.5,1791.9,0,432,36218653949952,181,0, 
0.2433,469.2,-1757.1,49.2,-675.0,-9819.9,-604.2,-248.1,-9830.1,118708.2,645.9,-8637.0,-7768.2,-525.3,2077.5,9830.1,-9830.1,-6.9,-5.7,-9830.1,-9830.1,-0.3,753.3,-9830.1,1756.2,0,438,36218653949952,182,0, 
0.2467,432.0,-1706.7,38.4,-717.9,-8895.3,-438.6,-297.9,-9037.8,127007.4,532.5,-6987.9,-5643.6,-244.8,4636.8,9830.1,-8723.7,-7.2,-6.0,-9111.0,-9091.5,-0.6,603.3,-9799.2,1791.9,0,444,36218653949952,183,0, 
0.2500,414.9,-1646.1,48.9,-746.7,3781.8,-211.8,-347.4,5830.8,196587.3,442.8,-512.4,3034.2,271.8,9827.1,9830.1,6333.9,-6.6,-6.0,2431.5,3273.9,-0.6,541.2,1825.5,1855.5,0,450,36218653949952,184,0, 
0.2533,455.4,-1660.2,57.9,-713.1,9731.7,-215.1,-308.7,9830.1,234230.1,487.2,3111.9,7752.3,340.8,9093.6,9830.1,9830.1,-7.2,-6.0,9830.1,9830.1,-0.9,581.7,7331.4,1880.4,0,456,36218653949952,185,0, 
0.2567,492.6,-1726.2,72.3,-664.8,-4349.4,-452.1,-244.2,2759.1,184509.0,627.0,-2442.0,455.1,-186.0,9827.1,9830.1,3227.1,-7.2,-6.3,-522.0,-422.1,-0.9,717.6,-6925.5,1800.9,0,462,36218653949952,186,0, 
0.2600,477.9,-1750.2,57.6,-664.2,-9819.9,-585.0,-243.9,-9830.1,118930.5,618.9,-8428.2,-7685.7,-534.0,2237.1,9830.1,-9830.1,-6.3,-6.0,-9830.1,-9830.1,-0.3,741.6,-9830.1,1764.3,0,468,36218653949952,187,0, 
0.2633,433.8,-1689.9,56.4,-700.2,-8896.5,-433.8,-295.2,-8972.1,127229.7,538.5,-6924.0,-5517.6,-255.9,4722.6,9830.1,-8707.8,-7.2,-6.3,-9069.0,-9244.2,-0.6,656.4,-9798.6,1803.6,0,474,36218653949952,188,0, 
0.2667,414.0,-1653.9,33.9,-743.1,3771.6,-212.7,-345.0,5919.0,196661.4,460.8,-307.2,3034.5,273.9,9827.1,9830.1,6334.5,-7.2,-6.0,2451.6,2652.0,-0.6,560.1,1791.3,1864.8,0,480,36218653949952,189,0, 
0.2700,448.8,-1664.4,66.6,-700.8,9600.3,-199.2,-317.7,9830.1,234081.9,519.3,3276.0,7581.9,340.2,9096.3,9830.1,9830.1,-6.9,-5.7,9830.1,9830.1,-0.6,605.4,7218.9,1876.2,0,486,36218653949952,190,0, 
0.2733,489.6,-1720.5,72.9,-659.4,-4440.0,-462.6,-259.2,2637.0,183990.3,641.4,-2253.0,161.1,-179.4,9827.1,9830.1,3101.4,-6.6,-5.7,-821.4,-1378.2,-0.3,741.0,-6954.6,1795.8,0,492,36218653949952,191,0, 
0.2767,468.6,-1753.5,59.4,-675.3,-9819.9,-587.4,-252.9,-9830.1,118411.8,670.2,-8290.5,-8037.0,-542.1,2112.3,9830.1,-9830.1,-6.9,-6.0,-9830.1,-9830.1,-0.9,765.0,-9830.1,1748.7,0,498,36218653949952,192,0, 
0.2800,428.1,-1710.9,36.3,-727.8,-8979.3,-435.0,-303.3,-9044.1,126562.8,562.2,-6539.1,-5812.8,-264.3,4555.2,9830.1,-8757.6,-6.9,-6.0,-9179.7,-9524.7,-0.6,656.1,-9830.1,1779.0,0,504,36218653949952,193,0, 
0.2833,410.7,-1653.3,31.5,-756.0,3643.5,-207.0,-342.0,5714.4,195994.5,463.8,109.8,2807.4,249.6,9827.1,9830.1,6175.5,-6.9,-6.0,2153.7,1704.9,-0.9,530.4,1656.6,1851.6,0,510,36218653949952,194,0, 
0.2867,451.8,-1654.5,46.5,-724.5,9573.6,-220.2,-322.5,9830.1,233192.7,517.2,3733.2,7338.0,331.5,9078.0,9830.1,9830.1,-6.3,-6.0,9830.1,9830.1,-0.9,606.3,7065.6,1867.5,0,516,36218653949952,195,0, 
0.2900,492.3,-1733.7,57.0,-678.3,-4541.7,-471.9,-255.3,2411.7,183027.0,654.6,-1937.7,-124.2,-189.3,9827.1,9830.1,2901.0,-6.9,-6.0,-1215.0,-2215.8,-0.9,744.3,-7080.0,1797.3,0,522,36218653949952,196,0, 
0.2933,478.2,-1754.1,46.2,-678.3,-9819.9,-587.7,-246.9,-9830.1,117670.8,657.9,-7912.8,-8213.7,-553.2,1921.8,9830.1,-9830.1,-6.6,-5.7,-9830.1,-9830.1,-0.9,771.3,-9830.1,1759.5,0,528,36218653949952,197,0, 
0.2967,435.6,-1700.4,39.0,-722.1,-8927.7,-440.7,-302.7,-9000.9,126562.8,558.6,-6173.4,-6082.5,-258.6,4493.1,9830.1,-8682.3,-7.5,-5.7,-9171.6,-9708.9,-0.9,645.6,-9817.2,1798.2,0,534,36218653949952,198,0, 
0.3000,415.5,-1649.7,41.7,-756.3,3776.4,-209.7,-346.8,5801.4,195994.5,470.1,483.9,2571.9,245.7,9827.1,9830.1,6328.5,-6.6,-5.7,2095.5,964.5,-0.6,570.3,1787.4,1876.5,0,540,36218653949952,199,0, 
0.3033,448.8,-1660.8,53.7,-721.2,9544.2,-209.1,-321.3,9830.1,233044.5,514.2,3925.5,7018.8,305.7,9067.5,9830.1,9830.1,-7.2,-6.0,9830.1,9830.1,-0.3,627.9,7097.1,1883.7,0,546,36218653949952,200,0, 
0.3067,495.6,-1714.2,78.3,-660.9,-4618.5,-457.8,-257.1,2258.1,182137.8,661.5,-1788.6,-486.9,-209.1,9827.1,9830.1,2871.0,-6.9,-6.3,-2047.8,-3076.2,-0.6,749.1,-7119.9,1817.1,0,552,36218653949952,201,0, 
0.3100,468.9,-1749.6,65.4,-669.6,-9819.9,-593.1,-252.6,-9830.1,116262.9,670.8,-8010.9,-8686.8,-564.3,1383.6,9830.1,-9830.1,-6.6,-6.6,-9830.1,-9830.1,-0.6,762.9,-9830.1,1773.0,0,558,36218653949952,202,0, 
0.3133,421.8,-1705.8,48.3,-723.6,-8929.8,-435.3,-303.6,-9012.9,125303.1,561.6,-6156.3,-6433.2,-270.3,4154.7,9830.1,-8680.8,-6.3,-6.0,-9405.6,-9830.1,-0.6,657.6,-9816.6,1810.2,0,564,36218653949952,203,0, 
0.3167,406.5,-1653.9,43.8,-748.5,3852.6,-213.3,-347.7,5717.1,195475.8,469.2,676.5,2242.8,246.9,9827.1,9830.1,6274.5,-7.2,-6.0,1516.8,231.3,-0.9,570.0,1845.9,1880.4,0,570,36218653949952,204,0, 
0.3200,444.3,-1658.1,55.8,-723.9,9491.4,-220.8,-318.6,9830.1,231858.9,531.0,3907.5,6744.0,310.8,9053.4,9830.1,9830.1,-7.2,-6.0,9606.0,9830.1,-0.6,625.2,7014.9,1884.6,0,576,36218653949952,205,0, 
0.3233,483.0,-1719.3,68.1,-670.2,-4761.0,-482.4,-263.1,1922.7,180359.4,652.2,-2106.3,-854.1,-223.8,9827.1,9830.1,2545.2,-6.9,-6.3,-3475.5,-3723.3,-1.2,737.4,-7206.9,1816.2,0,582,0,206,0, 
0.3267,471.0,-1733.1,69.9,-669.3,-9819.9,-600.9,-248.4,-9830.1,114188.1,679.5,-8306.4,-8993.4,-556.5,800.7,9830.1,-9830.1,-6.9,-5.7,-9830.1,-9830.1,-0.6,758.7,-9830.1,1775.1,0,588,268435456,207,0, 
0.3300,423.6,-1688.1,50.7,-721.2,-8942.7,-439.5,-304.5,-9059.7,123969.3,569.4,-6361.5,-6634.5,-266.4,3922.8,9830.1,-8746.8,-7.2,-5.7,-9703.8,-9830.1,-0.6,647.7,-9823.5,1817.1,0,594,35873982808064,208,0, 
0.3333,413.7,-1636.5,46.8,-750.9,3808.8,-214.5,-345.6,5706.6,194586.6,482.7,383.1,2172.9,265.2,9827.1,9830.1,6213.0,-6.6,-6.0,443.4,-107.1,-0.6,561.3,1890.0,1890.6,0,600,35873982808064,209,0, 
0.3367,446.1,-1652.1,64.8,-719.7,9492.0,-225.9,-325.5,9830.1,231340.2,531.0,3634.8,6855.9,318.6,9063.6,9830.1,9830.1,-6.6,-6.0,8770.5,9694.2,-1.2,615.0,7054.8,1904.1,0,606,35873982808064,210,0, 
0.3400,483.0,-1719.3,65.4,-681.0,-4681.8,-483.0,-269.4,2122.2,180063.0,648.3,-2459.1,-672.0,-220.8,9827.1,9830.1,2648.4,-6.9,-6.0,-4145.7,-3751.2,-0.9,743.7,-7191.3,1824.6,0,612,35875056566272,211,0, 
0.3433,470.4,-1749.6,53.7,-676.8,-9819.9,-599.1,-261.6,-9830.1,114262.2,670.8,-8807.4,-8749.2,-563.4,991.2,9830.1,-9830.1,-6.6,-6.0,-9830.1,-9830.1,-1.2,747.3,-9830.1,1771.5,0,618,35875056566272,212,0, 
0.3467,425.7,-1691.4,46.5,-725.4,-8879.4,-436.5,-309.0,-8965.8,124265.7,549.9,-6871.8,-6265.8,-264.0,4131.3,9830.1,-8628.0,-6.6,-6.0,-9830.1,-9830.1,-0.9,637.2,-9813.6,1818.9,0,624,35875056566272,213,0, 
0.3500,412.5,-1636.2,43.5,-756.9,3960.3,-212.7,-357.6,5918.1,195253.5,466.2,-39.3,2420.1,266.1,9827.1,9830.1,6451.8,-6.6,-6.0,-298.2,5.7,-0.9,553.8,1992.9,1889.4,0,630,35875056566272,214,0, 
0.3533,449.7,-1644.0,51.9,-724.2,9716.1,-213.9,-323.7,9830.1,232229.4,504.9,3455.1,7134.9,313.5,9069.6,9830.1,9830.1,-7.2,-6.0,8298.0,9830.1,-1.2,610.5,7260.9,1902.6,0,636,35875056566272,215,0, 
0.3567,490.8,-1711.5,70.5,-670.8,-4548.0,-462.0,-258.6,2430.9,181026.3,642.6,-2713.8,-624.3,-205.8,9827.1,9830.1,3015.0,-6.6,-6.0,-4619.1,-3645.6,-1.2,729.6,-7118.7,1829.1,0,642,36149934473216,216,0, 
0.3600,467.4,-1740.6,59.1,-682.5,-9819.9,-584.1,-254.7,-9830.1,115299.6,658.2,-8944.2,-8866.5,-543.3,1327.2,9830.1,-9830.1,-6.6,-6.3,-9830.1,-9830.1,-0.6,740.4,-9830.1,1779.0,0,648,36149934473216,217,0, 
0.3633,428.7,-1689.6,48.6,-733.5,-8853.3,-421.2,-302.4,-8892.0,125229.0,558.6,-7015.5,-6637.5,-253.2,4335.3,9830.1,-8534.4,-6.6,-5.4,-9830.1,-9830.1,-0.9,634.2,-9783.3,1816.2,0,654,36149934473216,218,0, 
0.3667,406.5,-1645.5,40.5,-765.3,4068.6,-195.6,-345.0,6078.6,196216.8,467.7,-101.7,2194.8,274.5,9827.1,9830.1,6615.6,-6.3,-6.0,-433.5,249.3,-0.9,555.3,2200.5,1888.8,0,660,36149934473216,219,0, 
0.3700,448.2,-1650.6,67.2,-725.1,9755.1,-210.0,-316.5,9830.1,233266.8,520.5,3338.4,6836.7,343.8,9081.3,9830.1,9830.1,-6.9,-6.0,8070.3,9830.1,-0.9,600.9,7390.2,1896.0,0,666,36149934473216,220,0, 
0.3733,484.2,-1713.6,71.1,-684.3,-4394.4,-463.8,-248.7,2658.3,182286.0,631.2,-2717.4,-858.3,-201.9,9827.1,9830.1,3231.0,-7.5,-5.4,-4605.0,-3388.8,-0.6,727.8,-6983.7,1832.7,0,672,36149934473216,221,0, 
0.3767,459.9,-1747.2,49.5,-704.1,-9819.9,-600.6,-252.0,-9830.1,116262.9,657.9,-8996.4,-9035.4,-547.8,1712.1,9830.1,-9830.1,-6.9,-5.4,-9830.1,-9830.1,-0.6,761.4,-9830.1,1773.6,0,678,36149934473216,222,0, 
0.3800,413.1,-1702.8,33.6,-748.8,-8786.1,-438.9,-308.7,-8806.8,126118.2,550.5,-7069.5,-6645.0,-264.6,4543.8,9830.1,-8463.0,-7.2,-6.3,-9830.1,-9830.1,-0.6,645.3,-9752.1,1818.0,0,684,36149934473216,223,0, 
0.3833,394.2,-1656.0,30.6,-786.9,4153.5,-215.1,-359.4,6224.4,196957.8,453.6,-336.9,1993.8,267.6,9827.1,9830.1,6726.3,-6.9,-5.4,-29.7,172.2,-0.9,538.2,2151.6,1879.8,0,690,36149934473216,224,0, 
0.3867,429.6,-1675.5,49.8,-751.8,9819.6,-221.1,-334.2,9830.1,234156.0,494.4,3167.7,6702.9,325.8,9078.3,9830.1,9830.1,-6.9,-6.0,8802.9,9830.1,-0.9,588.9,7463.4,1885.2,0,696,36149934473216,225,0, 
0.3900,471.6,-1728.3,77.7,-692.7,-4343.4,-463.5,-267.6,2743.2,182952.9,627.0,-3038.7,-1070.4,-201.0,9827.1,9830.1,3306.3,-7.2,-5.7,-3989.4,-3470.1,-0.6,740.4,-7035.3,1824.6,0,702,36149934473216,226,0, 
0.3933,458.7,-1744.5,67.5,-699.9,-9819.9,-592.8,-252.6,-9830.1,116855.7,652.2,-9276.9,-9094.2,-543.9,1598.1,9830.1,-9830.1,-7.2,-6.0,-9830.1,-9830.1,-0.6,760.8,-9830.1,1775.7,0,708,36149934473216,227,0, 
0.3967,419.1,-1696.5,54.0,-735.3,-8800.5,-424.2,-301.2,-8853.0,126414.6,555.0,-7235.7,-6907.5,-243.6,4513.2,9830.1,-8493.9,-6.9,-6.0,-9753.3,-9830.1,-0.9,643.2,-9799.8,1823.4,0,714,36149934473216,228,0, 
0.4000,402.0,-1637.4,55.5,-762.6,4089.0,-189.6,-342.3,6130.5,196957.8,464.1,-430.5,1922.4,273.6,9827.1,9830.1,6680.7,-6.6,-6.0,671.4,191.1,-0.6,569.4,2048.7,1894.8,0,720,36149934473216,229,0, 
0.4033,440.1,-1652.1,66.6,-732.6,9782.1,-196.2,-320.7,9830.1,233711.4,516.3,3159.6,6664.8,330.0,9086.1,9830.1,9830.1,-6.9,-6.3,9441.3,9830.1,-0.6,620.7,7315.5,1899.6,0,726,36149934473216,230,0, 
0.4067,482.7,-1705.5,90.9,-669.9,-4366.8,-439.5,-252.9,2654.7,182656.5,640.5,-2920.2,-1008.0,-197.4,9827.1,9830.1,3207.6,-7.2,-5.7,-3411.9,-3427.8,-0.3,755.4,-7057.5,1832.4,0,732,36149934473216,231,0, 
0.4100,468.9,-1733.7,67.8,-684.6,-9819.9,-558.9,-241.8,-9830.1,116337.0,640.5,-9163.8,-9214.2,-548.4,1507.2,9830.1,-9830.1,-6.9,-6.0,-9830.1,-9830.1,-0.9,768.0,-9830.1,1790.1,0,738,36149934473216,232,0, 
0.4133,424.5,-1688.7,56.1,-728.4,-8855.7,-408.6,-293.1,-8928.3,125673.6,546.6,-7283.1,-6956.1,-264.0,4316.1,9830.1,-8581.5,-6.6,-5.4,-9582.9,-9830.1,-0.6,657.3,-9817.8,1833.0,0,744,36149934473216,233,0, 
0.4167,413.1,-1631.7,55.5,-758.7,3942.6,-179.7,-336.6,5943.9,196290.9,464.1,-473.7,1845.9,282.0,9827.1,9830.1,6537.3,-6.9,-5.7,1220.1,204.3,-0.9,568.8,1939.5,1907.7,0,750,36149934473216,234,0, 
0.4200,448.8,-1647.9,75.3,-729.3,9691.5,-193.8,-312.6,9830.1,233489.1,510.6,3066.6,6498.9,335.7,9077.7,9830.1,9830.1,-7.2,-6.3,9823.8,9830.1,-0.9,632.7,7224.3,1910.7,0,756,36149934473216,235,0, 
0.4233,491.1,-1715.7,85.2,-676.8,-4495.8,-441.3,-244.8,2380.8,182211.9,637.2,-3015.0,-1039.2,-195.6,9827.1,9830.1,3096.3,-7.2,-5.7,-3035.7,-3199.2,-0.3,750.9,-7071.6,1839.0,0,762,36149934473216,236,0, 
0.4267,474.6,-1724.7,83.7,-678.6,-9819.9,-567.3,-237.9,-9830.1,115818.3,656.7,-9382.5,-9260.4,-545.1,1211.7,9830.1,-9830.1,-6.9,-5.7,-9830.1,-9830.1,-0.9,777.6,-9830.1,1792.8,0,768,36149934473216,237,0, 
0.4300,426.6,-1682.1,63.6,-727.5,-8933.4,-410.4,-294.3,-9009.3,124784.4,562.8,-7426.2,-6943.8,-251.7,3959.4,9830.1,-8651.7,-6.6,-6.0,-9500.7,-9830.1,-0.9,668.1,-9830.1,1833.0,0,774,36149934473216,238,0, 
0.4333,409.2,-1630.8,61.2,-758.4,3765.9,-184.8,-339.6,5788.2,195105.3,460.8,-591.3,1807.8,276.6,9827.1,9830.1,6341.1,-6.6,-6.0,1413.9,605.7,-0.6,567.6,1744.2,1885.2,0,780,36149934473216,239,0, 
0.4367,450.3,-1637.7,88.8,-723.9,9486.0,-192.9,-307.2,9830.1,232155.3,528.0,2865.6,6418.8,345.3,9048.3,9830.1,9830.1,-6.9,-6.0,9830.1,9830.1,-0.9,624.6,7014.0,1901.1,0,786,36149934473216,240,0, 
0.4400,492.9,-1691.4,102.6,-662.4,-4804.2,-440.1,-240.9,2070.9,180507.6,657.9,-3124.5,-1174.2,-181.8,9827.1,9830.1,2679.9,-6.9,-6.0,-2931.9,-3018.6,-0.3,762.9,-7216.2,1836.0,0,792,36218653949952,241,0, 
0.4433,476.7,-1716.9,97.2,-664.8,-9819.9,-565.8,-234.9,-9830.1,114929.1,657.9,-9650.1,-9595.2,-537.3,516.9,9830.1,-9830.1,-7.2,-5.7,-9830.1,-9830.1,-0.6,777.0,-9830.1,1797.3,0,798,36218653949952,242,0, 
0.4467,429.9,-1678.2,75.0,-716.7,-9096.9,-402.6,-286.5,-9227.4,123080.1,550.5,-7770.9,-7474.5,-253.8,3409.8,9830.1,-8881.5,-6.6,-6.0,-9547.8,-9830.1,-0.9,672.0,-9830.1,1827.6,0,804,36218653949952,243,0, 
0.4500,411.3,-1632.9,78.6,-743.7,3385.8,-191.1,-332.4,5173.5,193030.5,466.5,-858.6,1266.3,266.7,9827.1,9830.1,5849.4,-6.3,-6.0,1292.4,186.6,-0.9,580.5,1426.8,1904.1,0,810,36218653949952,244,0, 
0.4533,450.0,-1641.6,93.0,-717.3,9122.4,-201.9,-308.1,9830.1,229561.8,518.7,2641.5,5816.4,327.6,9033.6,9830.1,9830.1,-6.9,-6.3,9830.1,9830.1,-1.5,638.1,6689.1,1914.3,0,816,36218653949952,245,0, 
0.4567,490.8,-1705.8,106.8,-666.3,-5049.9,-459.0,-243.3,1364.4,177988.2,648.6,-3235.5,-1634.4,-197.4,9827.1,9830.1,2059.5,-6.9,-6.0,-2851.2,-3381.3,-0.3,761.4,-7359.9,1841.1,0,822,36218653949952,246,0, 
0.4600,471.0,-1722.0,102.0,-669.3,-9819.9,-575.4,-235.2,-9830.1,111075.9,668.4,-9445.2,-9539.4,-562.2,-285.0,9830.1,-9830.1,-6.9,-6.0,-9830.1,-9830.1,-0.9,756.9,-9830.1,1791.3,0,828,36218653949952,247,0, 
0.4633,422.7,-1691.7,61.5,-727.2,-9177.6,-402.3,-278.4,-9385.2,119671.5,560.1,-7525.5,-7421.7,-270.9,2843.7,9830.1,-9070.8,-6.9,-6.0,-9400.8,-9830.1,-0.6,668.7,-9830.1,1841.1,0,834,36218653949952,248,0, 
0.4667,407.1,-1643.1,55.8,-761.4,3136.8,-179.1,-332.4,4872.6,189844.2,472.2,-545.7,1435.2,260.7,9827.1,9830.1,5510.4,-6.9,-5.7,1880.1,306.0,-0.9,579.0,1305.0,1901.4,0,840,36218653949952,249,0, 
0.4700,449.1,-1636.2,93.3,-717.0,8969.7,-180.0,-299.7,9830.1,227042.4,532.5,2836.2,6104.1,327.9,9028.2,9830.1,9830.1,-6.9,-6.0,9830.1,9830.1,-0.6,645.9,6640.8,1925.1,0,846,36218653949952,250,0, 
0.4733,487.5,-1695.0,111.9,-665.1,-5128.8,-423.6,-235.5,1227.3,175617.0,653.1,-3128.4,-1437.9,-194.1,9827.1,9830.1,1821.3,-6.6,-5.7,-2312.1,-3272.1,-1.5,751.2,-7364.1,1845.6,0,852,36218653949952,251,0, 
0.4767,469.2,-1713.9,89.7,-678.3,-9819.9,-569.7,-234.6,-9830.1,108704.7,668.4,-9395.7,-9551.4,-563.4,-542.7,9830.1,-9830.1,-6.9,-5.7,-9830.1,-9830.1,-0.9,770.7,-9830.1,1798.8,0,858,36218653949952,252,0, 
0.4800,419.7,-1681.5,70.2,-722.1,-9215.7,-418.5,-290.1,-9447.3,117152.1,570.9,-7413.3,-7259.4,-256.5,2628.0,9830.1,-9152.1,-6.6,-6.3,-9310.2,-9830.1,-0.6,678.6,-9830.1,1835.7,0,864,36218653949952,253,0, 
0.4833,400.2,-1638.6,66.0,-747.0,3018.9,-192.6,-342.9,4703.7,187250.7,478.5,-553.5,1670.7,262.2,9827.1,9830.1,5343.3,-6.6,-6.0,2019.9,273.0,-0.9,576.3,1197.0,1906.5,0,870,36218653949952,254,0, 
0.4867,439.5,-1649.4,93.6,-710.4,8883.3,-196.5,-312.3,9830.1,224448.9,513.3,2828.7,6276.3,320.4,9021.6,9830.1,9830.1,-7.2,-6.3,9830.1,9830.1,-0.9,631.5,6508.5,1919.1,0,876,36218653949952,255,0, 
0.4900,485.1,-1705.5,106.2,-656.1,-5148.3,-442.8,-245.4,1142.7,173394.0,658.8,-2931.3,-1071.3,-198.0,9827.1,9830.1,1821.3,-6.6,-5.7,-2129.4,-3079.8,-0.9,751.8,-7421.4,1845.3,0,882,36218653949952,0,0, 
0.4933,472.5,-1716.9,108.0,-651.0,-9819.9,-562.2,-234.6,-9830.1,106926.3,674.1,-9236.1,-9222.0,-539.4,-600.0,9830.1,-9830.1,-6.6,-6.0,-9830.1,-9830.1,-0.3,779.4,-9828.0,1808.1,0,888,36218653949952,1,0, 
0.4967,427.2,-1668.6,81.0,-710.7,-9208.5,-400.8,-284.1,-9430.2,115521.9,582.9,-7323.9,-6893.4,-255.0,2692.2,9830.1,-9152.4,-6.9,-6.0,-9233.4,-9830.1,-0.9,666.3,-9830.1,1856.7,0,894,36218653949952,2,0, 
0.5000,406.8,-1628.4,70.5,-750.9,3116.1,-183.3,-327.6,4846.8,186139.2,461.4,-498.9,1919.1,264.3,9827.1,9830.1,5412.0,-6.9,-6.3,2270.7,342.6,-0.9,571.5,1269.9,1914.9,0,900,36218653949952,3,0, 
0.5033,442.8,-1632.0,92.7,-715.2,9007.5,-180.3,-305.7,9830.1,223633.8,519.3,3019.5,6593.7,327.9,9027.3,9830.1,9830.1,-6.9,-5.7,9830.1,9830.1,-1.2,636.3,6696.3,1930.2,0,906,36218653949952,4,0, 
0.5067,485.7,-1693.8,113.1,-659.4,-5005.8,-429.0,-244.2,1446.6,173097.6,646.8,-2808.0,-621.9,-196.8,9827.1,9830.1,2040.9,-7.2,-6.0,-1602.3,-2844.6,-0.6,750.9,-7296.9,1854.3,0,912,36218653949952,5,0, 
0.5100,470.4,-1724.1,99.3,-670.2,-9819.9,-562.8,-240.0,-9830.1,106704.0,687.3,-9024.0,-8798.1,-532.2,-357.9,9830.1,-9830.1,-7.2,-6.0,-9830.1,-9830.1,-0.9,763.8,-9830.1,1808.4,0,918,36218653949952,6,0, 
0.5133,425.7,-1670.4,81.9,-714.3,-9142.8,-405.3,-290.1,-9338.7,115521.9,573.9,-7146.9,-6508.8,-245.7,2795.1,9830.1,-9049.5,-6.6,-5.7,-9118.5,-9830.1,-0.6,656.4,-9830.1,1851.6,0,924,36218653949952,7,0, 
0.5167,403.2,-1627.5,77.4,-742.2,3300.6,-165.9,-331.5,5153.1,186361.5,473.1,-379.8,2128.8,267.3,9827.1,9830.1,5663.4,-7.2,-5.7,2793.9,721.5,-0.6,580.5,1425.3,1918.8,0,930,36218653949952,8,0, 
0.5200,447.3,-1629.0,97.5,-713.7,9299.7,-167.7,-297.0,9830.1,224374.8,533.4,3200.4,6886.2,345.6,9022.2,9830.1,9830.1,-7.2,-6.3,9830.1,9830.1,-0.3,636.9,6881.1,1932.3,0,936,36218653949952,9,0, 
0.5233,490.2,-1687.2,110.4,-658.8,-4833.9,-422.7,-235.2,1901.7,173838.6,647.7,-2622.0,-452.1,-179.4,9827.1,9830.1,2445.3,-7.2,-6.0,-1086.9,-2461.5,-0.9,764.1,-7204.2,1855.2,0,942,36218653949952,10,0, 
0.5267,479.4,-1704.3,110.7,-657.9,-9819.9,-549.0,-228.9,-9830.1,107593.2,678.0,-8893.8,-8673.0,-524.1,-127.2,9830.1,-9830.1,-7.2,-6.0,-9830.1,-9830.1,0.0,781.8,-9830.1,1823.4,0,948,36218653949952,11,0, 
0.5300,440.4,-1657.8,90.9,-705.6,-9115.2,-382.5,-280.2,-9233.7,116262.9,572.7,-6828.6,-6366.0,-240.0,3058.2,9830.1,-8913.9,-6.6,-6.0,-8901.6,-9780.3,-0.9,686.1,-9830.1,1860.6,0,954,36218653949952,12,0, 
0.5333,421.2,-1617.9,92.7,-729.0,3385.8,-157.8,-325.5,5343.0,186657.9,482.7,-22.2,2268.0,297.6,9827.1,9830.1,5912.1,-6.9,-5.7,3167.4,908.1,-0.6,583.5,1487.1,1931.4,0,960,36218653949952,13,0, 
0.5367,457.2,-1623.9,110.7,-695.4,9339.3,-174.6,-302.7,9830.1,224523.0,526.5,3551.4,6956.7,369.9,9039.0,9830.1,9830.1,-7.2,-6.0,9830.1,9830.1,-0.6,624.3,6888.9,1932.6,0,966,36218653949952,14,0, 
0.5400,492.3,-1700.4,115.2,-648.3,-4787.7,-423.0,-243.6,1936.5,173838.6,665.7,-2356.2,-538.5,-166.2,9827.1,9830.1,2496.9,-7.2,-6.0,-922.2,-2581.5,-0.3,750.6,-7234.5,1856.4,0,972,36218653949952,15,0, 
0.5433,472.5,-1722.6,102.3,-653.1,-9819.9,-544.5,-237.6,-9830.1,107148.6,667.2,-8638.2,-8563.8,-534.6,-136.2,9830.1,-9830.1,-6.9,-6.3,-9830.1,-9830.1,-0.6,781.5,-9830.1,1810.5,0,978,36218653949952,16,0, 
0.5467,429.9,-1667.4,79.2,-705.3,-9139.5,-400.8,-285.0,-9255.0,115521.9,572.4,-6720.3,-6374.7,-240.6,2916.9,9830.1,-8980.2,-6.9,-6.3,-8946.6,-9830.1,-0.3,659.7,-9830.1,1842.9,0,984,36218653949952,17,0, 
0.5500,411.3,-1614.0,83.4,-734.1,3288.3,-161.4,-328.5,5275.2,185916.9,477.9,33.3,2212.2,281.4,9827.1,9830.1,5795.4,-6.9,-5.7,3047.1,525.3,-0.6,575.1,1427.7,1923.0,0,990,36218653949952,18,0, 
0.5533,457.5,-1624.5,103.8,-700.8,9279.9,-171.3,-307.5,9830.1,223707.9,539.7,3565.2,6933.0,350.4,9034.8,9830.1,9830.1,-6.9,-5.4,9830.1,9830.1,-0.9,629.7,6860.1,1923.0,0,996,36218653949952,19,0, 
0.5567,492.0,-1696.5,105.0,-657.0,-4852.5,-426.6,-238.2,1893.6,173023.5,651.9,-2394.6,-423.6,-199.8,9827.1,9830.1,2451.9,-6.6,-6.0,-1172.1,-2922.6,-0.9,751.8,-7214.1,1852.5,0,1002,36218653949952,20,0, 
0.5600,480.3,-1722.6,93.9,-666.0,-9819.9,-560.7,-229.5,-9830.1,105963.0,663.9,-8664.0,-8671.5,-545.1,-315.0,9830.1,-9830.1,-6.9,-6.3,-9830.1,-9830.1,-0.9,773.1,-9830.1,1806.3,0,1008,36218653949952,21,0, 
0.5633,432.6,-1681.5,75.0,-705.0,-9145.5,-390.9,-278.1,-9291.3,114262.2,557.1,-6728.7,-6606.9,-265.2,2691.3,9830.1,-8999.7,-6.6,-5.4,-9044.7,-9830.1,-0.9,687.6,-9830.1,1859.4,0,1014,36218653949952,22,0, 
0.5667,414.6,-1613.4,79.2,-729.3,3229.5,-171.6,-330.0,5174.1,184731.3,477.9,137.4,2035.2,271.8,9827.1,9830.1,5744.4,-6.6,-5.7,2872.5,241.8,-1.2,580.2,1371.6,1935.0,0,1020,36218653949952,23,0, 
0.5700,457.2,-1629.9,95.4,-696.0,9245.1,-179.7,-301.8,9830.1,222596.4,548.4,3607.8,6802.2,345.3,9027.6,9830.1,9830.1,-6.6,-5.4,9830.1,9830.1,-0.9,626.1,6843.0,1939.2,0,1026,36218653949952,24,0, 
0.5733,491.4,-1692.3,105.3,-652.2,-4913.1,-444.3,-242.1,1772.1,171467.4,658.5,-2247.6,-628.5,-190.5,9827.1,9830.1,2368.5,-7.2,-6.0,-990.0,-2882.4,-0.9,752.7,-7227.6,1863.0,0,1032,36218653949952,25,0, 
0.5767,471.6,-1721.7,85.8,-660.9,-9819.9,-567.6,-235.8,-9830.1,104332.8,677.4,-8679.0,-8851.8,-547.5,-853.8,9830.1,-9830.1,-7.2,-6.0,-9830.1,-9830.1,-0.6,795.3,-9830.1,1806.3,0,1038,36218653949952,26,0, 
0.5800,427.8,-1668.9,67.5,-710.4,-9205.5,-411.3,-289.2,-9349.8,112335.6,569.1,-6684.0,-6627.6,-266.7,2222.4,9830.1,-9078.0,-6.9,-5.7,-8984.1,-9830.1,-0.6,663.0,-9830.1,1849.8,0,1044,36218653949952,27,0, 
0.5833,408.9,-1627.8,58.8,-737.4,3037.2,-181.8,-330.3,4926.6,182730.6,463.8,144.6,2030.4,260.1,9827.1,9830.1,5489.7,-6.9,-6.3,2831.1,273.0,-0.6,574.2,1147.8,1914.3,0,1050,36218653949952,28,0, 
0.5867,451.2,-1628.4,88.2,-704.1,8944.5,-188.7,-297.6,9830.1,220151.1,535.5,3612.3,6746.1,333.6,9022.8,9830.1,9830.1,-6.9,-6.0,9830.1,9830.1,-0.9,624.9,6595.2,1929.0,0,1056,36218653949952,29,0, 
0.5900,488.1,-1702.8,89.7,-661.8,-5215.8,-458.7,-236.7,1300.2,168577.5,645.9,-2386.5,-675.3,-207.6,9827.1,9830.1,1887.9,-6.6,-6.0,-1429.2,-3082.2,-0.9,743.4,-7416.0,1844.7,0,1062,36218653949952,30,0, 
0.5933,476.1,-1715.4,78.6,-661.5,-9819.9,-592.5,-229.8,-9830.1,101072.4,666.6,-8679.9,-8890.8,-563.4,-1645.5,9830.1,-9830.1,-6.9,-6.0,-9830.1,-9830.1,-0.3,771.6,-9819.9,1808.4,0,1068,36218653949952,31,0, 
0.5967,426.9,-1671.0,57.9,-708.9,-9306.9,-425.7,-277.8,-9501.0,109075.2,555.6,-6928.5,-6744.9,-275.1,1562.7,9830.1,-9229.8,-6.6,-5.7,-9124.5,-9830.1,-0.9,670.2,-9830.1,1852.8,0,1074,36218653949952,32,0, 
0.6000,413.7,-1599.6,59.1,-739.2,2788.2,-194.1,-329.4,4554.0,179470.2,464.1,-177.9,1967.1,237.9,9827.1,9830.1,5142.9,-6.9,-6.0,2549.1,81.6,-0.9,563.4,1023.6,1908.3,0,1080,36218653949952,33,0, 
0.6033,450.6,-1614.0,84.6,-704.4,8783.1,-196.8,-295.5,9830.1,216964.8,528.9,3239.4,6651.3,324.0,9022.8,9830.1,9830.1,-6.9,-5.1,9830.1,9830.1,-0.6,621.0,6457.8,1926.6,0,1086,36218653949952,34,0, 
0.6067,493.2,-1680.0,94.5,-658.5,-5246.4,-462.3,-236.1,1072.5,165984.0,650.1,-2561.1,-797.1,-215.4,9827.1,9830.1,1662.9,-6.9,-6.0,-1598.1,-3201.9,-1.2,754.8,-7474.5,1836.0,0,1092,36218653949952,35,0, 
0.6100,476.1,-1717.8,69.9,-669.3,-9819.9,-588.3,-228.0,-9830.1,98553.0,669.0,-8907.6,-9078.0,-567.3,-2071.5,9830.1,-9830.1,-7.2,-6.0,-9830.1,-9830.1,-0.6,775.5,-9808.2,1802.4,0,1098,36218653949952,36,0, 
0.6133,433.2,-1671.0,49.8,-716.1,-9299.1,-432.3,-287.1,-9532.8,106926.3,566.7,-7069.5,-6914.1,-280.5,1263.9,9830.1,-9259.8,-6.9,-6.0,-9146.7,-9830.1,-0.3,673.8,-9830.1,1842.6,0,1104,36218653949952,37,0, 
0.6167,411.3,-1613.1,45.9,-752.7,2814.3,-194.1,-334.8,4512.6,177617.7,466.5,-111.0,1979.7,248.1,9827.1,9830.1,5122.8,-6.9,-6.0,2526.0,101.7,-0.9,573.3,1009.5,1918.2,0,1110,36218653949952,38,0, 
0.6200,456.6,-1626.6,63.6,-717.9,8812.2,-199.8,-305.7,9830.1,215260.5,521.7,3341.1,6502.5,307.5,9018.0,9830.1,9830.1,-6.9,-5.7,9830.1,9830.1,-0.9,615.3,6412.5,1915.8,0,1116,36218653949952,39,0, 
0.6233,501.9,-1689.3,89.1,-661.2,-5231.7,-441.3,-240.0,1047.9,164131.5,657.6,-2588.7,-893.7,-222.3,9827.1,9830.1,1646.4,-7.2,-6.0,-1382.1,-3044.1,-0.9,766.8,-7489.8,1860.9,0,1122,36218653949952,40,0, 
0.6267,487.5,-1704.0,81.9,-665.4,-9819.9,-562.5,-222.3,-9830.1,96552.3,691.2,-9014.1,-9226.5,-573.0,-2366.7,9830.1,-9830.1,-6.9,-5.7,-9830.1,-9830.1,-0.6,792.6,-9801.9,1813.2,0,1128,36218653949952,41,0, 
0.6300,440.4,-1666.8,57.3,-712.5,-9314.4,-405.6,-276.9,-9529.8,104777.4,568.8,-7175.1,-6961.5,-290.1,1100.1,9830.1,-9279.6,-7.2,-5.7,-9129.3,-9830.1,-0.9,696.0,-9830.1,1851.3,0,1134,36218653949952,42,0, 
0.6333,426.6,-1614.9,58.8,-735.9,2808.3,-174.6,-322.5,4531.5,175691.1,491.4,-340.2,1798.2,240.0,9827.1,9830.1,5049.6,-6.9,-6.3,2645.4,354.3,-1.5,596.1,943.2,1919.1,0,1140,36218653949952,43,0, 
0.6367,464.7,-1621.2,80.4,-705.0,8749.2,-181.5,-293.7,9830.1,213259.8,537.6,3114.6,6405.3,318.0,9036.9,9830.1,9830.1,-6.9,-6.0,9830.1,9830.1,-0.9,641.1,6331.5,1929.3,0,1146,36218653949952,44,0, 
0.6400,504.9,-1683.6,98.4,-653.1,-5306.4,-430.5,-230.1,1018.2,161908.5,674.4,-2724.6,-977.7,-221.7,9827.1,9830.1,1507.5,-6.9,-5.4,-1334.7,-2934.9,-0.6,771.0,-7563.6,1849.2,0,1152,36218653949952,45,0, 
0.6433,492.9,-1703.7,96.9,-649.2,-9819.9,-549.6,-213.9,-9830.1,94255.2,705.0,-9143.1,-9432.9,-574.8,-2824.5,9830.1,-9830.1,-7.5,-6.0,-9830.1,-9830.1,-0.6,793.8,-9788.4,1813.2,0,1158,36218653949952,46,0, 
0.6467,440.1,-1666.8,73.5,-706.8,-9355.2,-397.8,-274.2,-9565.2,102332.1,577.8,-7251.0,-7266.3,-295.5,660.0,9830.1,-9330.3,-7.2,-6.6,-9110.7,-9830.1,-0.6,688.5,-9830.1,1850.4,0,1164,36218653949952,47,0, 
0.6500,423.6,-1614.9,63.6,-739.2,2634.3,-177.6,-319.8,4382.1,172949.4,493.8,-387.3,1575.9,236.7,9827.1,9830.1,4911.3,-6.9,-6.0,2730.9,335.1,-0.9,593.1,825.6,1910.4,0,1170,36218653949952,48,0, 
0.6533,468.6,-1615.5,94.2,-696.9,8564.7,-177.9,-294.3,9830.1,210666.3,542.1,3031.5,6269.1,310.5,9053.4,9830.1,9830.1,-7.2,-5.7,9830.1,9830.1,-0.3,639.9,6218.4,1923.6,0,1176,36218653949952,49,0, 
0.6567,510.9,-1689.0,110.4,-649.8,-5498.4,-439.8,-233.1,789.9,158944.5,677.1,-2915.7,-1170.3,-223.8,9827.1,9830.1,1243.8,-6.9,-5.7,-1353.0,-2770.5,-0.9,774.9,-7610.7,1848.9,0,1182,36218653949952,50,0, 
0.6600,494.1,-1714.2,96.6,-657.3,-9819.9,-563.4,-231.0,-9830.1,91143.0,682.5,-9342.3,-9369.9,-592.2,-3391.8,9830.1,-9830.1,-6.9,-6.0,-9830.1,-9830.1,-0.6,795.0,-9777.3,1810.8,0,1188,36218653949952,51,0, 
0.6633,443.4,-1678.5,74.1,-714.0,-9403.2,-414.3,-285.0,-9606.3,99368.1,576.3,-7501.5,-7346.1,-308.4,93.6,9830.1,-9405.0,-6.3,-6.3,-9178.5,-9830.1,-0.9,686.7,-9830.1,1853.1,0,1194,36218653949952,52,0, 
0.6667,426.9,-1620.0,68.1,-744.6,2551.5,-177.3,-323.4,4264.8,170133.6,481.5,-480.3,1728.9,230.1,9827.1,9830.1,4737.3,-6.6,-5.4,2472.3,611.1,-0.9,593.1,739.5,1919.4,0,1200,36218653949952,53,0, 
0.6700,472.8,-1622.1,97.2,-704.7,8537.7,-190.5,-297.3,9830.1,207998.7,564.3,2881.5,6391.8,304.2,9053.4,9830.1,9830.1,-6.9,-6.0,9830.1,9830.1,-0.3,632.7,6085.2,1929.9,0,1206,36218653949952,54,0, 
0.6733,510.3,-1678.5,106.5,-651.6,-5527.5,-436.2,-231.3,700.2,156128.7,667.8,-3056.4,-1034.1,-239.7,9827.1,9830.1,1152.6,-7.2,-6.0,-1705.5,-2730.3,-0.6,780.9,-7667.7,1871.1,0,1212,36218653949952,55,0, 
0.6767,496.8,-1717.5,93.3,-655.8,-9819.9,-571.8,-216.3,-9830.1,88327.2,689.4,-9464.1,-9429.3,-573.3,-3891.9,9830.1,-9830.1,-6.9,-6.0,-9830.1,-9830.1,-0.6,800.7,-9769.2,1830.0,0,1218,36218653949952,56,0, 
0.6800,444.9,-1671.6,72.6,-709.8,-9410.1,-406.8,-277.5,-9622.2,96552.3,568.5,-7569.0,-7289.4,-302.1,-171.0,9830.1,-9425.1,-7.2,-6.0,-9210.9,-9797.7,-0.6,675.9,-9830.1,1868.1,0,1224,36218653949952,57,0, 
0.6833,422.1,-1626.0,57.6,-746.7,2542.5,-180.3,-328.2,4254.0,167688.3,475.8,-638.7,1737.6,234.9,9827.1,9830.1,4662.9,-6.6,-6.0,2408.7,892.8,-0.6,581.1,726.9,1924.8,0,1230,36218653949952,58,0, 
0.6867,461.1,-1626.9,85.8,-703.8,8498.4,-184.2,-298.8,9830.1,205849.8,525.3,2766.6,6441.0,303.3,9068.1,9830.1,9830.1,-7.5,-6.0,9830.1,9830.1,-0.9,632.4,6143.1,1939.5,0,1236,36218653949952,59,0, 
0.6900,501.0,-1699.2,93.9,-658.2,-5573.1,-444.0,-240.0,716.7,153905.7,656.7,-3187.2,-1005.3,-225.3,9827.1,9830.1,1065.9,-6.6,-5.7,-1775.1,-2293.2,-0.6,764.7,-7657.8,1858.8,0,1242,36218653949952,60,0, 
0.6933,480.9,-1725.0,73.2,-667.8,-9819.9,-576.0,-231.9,-9830.1,86178.3,665.4,-9476.7,-9201.0,-594.6,-4058.7,9830.1,-9830.1,-7.2,-6.0,-9830.1,-9830.1,-0.6,766.2,-9766.5,1817.1,0,1248,36218653949952,61,0, 
0.6967,440.1,-1666.5,61.5,-717.3,-9405.3,-418.5,-281.1,-9584.7,94848.0,578.7,-7620.3,-7046.4,-302.1,-313.5,9830.1,-9399.6,-6.6,-5.7,-9197.4,-9702.0,-0.6,667.8,-9830.1,1858.8,0,1254,36218653949952,62,0, 
0.7000,434.1,-1605.0,64.2,-739.2,2652.3,-182.7,-321.3,4395.3,166428.6,477.6,-558.9,1927.8,246.9,9827.1,9830.1,4793.1,-6.9,-6.0,2597.1,1616.1,-0.9,592.2,864.6,1931.7,0,1260,36218653949952,63,0, 
0.7033,476.4,-1618.2,94.5,-700.8,8653.2,-189.0,-295.2,9830.1,204590.1,530.7,2950.8,6593.4,309.3,9065.4,9823.2,9830.1,-6.6,-6.0,9830.1,9830.1,-0.9,638.1,6252.9,1946.4,0,1266,36218653949952,64,0, 
0.7067,516.0,-1676.7,112.2,-647.7,-5475.9,-445.2,-236.1,861.6,152720.1,682.5,-3077.4,-857.7,-218.7,9827.1,9830.1,1193.4,-6.9,-5.7,-1628.1,-1391.7,-0.9,758.4,-7636.8,1869.9,0,1272,36218653949952,65,0, 
0.7100,497.4,-1711.8,90.6,-655.2,-9819.9,-577.8,-224.7,-9830.1,84992.7,677.4,-9420.3,-9111.0,-582.3,-3974.4,9740.7,-9830.1,-6.6,-5.7,-9830.1,-9830.1,-0.6,784.8,-9772.5,1830.6,0,1278,36218653949952,66,0, 
0.7133,449.7,-1663.5,62.7,-709.2,-9365.1,-415.8,-269.7,-9500.1,93958.8,555.6,-7584.3,-6889.5,-293.4,-89.1,9765.9,-9321.9,-6.9,-5.7,-9183.9,-9463.2,-0.9,677.4,-9830.1,1876.8,0,1284,36218653949952,67,0, 
0.7167,433.5,-1612.5,65.1,-741.6,2844.3,-195.3,-318.9,4702.8,165761.7,491.7,-535.5,2213.7,249.3,9827.1,9830.1,5064.6,-7.2,-6.0,2609.7,2726.4,-1.2,566.7,941.4,1936.8,0,1290,36218653949952,68,0, 
0.7200,469.8,-1624.5,78.0,-709.8,8828.4,-196.5,-294.9,9830.1,203849.1,530.4,2922.0,6901.5,305.1,9068.4,9792.3,9830.1,-6.6,-5.4,9830.1,9830.1,-0.6,625.5,6378.3,1944.3,0,1296,36218653949952,69,0, 
0.7233,511.2,-1690.5,97.2,-662.4,-5332.2,-458.4,-228.9,1229.1,152201.4,658.2,-2982.9,-580.8,-235.2,9827.1,9830.1,1573.5,-6.9,-6.3,-1493.4,-390.0,-0.6,761.7,-7582.2,1877.7,0,1302,36218653949952,70,0, 
0.7267,498.0,-1706.7,90.6,-655.2,-9819.9,-565.5,-217.8,-9830.1,84548.1,670.5,-9378.3,-8859.3,-588.9,-3909.3,9543.3,-9830.1,-6.6,-5.7,-9830.1,-9830.1,-0.3,778.8,-9777.0,1839.9,0,1308,36218653949952,71,0, 
0.7300,438.0,-1681.8,53.7,-724.2,-9314.7,-420.9,-282.9,-9405.6,93736.5,553.8,-7418.1,-6596.4,-312.9,-66.6,9656.7,-9208.8,-7.2,-6.3,-9160.5,-9180.9,-0.9,655.5,-9830.1,1866.0,0,1314,36218653949952,72,0, 
0.7333,422.1,-1629.3,51.0,-757.8,2992.8,-185.7,-331.2,4909.2,165465.3,462.6,-457.5,2496.3,229.8,9827.1,9830.1,5277.6,-6.6,-5.7,2730.6,3617.1,-0.9,562.5,1137.9,1935.3,0,1320,36218653949952,73,0, 
0.7367,457.8,-1644.3,71.4,-724.8,8981.7,-194.4,-303.3,9830.1,203700.9,506.7,3021.6,7215.9,300.0,9061.2,9760.8,9830.1,-7.2,-6.0,9830.1,9830.1,-0.9,608.7,6478.5,1944.6,0,1326,36218653949952,74,0, 
0.7400,505.2,-1704.3,96.6,-666.0,-5184.3,-452.1,-231.3,1421.1,152053.2,650.7,-3011.1,-239.4,-239.7,9827.1,9830.1,1777.8,-7.2,-5.4,-1414.2,789.3,0.0,752.4,-7519.2,1879.5,0,1332,36218653949952,75,0, 
0.7433,487.2,-1722.0,85.8,-668.1,-9819.9,-578.7,-222.0,-9830.1,84622.2,668.7,-9432.6,-8611.2,-597.0,-3818.4,9254.7,-9830.1,-6.6,-6.3,-9830.1,-9830.1,-0.3,776.4,-9795.6,1841.7,0,1338,36218653949952,76,0, 
0.7467,444.6,-1670.4,72.6,-710.4,-9237.3,-422.4,-273.6,-9319.2,93736.5,565.5,-7420.8,-6235.5,-297.6,25.5,9493.5,-9144.9,-6.9,-5.7,-9078.0,-8677.2,-0.6,667.2,-9830.1,1882.5,0,1344,36218653949952,77,0, 
0.7500,434.1,-1617.6,68.1,-742.5,3235.8,-199.2,-319.2,5151.6,165909.9,469.5,-389.1,2747.1,234.3,9827.1,9830.1,5494.5,-6.9,-6.0,2806.5,4710.3,-0.6,582.6,1220.4,1949.7,0,1350,36218653949952,78,0, 
0.7533,468.3,-1632.3,87.9,-716.7,9300.9,-206.1,-295.5,9830.1,204516.0,521.4,3143.4,7610.4,295.2,9060.0,9791.4,9830.1,-6.6,-6.3,9830.1,9830.1,-0.9,630.6,6691.2,1955.7,0,1356,36218653949952,79,0, 
0.7567,506.1,-1704.6,93.9,-671.7,-5032.2,-474.3,-235.2,1753.8,152942.4,648.0,-2885.4,133.2,-256.8,9827.1,9830.1,2149.8,-6.9,-5.4,-1391.7,2012.1,-0.6,756.0,-7418.1,1878.0,0,1362,36218653949952,80,0, 
0.7600,496.2,-1722.6,84.6,-671.7,-9819.9,-599.1,-221.1,-9830.1,85437.3,658.8,-9167.7,-8135.7,-602.7,-3516.0,9579.9,-9830.1,-6.9,-5.7,-9830.1,-9830.1,-0.9,783.6,-9815.4,1838.1,0,1368,36218653949952,81,0, 
0.7633,451.5,-1676.1,67.2,-720.3,-9152.1,-432.6,-279.6,-9201.0,95070.3,567.9,-7294.8,-5922.3,-298.8,309.0,9656.1,-8977.5,-6.6,-5.7,-9111.3,-8130.6,-0.9,661.5,-9830.1,1878.9,0,1374,36218653949952,82,0, 
0.7667,428.7,-1629.9,54.9,-752.7,3497.7,-207.6,-320.7,5502.6,167466.0,464.4,-243.0,3170.7,234.9,9827.1,9830.1,5869.2,-6.6,-5.7,2953.8,5893.2,-0.9,581.4,1496.1,1955.1,0,1380,36218653949952,83,0, 
0.7700,466.8,-1631.4,82.2,-714.0,9629.7,-201.9,-287.1,9830.1,206146.2,523.5,3357.9,8074.8,312.9,9035.4,9822.6,9830.1,-6.9,-6.3,9830.1,9830.1,-1.2,633.3,6999.3,1967.4,0,1386,36218653949952,84,0, 
0.7733,504.6,-1701.3,91.5,-669.0,-4753.2,-464.4,-229.2,2267.4,155017.2,643.8,-2719.5,393.9,-231.0,9827.1,9830.1,2659.5,-7.2,-6.0,-1017.3,3621.0,-0.6,748.8,-7280.7,1886.4,0,1392,36218653949952,85,0, 
0.7767,495.0,-1718.4,87.0,-666.9,-9819.9,-580.2,-213.9,-9830.1,87808.5,673.2,-9063.3,-7772.7,-585.3,-2967.6,9830.1,-9830.1,-6.6,-6.0,-9830.1,-9830.1,-0.6,778.5,-9830.1,1850.4,0,1398,36218653949952,86,0, 
0.7800,443.1,-1681.8,69.6,-722.4,-9022.2,-420.6,-273.9,-8985.0,97737.9,552.6,-7257.3,-5370.0,-290.4,1011.6,9828.9,-8756.1,-6.9,-6.0,-8959.2,-7076.7,-0.9,667.8,-9830.1,1885.8,0,1404,36218653949952,87,0, 
0.7833,424.2,-1628.4,59.1,-758.4,3888.3,-190.2,-322.5,6044.4,170652.3,458.4,-228.0,3685.5,248.4,9827.1,9830.1,6379.2,-6.3,-6.3,3383.7,7067.1,-0.6,561.9,1810.2,1950.9,0,1410,36218653949952,88,0, 
0.7867,457.2,-1644.6,74.4,-724.5,9819.6,-204.9,-300.9,9830.1,209554.8,501.0,3435.6,8694.6,319.5,9037.2,9830.1,9830.1,-7.2,-6.0,9830.1,9830.1,-0.9,607.2,7326.3,1956.3,0,1416,36218653949952,89,0, 
0.7900,502.2,-1699.2,100.2,-661.5,-4372.2,-447.0,-231.9,3048.3,158796.3,642.3,-2577.0,1125.3,-204.3,9827.1,9830.1,3376.5,-6.9,-6.3,-458.4,5170.2,-0.6,751.2,-7122.0,1893.0,0,1422,36218653949952,90,0, 
0.7933,495.0,-1712.1,94.8,-659.4,-9819.9,-576.3,-223.2,-9830.1,91587.6,664.5,-8985.3,-7069.8,-556.5,-2073.0,9830.1,-9830.1,-6.9,-6.0,-9830.1,-9376.5,-0.6,775.2,-9830.1,1849.5,0,1428,36218653949952,91,0, 
0.7967,442.2,-1673.1,79.5,-713.1,-8841.6,-418.5,-283.8,-8729.7,101887.5,546.9,-7251.3,-4865.7,-264.0,1552.8,9830.1,-8471.1,-6.6,-6.3,-8723.4,-5866.2,-0.9,660.6,-9825.3,1886.4,0,1434,36218653949952,92,0, 
0.8000,426.0,-1624.5,81.6,-740.7,4205.4,-180.0,-330.0,6561.3,174653.7,458.7,-126.9,4358.7,285.6,9827.1,9830.1,6867.3,-6.9,-6.0,3895.5,8145.0,-1.2,566.7,2202.3,1952.7,0,1440,36218653949952,93,0, 
0.8033,460.8,-1628.7,100.5,-705.9,9819.6,-192.3,-305.4,9830.1,213852.6,501.9,3500.7,9255.0,347.7,9017.1,9830.1,9830.1,-6.9,-6.0,9830.1,9830.1,-0.9,615.3,7682.4,1957.5,0,1446,36218653949952,94,0, 
0.8067,503.7,-1689.0,115.5,-654.6,-4116.6,-440.1,-236.7,3631.5,162649.5,642.6,-2653.2,1613.4,-198.3,9827.1,9830.1,3888.9,-6.9,-6.0,-153.9,6488.7,-1.2,738.9,-6936.0,1883.7,0,1452,36218653949952,95,0, 
0.8100,483.6,-1710.3,92.7,-663.6,-9819.9,-564.0,-234.0,-9830.1,95514.9,662.7,-8979.9,-6449.4,-553.5,-1290.6,9830.1,-9830.1,-6.3,-5.7,-9830.1,-7753.2,-0.6,763.5,-9830.1,1839.6,0,1458,36218653949952,96,0, 
0.8133,432.3,-1670.7,67.5,-724.8,-8689.8,-405.0,-293.1,-8447.4,105814.8,546.3,-7097.7,-4188.0,-256.5,2250.0,9830.1,-8217.3,-7.2,-6.0,-8675.7,-3841.8,-0.9,655.5,-9772.8,1877.7,0,1464,36218653949952,97,0, 
0.8167,416.7,-1620.9,53.4,-759.6,4517.4,-167.7,-336.6,7035.6,178729.2,448.8,-72.3,4968.3,282.6,9827.1,9830.1,7296.6,-6.9,-5.7,3912.3,9023.7,-0.9,556.5,2325.9,1945.5,0,1470,36218653949952,98,0, 
0.8200,459.3,-1622.7,77.7,-722.1,9819.6,-180.9,-303.6,9830.1,217928.1,514.8,3645.6,9817.5,352.5,9017.7,9830.1,9830.1,-6.9,-5.7,9830.1,9830.1,-1.2,605.1,7929.6,1958.7,0,1476,36218653949952,99,0, 
0.8233,495.6,-1691.1,87.3,-671.7,-3730.2,-435.3,-240.3,4178.1,166873.2,643.5,-2550.6,2327.1,-190.8,9827.1,9830.1,4421.7,-6.6,-6.0,17.7,7767.3,-0.9,738.3,-6789.3,1889.1,0,1482,36218653949952,100,0, 
0.8267,478.5,-1716.9,71.4,-675.6,-9819.9,-561.0,-225.3,-9830.1,99886.8,657.6,-8961.6,-5908.2,-554.7,-735.6,9830.1,-9830.1,-6.9,-6.0,-9830.1,-5770.2,-0.9,763.2,-9830.1,1852.5,0,1488,36218653949952,101,0, 
0.8300,432.0,-1667.1,58.8,-723.0,-8549.1,-395.1,-276.9,-8249.4,110186.7,549.0,-7091.7,-3591.9,-255.6,2661.3,9830.1,-8012.4,-6.9,-5.7,-8579.1,-1760.4,-0.9,663.9,-9699.3,1890.9,0,1494,36218653949952,102,0, 
0.8333,414.6,-1620.3,59.7,-754.5,4742.7,-165.6,-324.6,7349.1,183249.3,468.0,-71.4,5414.1,291.3,9827.1,9830.1,7602.6,-6.9,-6.3,4219.2,9673.8,-0.9,555.3,2685.9,1963.5,0,1500,36218653949952,103,0, 
0.8367,459.9,-1627.5,89.4,-713.4,9819.6,-174.6,-295.2,9830.1,222448.2,528.6,3792.0,9817.5,379.5,9019.2,9830.1,9830.1,-6.9,-5.7,9830.1,9690.6,-0.3,611.1,8284.5,1970.4,0,1506,36218653949952,104,0, 
0.8400,499.8,-1686.6,100.8,-663.6,-3550.2,-430.5,-225.3,4488.9,170281.8,658.2,-2144.7,3249.9,-165.0,9827.1,9830.1,4772.7,-6.9,-6.0,642.9,8894.1,-0.6,746.4,-6643.2,1899.9,0,1512,36218653949952,105,0, 
0.8433,480.6,-1710.9,86.4,-675.9,-9819.9,-566.1,-222.3,-9830.1,103221.3,667.5,-8374.5,-4829.1,-530.7,-222.0,9830.1,-9830.1,-6.6,-5.7,-9830.1,-3510.3,-0.6,756.6,-9830.1,1851.9,0,1518,36218653949952,106,0, 
0.8467,429.9,-1671.3,64.2,-728.1,-8447.1,-410.4,-279.0,-8126.1,113150.7,553.8,-6634.5,-2611.2,-236.7,3069.6,9830.1,-7916.1,-6.9,-5.7,-8332.8,-3.0,-0.9,636.9,-9648.9,1890.9,0,1524,36218653949952,107,0, 
0.8500,416.1,-1621.5,64.2,-760.2,4866.3,-182.7,-324.9,7544.7,186213.3,465.6,309.0,6158.7,301.8,9827.1,9830.1,7751.4,-6.9,-6.0,4577.4,9830.1,-0.6,536.4,2838.3,1945.5,0,1530,36218653949952,108,0, 
0.8533,459.0,-1623.6,87.6,-715.8,9819.6,-184.5,-291.6,9830.1,225189.9,524.4,4216.8,9817.5,380.1,9027.9,9830.1,9830.1,-6.6,-6.0,9830.1,9600.9,-0.6,586.8,8454.3,1967.1,0,1536,36218653949952,109,0, 
0.8567,501.6,-1695.3,95.4,-670.5,-3385.8,-432.3,-231.3,4661.1,174135.0,639.0,-2127.9,3715.2,-174.6,9827.1,9830.1,4928.7,-7.2,-6.0,680.7,9112.5,-0.9,727.8,-6554.4,1895.4,0,1542,36218653949952,110,0, 
0.8600,482.1,-1719.9,75.0,-680.1,-9819.9,-554.4,-222.9,-9830.1,107000.4,646.8,-8661.9,-4937.4,-539.4,163.8,9830.1,-9830.1,-7.2,-6.0,-9830.1,-2833.8,-0.9,748.8,-9830.1,1847.1,0,1548,36218653949952,111,0, 
0.8633,435.6,-1679.4,59.1,-730.8,-8438.4,-398.1,-279.9,-8148.3,116855.7,524.7,-6657.3,-2472.0,-246.3,3300.0,9830.1,-7875.9,-6.6,-5.7,-8347.5,625.5,-0.9,648.9,-9660.9,1884.9,0,1554,36218653949952,112,0, 
0.8667,411.9,-1626.3,53.4,-761.1,4852.5,-172.8,-327.3,7534.5,189547.8,433.8,273.0,6204.3,294.0,9827.1,9830.1,7770.3,-7.2,-6.0,4548.3,9830.1,-0.9,557.4,2802.9,1950.6,0,1560,36218653949952,113,0, 
0.8700,445.8,-1635.9,69.9,-733.5,9819.6,-180.3,-302.7,9830.1,228672.6,483.3,4213.5,9817.5,368.4,9022.8,9830.1,9830.1,-6.9,-6.0,9830.1,9543.3,-0.6,602.4,8448.6,1962.9,0,1566,36218653949952,114,0, 
0.8733,489.9,-1707.6,77.4,-678.9,-3324.9,-449.1,-236.4,4619.4,177247.2,619.5,-2133.9,4047.3,-182.1,9827.1,9830.1,4866.0,-7.2,-6.0,851.1,9311.7,-0.9,741.0,-6515.7,1888.8,0,1572,36218653949952,115,0, 
0.8767,474.3,-1736.1,80.1,-681.9,-9819.9,-573.9,-230.1,-9830.1,109890.3,634.2,-8703.3,-4729.5,-538.8,-23.7,9830.1,-9830.1,-6.9,-5.7,-9830.1,-2255.7,-1.2,762.0,-9830.1,1842.6,0,1578,36218653949952,116,0, 
0.8800,426.9,-1686.9,57.0,-730.8,-8469.3,-416.7,-284.4,-8240.4,119375.1,537.6,-6762.3,-2201.4,-241.5,3204.0,9830.1,-7968.0,-6.9,-5.7,-8349.9,1246.8,-0.6,649.8,-9684.6,1875.9,0,1584,36218653949952,117,0, 
0.8833,408.9,-1626.9,54.6,-764.4,4787.1,-198.9,-333.6,7358.7,192067.2,453.0,156.6,6276.0,309.0,9827.1,9830.1,7668.6,-6.9,-5.7,4439.7,9830.1,-1.2,548.7,2736.0,1949.1,0,1590,36218653949952,118,0, 
0.8867,448.2,-1642.2,77.1,-728.4,9819.6,-198.9,-304.8,9830.1,230747.4,498.0,4087.2,9817.5,376.8,9031.8,9830.1,9830.1,-7.2,-6.0,9830.1,9504.9,-0.9,600.6,8309.4,1956.9,0,1596,36218653949952,119,0, 
0.8900,497.7,-1700.4,87.0,-672.3,-3460.2,-462.6,-232.8,4323.6,179470.2,637.5,-2273.4,4073.7,-160.8,9827.1,9830.1,4679.1,-6.9,-5.7,627.0,9472.2,-0.9,732.3,-6623.4,1888.8,0,1602,36218653949952,120,0, 
0.8933,487.2,-1716.0,73.5,-676.5,-9819.9,-594.6,-224.4,-9830.1,111668.7,661.8,-8808.6,-4687.5,-522.3,150.0,9830.1,-9830.1,-7.2,-6.0,-9830.1,-1844.7,-0.9,761.7,-9830.1,1853.1,0,1608,36218653949952,121,0, 
0.8967,429.9,-1681.8,48.9,-736.2,-8504.4,-440.1,-286.2,-8345.1,121227.6,549.3,-6930.9,-2142.9,-228.6,3220.8,9830.1,-8069.1,-6.9,-6.0,-8360.7,1436.4,-1.2,640.2,-9684.9,1887.9,0,1614,36218653949952,122,0, 
0.9000,416.4,-1631.4,47.4,-762.3,4753.5,-196.2,-328.2,7207.2,193919.7,462.6,59.7,6369.9,315.0,9827.1,9830.1,7512.0,-6.9,-6.0,4407.9,9830.1,-0.9,553.2,2680.8,1965.0,0,1620,36218653949952,123,0, 
0.9033,456.3,-1631.1,64.5,-735.3,9819.6,-203.4,-294.9,9830.1,232303.5,503.7,3967.5,9817.5,380.4,9027.0,9830.1,9830.1,-6.6,-6.0,9830.1,9477.3,-0.6,599.7,8273.1,1973.4,0,1626,36218653949952,124,0, 
0.9067,494.1,-1703.1,78.0,-684.3,-3560.4,-459.6,-234.3,4110.6,180507.6,634.5,-2415.0,4164.0,-180.9,9827.1,9830.1,4462.5,-7.2,-6.0,495.6,9589.8,-0.6,735.6,-6700.2,1891.5,0,1632,36218653949952,125,0, 
0.9100,483.3,-1720.2,63.3,-690.6,-9819.9,-592.8,-224.7,-9830.1,112928.4,662.7,-8998.5,-4654.5,-523.8,-72.6,9830.1,-9830.1,-7.2,-6.0,-9830.1,-1577.1,-0.6,747.6,-9830.1,1839.0,0,1638,36218653949952,126,0, 
0.9133,424.2,-1683.6,36.9,-749.1,-8598.6,-438.0,-282.6,-8509.5,122265.0,542.4,-7073.7,-2128.5,-239.4,2994.6,9830.1,-8245.8,-6.9,-6.0,-8428.5,1406.7,-0.6,633.6,-9735.0,1874.4,0,1644,36218653949952,127,0, 
0.9167,409.8,-1629.3,39.3,-772.2,4597.5,-200.7,-330.3,6933.3,194512.5,442.8,-151.8,6427.5,295.8,9827.1,9830.1,7270.8,-6.6,-6.0,4370.7,9830.1,-1.2,547.2,2495.1,1943.1,0,1650,36218653949952,128,0, 
0.9200,445.8,-1644.3,63.0,-738.6,9819.6,-213.0,-301.2,9830.1,232970.4,491.7,3856.8,9817.5,370.8,9003.9,9830.1,9830.1,-6.9,-6.0,9830.1,9469.8,-0.6,591.6,8088.9,1953.3,0,1656,36218653949952,129,0, 
0.9233,491.7,-1707.3,76.8,-682.5,-3614.4,-465.0,-237.0,3909.0,181619.1,630.6,-2441.1,4075.2,-174.3,9827.1,9830.1,4219.5,-6.6,-6.0,689.1,9564.0,-0.3,725.7,-6687.9,1876.8,0,1662,36218653949952,130,0, 
0.9267,476.1,-1717.2,71.1,-681.9,-9819.9,-596.4,-229.2,-9830.1,114188.1,637.8,-8987.1,-4728.3,-544.8,-3.0,9830.1,-9830.1,-6.9,-6.0,-9830.1,-1571.7,-0.6,735.3,-9830.1,1825.2,0,1668,36218653949952,131,0, 
0.9300,426.6,-1687.2,46.5,-735.0,-8537.7,-439.5,-288.0,-8446.2,124043.4,531.6,-6945.3,-2138.4,-224.4,3354.3,9830.1,-8178.0,-6.9,-5.7,-8308.2,1684.2,-0.6,632.1,-9681.0,1863.0,0,1674,36218653949952,132,0, 
0.9333,415.5,-1623.0,49.5,-759.9,4705.2,-203.1,-327.6,7079.1,196957.8,440.4,227.7,6424.8,323.4,9827.1,9830.1,7395.3,-7.2,-6.0,4695.9,9830.1,-0.6,534.6,2730.9,1933.2,0,1680,36218653949952,133,0, 
0.9367,451.8,-1635.6,65.4,-733.2,9819.6,-204.0,-303.9,9830.1,236156.7,496.2,4311.3,9817.5,408.0,9040.2,9830.1,9830.1,-7.2,-5.7,9830.1,9483.6,-0.9,583.8,8442.6,1938.0,0,1686,36218653949952,134,0, 
0.9400,490.8,-1704.9,78.0,-682.8,-3326.1,-465.0,-238.8,4299.3,185101.8,627.9,-1973.7,4129.8,-144.0,9827.1,9830.1,4620.6,-6.9,-5.7,1370.1,9542.7,-0.6,714.3,-6495.6,1869.0,0,1692,36218653949952,135,0, 
0.9433,480.3,-1729.2,67.5,-688.8,-9819.9,-589.2,-231.3,-9830.1,117967.2,645.0,-8466.6,-4646.4,-506.1,1009.2,9830.1,-9830.1,-6.9,-6.0,-9830.1,-1589.4,-0.3,738.6,-9830.1,1815.9,0,1698,36218653949952,136,0, 
0.9467,434.7,-1682.4,52.5,-731.4,-8406.9,-436.5,-286.5,-8271.0,127822.5,531.9,-6486.3,-2038.8,-216.9,3973.8,9830.1,-8010.6,-6.6,-6.0,-7918.2,1557.0,-0.6,621.0,-9616.2,1850.4,0,1704,36218653949952,137,0, 
0.9500,415.5,-1627.8,58.8,-753.6,4945.2,-203.1,-335.1,7374.0,201107.4,443.7,539.7,6541.5,337.8,9827.1,9830.1,7649.4,-6.6,-6.0,5294.4,9830.1,-0.9,528.9,3047.7,1921.8,0,1710,36218653949952,138,0, 
0.9533,453.6,-1642.5,74.4,-719.4,9819.6,-197.4,-303.9,9830.1,240306.3,502.5,4516.8,9817.5,410.4,9049.5,9830.1,9830.1,-7.2,-6.0,9830.1,9447.0,-0.9,585.3,8729.4,1933.2,0,1716,36218653949952,139,0, 
0.9567,496.2,-1699.2,89.1,-664.8,-3102.0,-455.7,-234.0,4667.4,189251.4,629.7,-1794.6,4284.9,-125.1,9827.1,9830.1,4962.9,-6.6,-6.0,1834.2,9629.7,-0.3,715.5,-6369.0,1856.1,0,1722,36218653949952,140,0, 
0.9600,471.3,-1732.8,66.3,-678.6,-9819.9,-595.2,-234.6,-9830.1,122116.8,649.2,-8403.0,-4579.8,-493.5,1601.7,9830.1,-9830.1,-6.6,-5.7,-9830.1,-1379.4,-1.2,727.5,-9830.1,1803.6,0,1728,36218653949952,141,0, 
0.9633,420.0,-1679.7,51.0,-727.8,-8293.2,-428.7,-291.3,-8162.7,132120.3,533.7,-6311.1,-1911.6,-198.6,4500.9,9830.1,-7841.7,-6.6,-6.0,-7758.9,1811.7,-0.6,623.4,-9570.6,1846.5,0,1734,36218653949952,142,0, 
0.9667,412.8,-1624.2,50.1,-751.2,5153.7,-182.4,-331.5,7599.9,205331.1,447.6,714.3,6633.6,347.1,9827.1,9830.1,7908.3,-6.6,-6.0,5562.3,9830.1,-0.6,533.7,3205.8,1921.8,0,1740,36218653949952,143,0, 
0.9700,461.1,-1617.6,81.0,-704.4,9819.6,-181.5,-295.2,9830.1,244455.9,508.2,4871.1,9817.5,441.9,9094.8,9830.1,9830.1,-6.9,-6.0,9830.1,9452.1,-0.9,601.5,9013.5,1939.2,0,1746,36218653949952,144,0, 
0.9733,501.0,-1694.4,91.8,-657.6,-2742.3,-450.6,-234.6,5070.6,193919.7,634.5,-1561.8,4520.4,-114.6,9827.1,9830.1,5369.7,-6.6,-6.0,2278.5,9642.6,-0.6,730.2,-6173.7,1860.6,0,1752,36218653949952,145,0, 
0.9767,480.0,-1718.7,75.9,-670.2,-9819.9,-581.1,-225.3,-9830.1,127303.8,656.4,-8072.7,-4198.8,-472.8,2705.4,9830.1,-9830.1,-6.6,-6.0,-9830.1,-1285.5,-0.6,742.2,-9830.1,1805.7,0,1758,36218653949952,146,0, 
0.9800,426.0,-1685.1,49.5,-734.4,-8025.6,-428.1,-288.0,-7865.4,137677.8,534.3,-6051.6,-1613.1,-195.3,5421.0,9830.1,-7517.7,-6.9,-6.0,-7375.2,1900.2,-0.3,617.4,-9432.3,1839.3,0,1764,36218653949952,147,0, 
0.9833,410.7,-1625.1,46.2,-763.8,5515.2,-197.4,-335.7,8021.1,211110.9,443.7,1038.9,6921.3,342.0,9827.1,9830.1,8320.2,-6.6,-5.7,6067.2,9830.1,-0.9,535.5,3631.5,1914.9,0,1770,36218653949952,148,0, 
0.9867,451.8,-1632.3,73.5,-720.0,9819.6,-198.9,-303.3,9830.1,250754.4,493.8,5152.8,9817.5,422.1,9168.0,9830.1,9830.1,-7.2,-5.7,9830.1,9430.2,-0.6,585.0,9416.4,1932.6,0,1776,36218653949952,149,0, 
0.9900,493.5,-1694.1,96.3,-662.1,-2270.1,-449.7,-233.1,5696.1,200514.6,629.7,-1269.3,4805.7,-120.0,9827.1,9830.1,6015.6,-6.9,-5.4,2925.6,9744.6,-1.2,724.8,-5874.0,1867.8,0,1782,36218653949952,150,0, 
0.9933,478.2,-1716.0,85.8,-667.5,-9819.9,-569.1,-222.9,-9830.1,133898.7,646.5,-7776.3,-4006.8,-478.8,3940.2,9830.1,-9830.1,-6.6,-6.0,-9830.1,-1105.5,-0.6,736.5,-9830.1,1821.9,0,1788,36218653949952,151,0, 
0.9967,433.8,-1675.8,59.7,-722.7,-7843.2,-407.1,-272.1,-7581.0,144346.8,542.4,-5934.6,-1605.9,-188.1,6252.0,9830.1,-7243.2,-6.6,-5.7,-7090.2,1823.4,-0.9,628.2,-9321.3,1862.1,0,1794,36218653949952,152,0, 
1.0000,411.6,-1628.7,56.1,-756.3,5754.0,-172.8,-321.9,8370.9,217705.8,443.7,1242.6,6975.0,357.3,9827.1,9830.1,8653.2,-6.9,-6.0,6393.0,9830.1,-0.9,536.4,3891.6,1931.1,0,1800,36218653949952,153,0, 
1.0033,450.9,-1635.3,78.6,-723.6,9819.6,-177.0,-298.8,9830.1,257127.0,492.6,5475.9,9817.5,435.3,9230.4,9830.1,9830.1,-6.9,-6.3,9830.1,9459.9,-0.9,588.9,9565.2,1938.0,0,1806,36218653949952,154,0, 
1.0067,493.8,-1706.4,99.0,-669.9,-2116.2,-436.2,-233.7,5990.7,206146.2,626.4,-917.7,4800.0,-112.2,9827.1,9830.1,6339.9,-7.8,-5.7,3051.6,9635.7,-0.9,723.9,-5752.2,1864.2,0,1812,36218653949952,155,0, 
1.0100,474.9,-1721.4,94.2,-665.7,-9819.9,-564.6,-225.6,-9830.1,139308.0,642.3,-7380.9,-4026.0,-486.0,4660.5,9830.1,-9830.1,-7.2,-5.7,-9830.1,-1308.3,-0.6,744.6,-9830.1,1820.4,0,1818,36218653949952,156,0, 
1.0133,432.6,-1660.8,82.5,-710.4,-7785.9,-396.6,-277.5,-7504.8,149682.0,530.1,-5633.4,-1641.0,-185.7,6632.7,9830.1,-7122.6,-6.9,-6.0,-7113.0,1611.0,-0.6,627.9,-9278.1,1858.2,0,1824,36218653949952,157,0, 
1.0167,410.1,-1635.9,76.2,-740.7,5800.8,-168.9,-324.0,8474.1,222818.7,438.0,1599.0,6983.4,371.4,9827.1,9830.1,8800.2,-6.9,-5.7,6345.9,9830.1,-0.6,531.3,3994.8,1928.7,0,1830,36218653949952,158,0, 
1.0200,462.3,-1629.0,103.8,-701.1,9819.6,-171.6,-287.7,9830.1,262388.1,503.7,5660.4,9817.5,455.4,9273.9,9830.1,9830.1,-6.9,-6.0,9830.1,9473.4,-0.6,598.8,9658.2,1943.7,0,1836,36218653949952,159,0, 
1.0233,496.2,-1699.8,107.7,-663.3,-1891.2,-443.4,-234.0,6189.3,211777.8,632.1,-710.7,4891.5,-93.3,9827.1,9830.1,6606.3,-6.6,-5.7,3193.8,9564.9,-0.9,719.4,-5574.6,1850.7,0,1842,36218653949952,160,0, 
1.0267,479.4,-1724.1,92.7,-673.8,-9819.9,-570.0,-226.5,-9830.1,145161.9,642.0,-7343.7,-4073.7,-459.0,5369.1,9830.1,-9830.1,-6.6,-6.0,-9830.1,-1566.0,-0.6,735.3,-9830.1,1806.0,0,1848,36218653949952,161,0, 
1.0300,436.2,-1677.6,66.6,-719.4,-7689.0,-407.7,-277.2,-7430.4,155239.5,534.9,-5459.7,-1720.2,-174.0,7157.1,9830.1,-6991.2,-6.6,-6.0,-7037.7,1281.3,-0.9,623.4,-9215.4,1848.0,0,1854,36218653949952,162,0, 
1.0333,424.5,-1612.5,77.4,-733.5,5946.3,-170.1,-318.6,8567.1,228376.2,458.7,1730.7,6997.2,388.8,9827.1,9830.1,8896.8,-6.6,-6.3,6562.8,9830.1,-0.9,552.0,4116.6,1928.4,0,1860,36218653949952,163,0, 
1.0367,466.5,-1626.0,96.6,-704.1,9819.6,-179.4,-291.3,9830.1,267575.1,507.9,5772.6,9817.5,468.3,9332.7,9830.1,9830.1,-6.6,-5.7,9830.1,9481.5,-0.9,601.8,9729.3,1932.0,0,1866,36218653949952,164,0, 
1.0400,504.0,-1696.2,108.3,-657.9,-1849.2,-447.9,-231.9,6172.2,216742.5,629.1,-663.9,4784.7,-85.5,9827.1,9830.1,6570.0,-6.9,-6.3,3289.8,9504.3,-0.9,727.8,-5511.9,1855.2,0,1872,36218653949952,165,0, 
1.0433,486.6,-1729.5,91.8,-671.7,-9819.9,-586.8,-226.2,-9830.1,149756.1,645.6,-7280.7,-4164.3,-456.9,5962.2,9830.1,-9830.1,-6.6,-5.7,-9830.1,-1937.4,-0.6,744.6,-9830.1,1806.6,0,1878,36218653949952,166,0, 
1.0467,434.7,-1685.1,65.1,-731.7,-7671.0,-431.7,-285.9,-7463.1,159537.3,537.3,-5377.5,-1685.4,-156.9,7573.2,9830.1,-7019.1,-6.9,-6.0,-7002.0,947.7,-1.2,629.4,-9192.3,1845.3,0,1884,36218653949952,167,0, 
1.0500,425.1,-1625.7,64.2,-756.0,5895.9,-198.3,-329.1,8548.5,232599.9,463.2,1815.0,6923.7,397.8,9827.1,9830.1,8898.0,-6.3,-6.0,6443.7,9830.1,-0.9,543.3,4125.3,1921.2,0,1890,36218653949952,168,0, 
1.0533,458.7,-1635.9,78.6,-722.7,9819.6,-201.3,-300.9,9830.1,271872.9,503.7,5822.7,9817.5,465.3,9376.2,9830.1,9830.1,-7.2,-6.0,9830.1,9537.9,-0.9,587.1,9688.2,1929.9,0,1896,36218653949952,169,0, 
1.0567,497.7,-1697.1,91.5,-668.7,-1894.2,-461.7,-238.2,6101.1,221040.3,634.2,-649.2,4775.4,-81.6,9827.1,9830.1,6537.0,-6.9,-6.0,3185.1,9315.0,-0.6,720.6,-5520.3,1862.4,0,1902,36218653949952,170,0, 
1.0600,489.3,-1713.6,89.1,-672.0,-9819.9,-593.1,-220.8,-9830.1,153905.7,654.0,-7251.9,-4225.8,-437.4,6276.3,9830.1,-9830.1,-6.9,-5.7,-9830.1,-2498.4,-0.9,743.4,-9830.1,1818.9,0,1908,36218653949952,171,0, 
1.0633,444.6,-1665.0,71.7,-720.3,-7712.4,-441.9,-277.5,-7547.1,163538.7,544.8,-5457.9,-1890.6,-149.1,7712.4,9830.1,-7088.4,-7.2,-6.3,-7176.0,487.5,-0.9,635.7,-9201.3,1857.3,0,1914,36218653949952,172,0, 
1.0667,429.3,-1604.4,74.7,-745.5,5867.4,-192.3,-318.0,8445.9,236379.0,458.7,1745.7,6870.9,397.8,9827.1,9830.1,8823.0,-6.9,-6.0,6300.0,9830.1,-0.3,549.9,4122.9,1941.9,0,1920,36218653949952,173,0, 
1.0700,467.4,-1612.8,86.1,-720.6,9819.6,-193.2,-287.7,9830.1,275577.9,515.7,5794.8,9817.5,477.0,9408.3,9830.1,9830.1,-6.9,-5.7,9830.1,9577.8,-0.6,597.0,9753.3,1944.3,0,1926,36218653949952,174,0, 
1.0733,505.8,-1685.7,88.2,-677.4,-1917.9,-455.4,-227.4,5991.0,224671.2,637.8,-686.7,4617.6,-75.3,9827.1,9830.1,6385.2,-6.9,-6.3,2940.6,9132.9,-0.9,725.1,-5412.6,1859.1,0,1932,36218653949952,175,0, 
1.0767,485.7,-1707.0,75.9,-682.8,-9819.9,-586.8,-216.6,-9830.1,157462.5,660.0,-7327.8,-4317.6,-433.8,6678.3,9830.1,-9830.1,-6.9,-5.7,-9830.1,-2899.8,-0.9,746.1,-9830.1,1820.7,0,1938,36218653949952,176,0, 
1.0800,435.6,-1666.2,54.3,-741.3,-7708.5,-424.2,-275.4,-7572.9,167317.8,546.6,-5569.5,-2066.7,-147.9,7995.9,9830.1,-7176.9,-6.9,-6.0,-7232.7,78.0,-0.9,641.4,-9174.3,1861.5,0,1944,36218653949952,177,0, 
1.0833,419.7,-1620.6,51.9,-772.8,5905.5,-193.5,-318.0,8429.7,240306.3,447.0,1718.7,6741.0,398.7,9827.1,9830.1,8760.6,-6.6,-6.0,6282.0,9830.1,-0.6,542.7,4182.3,1929.9,0,1950,36218653949952,178,0, 
1.0867,462.6,-1622.1,69.3,-739.8,9819.6,-196.5,-291.9,9830.1,279208.8,503.4,5802.9,9817.5,468.3,9449.1,9830.1,9830.1,-6.9,-5.7,9830.1,9603.9,-0.9,592.2,9750.3,1930.5,0,1956,36218653949952,179,0, 
1.0900,498.6,-1695.6,78.0,-695.7,-1922.7,-460.5,-232.2,5983.2,228153.9,624.6,-632.4,4471.2,-82.5,9827.1,9830.1,6369.9,-6.9,-5.7,2857.5,9048.9,-0.6,712.2,-5447.7,1848.9,0,1962,36218653949952,180,0, 
1.0933,478.2,-1716.0,65.1,-703.5,-9819.9,-591.6,-227.4,-9830.1,161019.3,643.8,-7419.0,-4560.3,-451.5,7034.4,9830.1,-9830.1,-6.9,-5.7,-9830.1,-3343.2,-0.6,729.9,-9830.1,1798.8,0,1968,36218653949952,181,0, 
1.0967,437.1,-1672.8,46.8,-750.9,-7782.9,-431.4,-286.2,-7677.6,170578.2,537.6,-5638.8,-2235.0,-149.4,8192.4,9830.1,-7305.0,-6.6,-6.0,-7443.6,-370.5,-1.2,620.7,-9173.1,1846.8,0,1974,36218653949952,182,0, 
1.1000,417.3,-1623.9,50.4,-780.3,5817.3,-209.4,-331.8,8289.9,243270.3,436.5,1558.5,6635.1,399.6,9827.1,9830.1,8650.5,-6.9,-6.3,6091.8,9830.1,-0.6,528.3,4182.6,1919.7,0,1980,36218653949952,183,0, 
1.1033,462.3,-1620.9,74.4,-738.6,9819.6,-212.4,-305.7,9830.1,282321.0,498.0,5548.5,9817.5,477.9,9482.7,9830.1,9830.1,-6.9,-6.3,9830.1,9658.5,-0.6,589.5,9739.8,1931.4,0,1986,36218653949952,184,0, 
1.1067,497.7,-1684.5,95.1,-683.4,-1983.6,-475.2,-239.7,5765.4,231488.4,631.2,-817.5,4406.4,-68.4,9827.1,9830.1,6232.5,-6.6,-5.7,2666.4,8828.4,-0.6,718.2,-5417.7,1857.6,0,1992,36218653949952,185,0, 
1.1100,483.6,-1713.9,80.4,-686.4,-9819.9,-603.6,-226.8,-9830.1,164427.9,646.5,-7485.0,-4615.8,-434.4,7400.7,9830.1,-9830.1,-6.6,-5.7,-9830.1,-3785.7,-0.6,746.7,-9830.1,1814.4,0,1998,36218653949952,186,0, 
1.1133,435.6,-1657.5,60.6,-730.5,-7808.4,-436.5,-279.6,-7731.3,173764.5,538.8,-5755.2,-2374.8,-140.1,8445.3,9830.1,-7372.2,-6.9,-5.7,-7499.1,-788.7,-0.6,638.7,-9161.7,1856.4,0,2004,36218653949952,187,0, 
1.1167,426.0,-1600.8,60.3,-758.4,5794.2,-193.2,-322.5,8199.3,246530.7,455.7,1428.3,6499.2,411.3,9827.1,9830.1,8550.0,-6.6,-5.7,5975.1,9830.1,-1.2,552.3,4191.9,1929.0,0,2010,36218653949952,188,0, 
1.1200,468.6,-1608.0,81.9,-726.0,9819.6,-199.8,-294.0,9830.1,285507.3,503.7,5403.9,9817.5,477.0,9510.0,9830.1,9830.1,-6.9,-6.0,9830.1,9702.6,-0.9,603.6,9751.2,1938.9,0,2016,36218653949952,189,0, 
1.1233,510.3,-1665.6,90.0,-678.0,-2072.1,-469.2,-230.7,5514.3,234304.2,643.5,-935.1,4187.7,-72.0,9827.1,9830.1,6066.0,-6.9,-6.0,2604.9,8638.5,-0.9,733.2,-5409.6,1863.0,0,2022,36218653949952,190,0, 
1.1267,485.1,-1712.1,75.3,-684.0,-9819.9,-599.1,-227.4,-9830.1,166873.2,650.4,-7679.1,-4908.9,-424.8,7569.0,9830.1,-9830.1,-6.3,-5.4,-9830.1,-4352.7,-0.6,753.0,-9830.1,1821.3,0,2028,36218653949952,191,0, 
1.1300,435.6,-1662.3,57.6,-735.0,-7891.8,-436.8,-284.1,-7905.9,176061.6,541.2,-5860.5,-2486.1,-155.4,8561.7,9830.1,-7476.0,-6.3,-6.0,-7596.6,-1247.4,-0.9,639.9,-9205.2,1850.4,0,2034,36218653949952,192,0, 
1.1333,421.2,-1608.6,60.9,-759.9,5645.4,-192.9,-325.8,7983.0,248901.9,447.6,1246.2,6341.7,400.2,9827.1,9830.1,8424.6,-7.5,-5.7,5778.3,9730.8,-0.6,552.3,4096.2,1924.8,0,2040,36218653949952,193,0, 
1.1367,457.8,-1623.6,72.6,-733.8,9819.6,-192.6,-301.2,9830.1,287730.3,498.0,5187.3,9817.5,469.2,9538.5,9830.1,9830.1,-6.9,-5.7,9830.1,9777.0,-0.9,603.9,9705.0,1932.0,0,2046,36218653949952,194,0, 
1.1400,497.1,-1693.2,86.4,-683.7,-2217.6,-454.2,-234.0,5303.7,236675.4,628.2,-1151.1,3887.4,-75.3,9827.1,9830.1,5886.0,-7.2,-6.6,2101.8,8403.9,-1.2,736.2,-5466.3,1858.8,0,2052,36218653949952,195,0, 
1.1433,489.3,-1709.7,76.2,-684.0,-9819.9,-583.5,-220.2,-9830.1,169022.1,654.9,-7779.9,-5007.3,-443.1,7814.7,9830.1,-9830.1,-7.2,-5.7,-9830.1,-4732.8,-0.6,759.3,-9830.1,1824.0,0,2058,36218653949952,196,0, 
1.1467,438.9,-1653.0,52.2,-732.3,-7947.3,-424.5,-278.1,-8031.6,178506.9,545.4,-5884.8,-2751.3,-153.0,8709.0,9830.1,-7576.2,-6.6,-6.0,-7763.7,-1571.4,-0.6,650.7,-9214.2,1859.4,0,2064,36218653949952,197,0, 
1.1500,417.3,-1606.5,48.3,-762.3,5579.4,-192.0,-323.4,7801.5,250532.1,448.2,1236.3,6120.9,391.5,9827.1,9830.1,8287.2,-6.6,-6.0,5524.8,9621.9,-0.6,559.8,4077.6,1933.8,0,2070,36218653949952,198,0, 
1.1533,456.6,-1617.6,64.2,-736.8,9819.6,-193.2,-302.1,9830.1,289360.5,498.3,5101.8,9817.5,465.6,9551.1,9830.1,9830.1,-6.6,-6.3,9830.1,9830.1,-0.9,608.4,9660.9,1933.2,0,2076,36218653949952,199,0, 
1.1567,495.3,-1687.5,75.9,-686.7,-2348.1,-453.6,-240.9,5048.1,238305.6,622.2,-1165.8,3745.5,-82.5,9827.1,9830.1,5628.6,-7.2,-6.0,1839.3,8166.6,-0.9,732.6,-5544.9,1853.1,0,2082,36218653949952,200,0, 
1.1600,478.8,-1711.2,66.3,-691.8,-9819.9,-586.2,-229.2,-9830.1,170355.9,642.9,-7863.3,-5261.7,-447.0,7881.9,9830.1,-9830.1,-6.6,-6.0,-9830.1,-5391.0,-0.9,757.5,-9830.1,1808.1,0,2088,36218653949952,201,0, 
1.1633,425.1,-1665.9,45.6,-740.4,-8061.9,-435.0,-286.5,-8177.7,179544.3,531.0,-6188.4,-3030.3,-161.7,8748.0,9830.1,-7785.6,-6.9,-6.3,-8074.8,-2255.7,-1.2,650.4,-9289.5,1845.6,0,2094,36218653949952,202,0, 
1.1667,417.0,-1607.4,50.4,-762.9,5464.5,-193.8,-326.4,7564.5,251717.7,438.9,1029.3,5851.2,386.1,9827.1,9830.1,8029.2,-6.9,-6.0,5119.2,9483.9,-0.6,559.8,3940.5,1924.8,0,2100,36218653949952,203,0, 
1.1700,462.9,-1611.6,78.0,-718.5,9819.6,-202.8,-288.9,9830.1,290397.9,491.7,4816.5,9817.5,465.9,9554.4,9830.1,9830.1,-6.6,-5.7,9830.1,9830.1,-0.9,618.9,9544.2,1946.1,0,2106,36218653949952,204,0, 
1.1733,506.1,-1675.2,80.7,-665.7,-2516.4,-459.6,-228.0,4650.9,239120.7,620.1,-1447.5,3297.9,-76.5,9827.1,9830.1,5303.7,-6.9,-5.4,1208.1,7835.7,-0.9,743.7,-5687.1,1865.7,0,2112,36218653949952,205,0, 
1.1767,485.7,-1702.5,71.4,-672.3,-9819.9,-597.9,-219.0,-9830.1,170948.7,638.7,-8191.2,-5615.4,-448.5,7907.1,9830.1,-9830.1,-7.2,-5.7,-9830.1,-6090.6,-1.2,759.9,-9830.1,1817.7,0,2118,36218653949952,206,0, 
1.1800,438.9,-1655.4,51.6,-725.7,-8170.5,-440.7,-271.2,-8405.1,179470.2,520.5,-6395.7,-3346.8,-153.3,8741.4,9830.1,-7925.1,-6.9,-5.7,-8337.0,-2886.3,-0.9,645.9,-9350.1,1866.3,0,2124,36218653949952,207,0, 
1.1833,420.9,-1604.4,49.2,-756.9,5193.3,-214.2,-315.6,7159.2,251569.5,434.7,651.3,5567.7,384.6,9827.1,9830.1,7791.6,-6.9,-5.7,4502.4,9222.0,-0.9,556.8,3690.9,1932.6,0,2130,36218653949952,208,0, 
1.1867,462.9,-1614.3,66.6,-723.3,9819.6,-212.7,-287.7,9830.1,289953.3,486.3,4486.8,9817.5,459.6,9525.9,9830.1,9830.1,-6.6,-6.0,9830.1,9830.1,-1.2,605.4,9335.1,1945.5,0,2136,36218653949952,209,0, 
1.1900,501.3,-1681.8,74.4,-673.5,-2881.8,-476.7,-231.0,4113.6,238379.7,609.6,-1769.1,2910.6,-92.4,9827.1,9830.1,4851.6,-7.2,-5.7,612.3,7414.2,-0.9,734.4,-5856.3,1864.8,0,2142,36218653949952,210,0, 
1.1933,492.6,-1701.9,64.8,-670.2,-9819.9,-606.6,-217.2,-9830.1,169985.4,640.2,-8389.8,-5905.8,-445.5,7604.1,9830.1,-9830.1,-6.9,-6.3,-9830.1,-6882.6,-0.9,767.4,-9830.1,1823.4,0,2148,36218653949952,211,0, 
1.1967,440.7,-1648.2,42.9,-722.4,-8370.3,-442.8,-274.5,-8655.0,178506.9,521.1,-6705.3,-3660.6,-186.0,8535.0,9830.1,-8220.9,-7.2,-6.6,-8690.7,-3745.8,-1.2,644.4,-9455.7,1852.5,0,2154,36218653949952,212,0, 
1.2000,417.0,-1602.3,44.4,-756.3,4967.1,-210.9,-325.2,6705.9,250161.6,422.4,364.5,5307.6,377.7,9827.1,9830.1,7360.8,-6.9,-6.0,3841.2,8905.8,-0.6,553.2,3405.0,1920.6,0,2160,36218653949952,213,0, 
1.2033,454.5,-1627.5,57.3,-726.3,9819.6,-214.5,-299.7,9830.1,288545.4,481.5,3914.1,9817.5,448.2,9481.5,9830.1,9830.1,-6.9,-6.0,9830.1,9830.1,-0.9,597.9,8938.2,1922.4,0,2166,36218653949952,214,0, 
1.2067,500.4,-1676.4,79.2,-670.8,-3262.5,-458.7,-232.5,3523.2,236601.3,610.8,-2198.7,2589.0,-99.3,9827.1,9830.1,4265.1,-6.9,-5.4,-227.4,6966.0,-0.9,736.5,-6123.3,1845.3,0,2172,36218653949952,215,0, 
1.2100,490.2,-1698.3,73.5,-662.4,-9819.9,-581.4,-215.7,-9830.1,167984.7,639.0,-8824.8,-6248.4,-464.7,7200.0,9830.1,-9830.1,-6.6,-5.7,-9830.1,-7670.7,-0.9,756.3,-9830.1,1804.8,0,2178,36218653949952,216,0, 
1.2133,434.7,-1661.7,44.1,-720.0,-8598.9,-426.6,-271.8,-8929.2,175987.5,522.9,-7022.4,-4071.0,-179.1,8285.4,9830.1,-8473.8,-6.6,-6.0,-8888.1,-4505.7,-0.9,647.7,-9555.6,1839.0,0,2184,36218653949952,217,0, 
1.2167,415.2,-1614.3,29.1,-756.3,4575.6,-201.6,-320.7,6095.7,247494.0,424.5,54.0,4950.3,354.3,9827.1,9830.1,6894.6,-6.9,-6.0,3303.6,8588.7,-0.9,550.5,3103.5,1897.5,0,2190,36218653949952,218,0, 
1.2200,460.5,-1609.8,51.9,-717.6,9819.6,-200.1,-291.6,9830.1,285359.1,480.3,3514.5,9790.2,422.1,9436.5,9830.1,9830.1,-6.9,-6.0,9830.1,9830.1,-0.6,610.5,8545.2,1912.2,0,2196,36218653949952,219,0, 
1.2233,497.1,-1684.8,58.5,-667.2,-3734.1,-454.2,-226.8,2760.3,233711.4,611.4,-2633.4,2166.9,-119.4,9827.1,9830.1,3642.0,-6.9,-6.0,-997.5,6444.9,-0.9,740.7,-6313.2,1833.9,0,2202,36218653949952,220,0, 
1.2267,480.3,-1707.9,55.8,-675.9,-9819.9,-586.8,-210.6,-9830.1,164872.5,633.9,-9241.2,-6541.8,-479.1,6752.4,9830.1,-9830.1,-6.6,-5.7,-9830.1,-8568.0,-1.2,764.1,-9830.1,1789.8,0,2208,36218653949952,221,0, 
1.2300,436.8,-1661.1,28.5,-723.3,-8805.3,-418.2,-268.8,-9176.4,172653.0,524.7,-7429.5,-4349.4,-189.3,7962.6,9830.1,-8768.7,-6.9,-6.0,-9194.7,-5283.3,-0.6,656.1,-9653.4,1827.0,0,2214,36218653949952,222,0, 
1.2333,427.2,-1600.2,38.4,-749.7,4169.7,-177.0,-307.5,5464.5,243492.6,437.4,-429.9,4703.1,345.0,9827.1,9830.1,6306.9,-7.2,-5.7,2499.3,8241.3,-1.2,561.0,2714.4,1896.0,0,2220,36218653949952,223,0, 
1.2367,467.4,-1610.1,60.0,-722.1,9819.6,-194.1,-279.0,9830.1,281802.3,487.8,3070.2,9342.6,419.7,9374.7,9830.1,9830.1,-6.9,-6.0,9830.1,9830.1,-0.6,610.8,8181.9,1896.0,0,2226,36218653949952,224,0, 
1.2400,506.4,-1678.2,69.6,-675.0,-4196.1,-457.2,-219.3,2003.1,229561.8,608.7,-2930.7,1757.4,-132.3,9827.1,9830.1,2921.1,-6.9,-6.0,-1793.4,5838.3,-0.6,735.6,-6519.0,1819.2,0,2232,36218653949952,225,0, 
1.2433,491.4,-1707.3,48.3,-681.9,-9819.9,-592.2,-211.2,-9830.1,160574.7,623.1,-9499.2,-6796.5,-496.2,6134.1,9830.1,-9830.1,-6.9,-5.7,-9830.1,-9042.3,-0.9,755.7,-9830.1,1770.9,0,2238,36218653949952,226,0, 
1.2467,442.8,-1657.5,31.2,-736.2,-9024.6,-429.9,-267.9,-9394.8,168132.9,519.3,-7747.2,-4672.8,-207.9,7554.0,9830.1,-9018.0,-6.6,-5.4,-9384.3,-6028.2,-0.9,643.2,-9741.9,1809.0,0,2244,36218653949952,227,0, 
1.2500,423.9,-1601.1,29.4,-768.3,3718.2,-196.5,-318.0,4880.7,239194.8,417.3,-715.8,4246.2,333.3,9827.1,9830.1,5751.6,-7.2,-6.0,1904.7,7838.4,-0.6,548.7,2307.6,1877.7,0,2250,36218653949952,228,0, 
1.2533,461.1,-1608.9,53.7,-726.3,9753.6,-185.7,-289.5,9830.1,277134.0,473.4,2864.4,8936.1,402.6,9320.4,9830.1,9830.1,-7.2,-5.7,9830.1,9830.1,-0.9,600.6,7811.1,1891.8,0,2256,36218653949952,229,0, 
1.2567,503.7,-1668.3,67.2,-666.9,-4608.6,-440.7,-225.9,1378.5,225189.9,598.2,-3302.4,1327.8,-148.2,9827.1,9830.1,2305.8,-7.2,-5.7,-2367.3,5358.9,-0.6,733.5,-6775.5,1819.2,0,2262,36218653949952,230,0, 
1.2600,495.0,-1683.0,58.5,-658.5,-9819.9,-575.1,-208.2,-9830.1,155832.3,641.1,-9725.1,-7221.9,-500.7,5547.0,9830.1,-9830.1,-6.6,-5.7,-9830.1,-9332.4,-0.9,764.4,-9830.1,1780.5,0,2268,36218653949952,231,0, 
1.2633,450.9,-1647.9,37.8,-714.6,-9199.5,-417.3,-257.7,-9579.3,163242.3,518.7,-8220.0,-5075.7,-214.2,7117.5,9830.1,-9250.8,-6.9,-6.0,-9606.3,-6613.2,-0.3,654.0,-9828.6,1816.5,0,2274,36218653949952,232,0, 
1.2667,427.2,-1602.0,29.7,-749.7,3306.0,-175.5,-308.7,4334.1,234081.9,438.0,-1244.4,3936.3,319.5,9827.1,9830.1,5176.8,-6.9,-6.0,1126.2,7419.9,-0.9,555.9,1981.2,1883.4,0,2280,36218653949952,233,0, 
1.2700,466.2,-1612.2,51.9,-718.5,9308.1,-184.5,-282.6,9830.1,271798.8,484.2,2375.4,8612.7,386.4,9259.8,9830.1,9830.1,-6.6,-6.0,9830.1,9830.1,-0.9,603.6,7446.3,1893.3,0,2286,36218653949952,234,0, 
1.2733,508.2,-1672.8,60.6,-669.0,-4923.6,-433.2,-214.5,796.8,219558.3,609.3,-3686.1,1064.4,-150.6,9827.1,9830.1,1688.4,-7.2,-6.0,-2997.3,4802.1,-0.9,738.0,-6920.7,1821.9,0,2292,36218653949952,235,0, 
1.2767,492.9,-1704.0,43.8,-674.1,-9819.9,-573.9,-204.3,-9830.1,150200.7,632.7,-9817.5,-7456.2,-513.3,4779.9,9830.1,-9830.1,-6.6,-5.7,-9830.1,-9615.0,-0.6,760.8,-9830.1,1769.7,0,2298,36218653949952,236,0, 
1.2800,445.2,-1646.1,21.3,-727.2,-9296.4,-407.1,-264.3,-9710.7,157684.8,515.7,-8444.1,-5386.2,-245.7,6518.4,9830.1,-9408.6,-6.6,-5.7,-9715.5,-7005.3,-0.6,643.5,-9830.1,1805.1,0,2304,36218653949952,237,0, 
1.2833,421.8,-1606.5,24.6,-760.2,2870.4,-174.0,-317.4,3809.4,228228.0,427.5,-1569.9,3600.9,301.8,9827.1,9830.1,4713.6,-6.6,-6.0,438.6,6953.7,-0.3,547.5,1644.9,1870.8,0,2310,36218653949952,238,0, 
1.2867,458.4,-1628.7,39.3,-727.8,8812.2,-180.9,-296.4,9830.1,265796.7,475.8,1941.9,8115.6,366.6,9188.7,9830.1,9830.1,-7.2,-6.0,9033.0,9830.1,-0.9,604.5,6992.7,1874.7,0,2316,36218653949952,239,0, 
1.2900,501.3,-1685.1,48.6,-680.7,-5301.0,-445.5,-232.8,142.5,213482.1,607.8,-4135.5,701.7,-171.3,9827.1,9830.1,1038.0,-7.2,-5.7,-3746.7,4038.6,-0.9,732.0,-7143.6,1801.2,0,2322,36218653949952,240,0, 
1.2933,486.6,-1715.1,39.9,-687.9,-9819.9,-572.1,-221.4,-9830.1,144050.4,626.7,-9830.1,-7891.8,-536.7,3883.8,9830.1,-9830.1,-6.6,-5.4,-9830.1,-9830.1,-0.9,759.6,-9830.1,1755.0,0,2328,36218653949952,241,0, 
1.2967,443.7,-1668.0,21.3,-736.2,-9448.8,-406.2,-272.4,-9830.1,151312.2,524.7,-8576.1,-5712.6,-247.2,5839.5,9830.1,-9585.9,-6.3,-6.0,-9830.1,-7528.5,-0.9,648.0,-9830.1,1801.8,0,2334,36218656047104,242,0, 
1.3000,425.4,-1608.9,24.6,-765.0,2460.0,-177.0,-322.2,3331.2,222003.6,429.0,-1727.1,3389.1,290.4,9827.1,9830.1,4146.9,-6.6,-6.3,-166.2,6466.5,-0.6,557.1,1312.5,1864.2,0,2340,36218656047104,243,0, 
1.3033,461.7,-1623.3,30.3,-741.6,8522.7,-187.5,-294.3,9830.1,259646.4,482.4,1833.3,8065.5,361.5,9147.3,9830.1,9830.1,-6.9,-5.4,8588.1,9830.1,-0.9,609.6,6781.2,1878.9,0,2346,36218656047104,244,0, 
1.3067,510.6,-1677.9,46.8,-683.4,-5513.1,-437.7,-223.2,-188.4,207554.1,616.2,-4134.3,641.7,-156.9,9827.1,9830.1,579.3,-7.2,-5.4,-4077.3,3721.8,-0.9,745.8,-7267.2,1808.1,0,2352,36218656047104,245,0, 
1.3100,489.9,-1705.2,27.6,-696.9,-9819.9,-562.2,-213.3,-9830.1,138344.7,638.7,-9830.1,-7855.2,-536.7,3506.1,9830.1,-9830.1,-6.6,-5.7,-9830.1,-9830.1,-0.6,762.6,-9830.1,1757.1,0,2358,36218656047104,246,0, 
1.3133,445.8,-1653.9,19.8,-739.2,-9490.5,-394.5,-265.8,-9830.1,145977.0,531.6,-8667.9,-5632.8,-238.5,5586.6,9830.1,-9678.6,-6.6,-6.3,-9830.1,-7805.1,-0.9,657.9,-9830.1,1801.8,0,2364,36218656047104,247,0, 
1.3167,425.1,-1600.8,14.4,-767.4,2302.8,-166.5,-310.8,3086.1,216742.5,436.8,-1872.6,3354.6,299.4,9827.1,9830.1,3919.8,-6.9,-5.7,-196.8,6068.1,-0.6,559.5,1164.0,1870.8,0,2370,36218656047104,248,0, 
1.3200,466.5,-1598.1,42.6,-717.6,8341.8,-170.7,-285.3,9830.1,254681.7,489.3,1691.7,7967.1,364.5,9118.5,9830.1,9830.1,-6.9,-5.7,8517.9,9830.1,-0.9,621.3,6623.7,1881.3,0,2376,36218656047104,249,0, 
1.3233,501.6,-1676.4,50.4,-673.8,-5613.6,-433.2,-224.7,-370.8,202589.4,617.4,-4269.0,680.1,-159.6,9827.1,9830.1,459.3,-6.9,-5.7,-4018.5,3193.5,-0.9,746.1,-7326.3,1801.5,0,2382,36218656047104,250,0, 
1.3267,488.7,-1696.8,43.8,-680.1,-9819.9,-562.8,-214.2,-9830.1,133380.0,627.0,-9830.1,-7938.9,-531.3,3090.9,9830.1,-9830.1,-6.9,-5.7,-9830.1,-9830.1,-0.9,768.9,-9830.1,1754.4,0,2388,36218656047104,251,0, 
1.3300,437.1,-1660.2,18.3,-734.1,-9524.4,-405.3,-270.9,-9830.1,140938.2,529.2,-8657.1,-5924.4,-244.8,5328.3,9830.1,-9706.2,-6.6,-6.0,-9830.1,-8078.1,-0.9,651.9,-9830.1,1784.7,0,2394,36218656047104,252,0, 
1.3333,419.7,-1596.6,11.1,-770.1,2172.9,-177.0,-324.3,3001.8,211703.7,420.3,-1879.8,3051.6,279.0,9827.1,9830.1,3896.7,-7.2,-5.4,-410.1,5727.0,-0.9,549.3,1065.6,1847.7,0,2400,36218656047104,253,0, 
1.3367,451.8,-1617.0,26.1,-741.3,8272.5,-177.0,-294.9,9830.1,250013.4,468.9,1736.1,7620.9,360.3,9111.6,9830.1,9830.1,-6.6,-6.3,8410.5,9830.1,-1.2,591.6,6508.5,1857.6,0,2406,36218656047104,254,0, 
1.3400,495.3,-1684.2,39.3,-694.5,-5619.3,-433.8,-233.7,-367.8,198513.9,606.0,-4275.0,237.0,-172.8,9827.1,9830.1,490.5,-7.2,-6.0,-4182.9,2766.9,-0.9,730.8,-7400.4,1777.2,0,2412,36218656047104,255,0, 
1.3433,483.3,-1701.0,35.4,-688.2,-9819.9,-564.0,-219.6,-9830.1,129526.8,627.0,-9830.1,-8324.1,-537.9,2904.0,9830.1,-9830.1,-6.6,-6.0,-9830.1,-9830.1,-0.9,752.1,-9813.3,1738.2,0,2418,36218656047104,0,0, 
1.3467,438.9,-1653.6,17.7,-733.5,-9522.3,-402.0,-274.8,-9830.1,137010.9,523.8,-8562.0,-6036.9,-250.2,5113.2,9830.1,-9675.3,-6.9,-6.0,-9830.1,-8198.4,-0.6,650.7,-9830.1,1785.0,0,2424,36218656047104,1,0, 
1.3500,422.4,-1603.5,15.9,-754.8,2204.7,-170.1,-319.8,3140.4,208072.8,424.8,-1760.1,2997.9,283.8,9827.1,9830.1,4044.9,-6.9,-6.3,-257.4,5453.4,-0.3,564.6,1071.6,1853.7,0,2430,36218656047104,2,0, 
1.3533,457.2,-1608.6,30.3,-727.5,8307.9,-184.5,-295.5,9830.1,246382.5,473.7,1746.0,7532.1,345.0,9100.2,9830.1,9830.1,-6.9,-6.0,8571.3,9830.1,-0.9,606.3,6580.8,1860.6,0,2436,36218656047104,3,0, 
1.3567,501.3,-1673.7,45.3,-674.4,-5529.0,-430.5,-226.5,-154.5,195105.3,594.3,-4124.1,251.7,-182.1,9827.1,9830.1,729.0,-6.6,-6.0,-3893.1,2679.3,-0.9,734.7,-7309.8,1794.0,0,2442,36218656047104,4,0, 
1.3600,491.1,-1693.8,37.5,-673.2,-9819.9,-559.5,-215.1,-9830.1,126711.0,623.4,-9830.1,-8289.3,-547.8,2948.1,9830.1,-9830.1,-6.6,-6.0,-9830.1,-9830.1,-0.9,757.5,-9830.1,1740.0,0,2448,36218656047104,5,0, 
1.3633,444.6,-1644.9,21.6,-721.5,-9477.0,-397.2,-269.4,-9830.1,134639.7,514.8,-8533.8,-6039.9,-253.5,5198.4,9830.1,-9606.3,-7.2,-5.1,-9808.8,-8234.4,-0.9,647.1,-9830.1,1784.1,0,2454,36218656047104,6,0, 
1.3667,432.3,-1589.7,24.0,-750.3,2430.0,-161.1,-309.6,3528.0,205923.9,423.6,-1651.8,3135.6,285.0,9827.1,9830.1,4342.8,-7.2,-6.3,277.2,5499.9,-0.6,552.6,1220.4,1859.4,0,2460,36218656047104,7,0, 
1.3700,475.5,-1601.7,49.2,-708.9,8638.8,-160.2,-279.6,9830.1,244900.5,478.2,2076.0,7730.1,369.6,9105.6,9830.1,9830.1,-6.9,-6.0,9230.7,9830.1,-0.3,613.5,6822.9,1878.0,0,2466,36218656047104,8,0, 
1.3733,521.1,-1659.3,64.8,-650.1,-5362.2,-411.0,-211.8,391.2,193771.5,614.4,-3890.4,423.9,-163.8,9827.1,9830.1,1184.1,-7.2,-5.7,-3393.6,2818.5,-0.9,737.4,-7223.4,1808.1,0,2472,36218656047104,9,0, 
1.3767,496.2,-1689.6,45.3,-668.4,-9819.9,-552.0,-214.8,-9830.1,125451.3,625.2,-9830.1,-8163.6,-534.6,3048.6,9830.1,-9830.1,-6.9,-5.7,-9830.1,-9830.1,-0.6,764.7,-9830.1,1747.5,0,2478,36218656047104,10,0, 
1.3800,453.0,-1635.3,31.8,-715.2,-9413.4,-386.1,-264.6,-9784.5,133454.1,527.7,-8445.6,-5866.8,-242.4,5376.9,9830.1,-9506.7,-6.6,-6.0,-9709.5,-8111.1,-0.3,656.4,-9830.1,1792.5,0,2484,36218656047104,11,0, 
1.3833,431.4,-1590.3,32.4,-749.4,2631.0,-153.0,-312.0,3893.1,204812.4,429.3,-1572.6,3160.8,297.0,9827.1,9830.1,4608.3,-6.3,-5.7,666.9,5603.7,-0.6,562.5,1306.8,1857.9,0,2490,36218656047104,12,0, 
1.3867,463.5,-1599.0,55.2,-717.3,8803.2,-157.2,-286.5,9830.1,243492.6,478.2,2119.5,8009.1,365.7,9131.1,9830.1,9830.1,-6.9,-5.7,9675.9,9830.1,-0.6,609.3,6873.3,1870.2,0,2496,36218656047104,13,0, 
1.3900,506.4,-1661.7,69.6,-665.7,-5197.2,-418.5,-225.0,771.0,192734.1,609.6,-3886.8,643.2,-165.0,9827.1,9830.1,1449.6,-6.9,-6.0,-3045.9,2972.1,-0.6,741.0,-7188.3,1798.5,0,2502,36218656047104,14,0, 
1.3933,498.3,-1683.6,69.9,-663.9,-9819.9,-548.7,-208.5,-9830.1,124488.0,636.6,-9830.1,-7762.5,-527.7,3407.4,9830.1,-9830.1,-7.2,-6.0,-9830.1,-9830.1,-0.9,769.5,-9830.1,1751.4,0,2508,36218656047104,15,0, 
1.3967,443.1,-1648.2,40.2,-724.2,-9366.6,-390.0,-269.1,-9690.9,132490.8,525.9,-8281.8,-5644.5,-254.7,5580.0,9830.1,-9407.7,-6.6,-5.7,-9651.0,-8051.7,-0.9,655.5,-9830.1,1779.6,0,2514,36218656047104,16,0, 
1.4000,425.1,-1592.1,35.4,-754.8,2838.3,-154.2,-313.5,4190.7,204071.4,430.5,-1353.6,3349.2,284.7,9827.1,9830.1,4927.8,-6.6,-6.0,1162.8,5697.9,-0.6,557.4,1462.5,1846.5,0,2520,36218656047104,17,0, 
1.4033,463.5,-1600.2,54.0,-720.0,8983.8,-151.8,-283.2,9830.1,242899.8,478.8,2235.6,8109.0,349.8,9134.7,9830.1,9830.1,-7.2,-6.3,9830.1,9830.1,-0.9,611.7,6998.1,1863.3,0,2526,36218656047104,18,0, 
1.4067,506.7,-1657.8,66.3,-674.4,-5038.2,-413.4,-221.1,1143.9,192141.3,614.1,-3523.2,710.1,-187.8,9827.1,9830.1,1884.9,-6.9,-6.3,-2562.9,3166.8,-0.9,738.3,-7119.3,1791.9,0,2532,36218656047104,19,0, 
1.4100,495.0,-1691.7,56.7,-678.6,-9819.9,-533.7,-207.0,-9830.1,123969.3,636.0,-9775.5,-7735.8,-538.5,3390.3,9830.1,-9830.1,-6.9,-5.7,-9830.1,-9830.1,-0.3,763.5,-9830.1,1747.5,0,2538,36218656047104,20,0, 
1.4133,452.4,-1644.0,37.5,-726.3,-9328.2,-378.6,-262.2,-9582.0,131972.1,528.3,-8123.7,-5556.6,-255.6,5551.2,9830.1,-9305.1,-6.9,-5.7,-9525.0,-7952.4,-0.9,657.3,-9830.1,1789.2,0,2544,36218656047104,21,0, 
1.4167,433.8,-1592.1,29.7,-754.5,2864.1,-155.4,-308.4,4539.3,203182.2,437.1,-1191.6,3362.4,278.1,9827.1,9830.1,5145.9,-6.6,-5.7,1497.3,5804.1,-0.9,556.2,1448.7,1859.7,0,2550,36218656047104,22,0, 
1.4200,472.8,-1592.7,51.0,-720.6,9041.1,-154.2,-292.2,9830.1,241936.5,473.4,2403.6,8243.4,349.2,9130.2,9830.1,9830.1,-7.2,-6.3,9830.1,9830.1,-0.9,600.0,7058.4,1860.6,0,2556,36218656047104,23,0, 
1.4233,514.5,-1667.7,57.9,-669.6,-5013.0,-411.9,-228.6,1433.4,191326.2,609.9,-3490.2,762.6,-183.6,9827.1,9830.1,2034.6,-6.9,-6.0,-2358.9,3144.0,-0.6,732.6,-7087.8,1783.2,0,2562,36218656047104,24,0, 
1.4267,494.4,-1699.2,45.3,-682.8,-9819.9,-555.3,-215.4,-9830.1,122857.8,623.7,-9749.1,-7698.0,-547.2,3188.1,9830.1,-9830.1,-6.9,-5.7,-9830.1,-9830.1,-0.6,751.5,-9830.1,1743.0,0,2568,36218656047104,25,0, 
1.4300,444.6,-1663.5,20.7,-734.7,-9339.0,-393.0,-265.5,-9562.8,130786.5,517.5,-8155.5,-5517.0,-266.7,5385.9,9830.1,-9286.2,-6.3,-6.0,-9516.6,-8109.0,-0.6,646.2,-9830.1,1779.0,0,2574,36218656047104,26,0, 
1.4333,429.3,-1606.2,17.1,-763.2,2875.2,-154.5,-309.3,4523.7,201774.3,423.0,-1145.7,3372.3,270.0,9827.1,9830.1,5196.0,-6.9,-6.0,1590.3,5608.5,-0.3,550.2,1434.6,1848.3,0,2580,36218656047104,27,0, 
1.4367,465.3,-1607.7,36.9,-735.9,9037.8,-167.1,-282.6,9830.1,240528.6,469.2,2406.0,8076.3,339.9,9120.0,9830.1,9830.1,-6.6,-6.0,9830.1,9830.1,-0.6,599.7,6981.0,1856.7,0,2586,36218656047104,28,0, 
1.4400,514.5,-1670.7,69.3,-674.1,-5013.3,-413.7,-209.1,1410.6,189696.0,612.9,-3580.5,649.8,-171.6,9827.1,9830.1,2061.9,-6.9,-5.7,-2289.9,2736.6,-0.6,742.2,-7128.0,1799.1,0,2592,36218656047104,29,0, 
1.4433,497.4,-1686.9,57.0,-673.2,-9819.9,-540.3,-201.3,-9830.1,121227.6,631.2,-9763.8,-7830.9,-539.1,2880.9,9830.1,-9830.1,-6.3,-6.3,-9830.1,-9830.1,-0.9,760.5,-9830.1,1749.0,0,2598,36218656047104,30,0, 
1.4467,454.2,-1645.5,36.3,-720.6,-9360.3,-388.5,-252.6,-9552.9,128637.6,522.9,-8232.6,-5656.8,-257.7,4962.6,9830.1,-9299.4,-6.9,-6.0,-9541.2,-8328.3,-0.6,651.6,-9830.1,1789.2,0,2604,36218656047104,31,0, 
1.4500,436.8,-1586.4,34.2,-750.6,2729.7,-156.3,-299.7,4511.7,199551.3,435.0,-1156.5,3279.9,275.4,9827.1,9830.1,5096.1,-6.3,-6.0,1504.8,5122.8,-0.6,566.4,1228.8,1857.6,0,2610,36218656047104,32,0, 
1.4533,474.6,-1604.7,50.7,-720.0,8849.7,-168.3,-281.7,9830.1,238009.2,487.8,2475.3,7891.8,354.3,9074.7,9830.1,9830.1,-6.9,-6.0,9830.1,9830.1,-0.9,617.7,6750.3,1863.9,0,2616,36218656047104,33,0, 
1.4567,521.7,-1657.2,68.1,-665.1,-5184.6,-413.1,-213.3,1296.0,187028.4,613.8,-3366.0,471.9,-187.8,9827.1,9830.1,1918.8,-6.9,-6.3,-2356.8,2300.1,-0.6,753.9,-7235.7,1801.5,0,2622,36218656047104,34,0, 
1.4600,506.4,-1685.1,59.1,-667.8,-9819.9,-548.4,-202.5,-9830.1,118485.9,646.8,-9739.8,-8078.4,-545.4,2073.3,9830.1,-9830.1,-6.9,-6.0,-9830.1,-9830.1,-0.6,777.0,-9830.1,1753.8,0,2628,36218656047104,35,0, 
1.4633,457.5,-1639.5,44.7,-713.4,-9421.2,-392.1,-258.3,-9599.1,125525.4,537.9,-8056.8,-5926.2,-254.7,4408.5,9830.1,-9380.4,-7.2,-6.0,-9554.7,-8495.4,-0.9,671.4,-9830.1,1787.1,0,2634,36218656047104,36,0, 
1.4667,441.0,-1586.1,51.9,-747.9,2512.8,-155.7,-304.8,4353.0,196439.1,448.2,-1128.6,2904.3,282.0,9827.1,9830.1,4875.9,-6.9,-6.0,1307.7,4766.1,-0.9,575.4,1085.1,1864.2,0,2640,36218656047104,37,0, 
1.4700,480.9,-1596.6,63.6,-718.5,8700.3,-162.3,-280.8,9830.1,234897.0,495.3,2336.7,7480.5,351.9,9049.8,9830.1,9830.1,-7.5,-6.0,9830.1,9830.1,-0.9,623.4,6631.8,1858.5,0,2646,36218656047104,38,0, 
1.4733,525.9,-1653.9,76.5,-657.6,-5270.1,-408.6,-207.6,1018.8,183768.0,627.0,-3445.2,240.6,-173.7,9827.1,9830.1,1633.2,-6.9,-5.7,-2696.1,1907.7,-0.9,763.5,-7317.9,1792.8,0,2652,36218656047104,39,0, 
1.4767,511.8,-1677.3,65.7,-662.4,-9819.9,-554.4,-200.7,-9830.1,115003.2,646.2,-9765.6,-8270.1,-540.6,1459.2,9830.1,-9830.1,-6.6,-5.7,-9830.1,-9830.1,-0.6,790.8,-9824.4,1743.9,0,2658,36218656047104,40,0, 
1.4800,464.1,-1635.0,45.0,-715.8,-9469.2,-402.9,-251.4,-9707.1,121968.6,546.6,-8132.4,-6067.2,-255.9,3843.3,9830.1,-9474.0,-6.9,-5.7,-9600.6,-8598.6,-0.9,676.8,-9830.1,1788.0,0,2664,36218656047104,41,0, 
1.4833,448.2,-1582.2,47.7,-740.1,2304.9,-170.7,-297.6,3926.7,192882.3,448.8,-1265.1,2738.7,272.1,9827.1,9830.1,4583.1,-7.2,-6.0,968.7,4531.5,-0.6,584.4,886.5,1856.1,0,2670,36218656047104,42,0, 
1.4867,481.2,-1585.8,65.1,-707.1,8553.3,-168.6,-270.0,9830.1,231414.3,494.7,2350.2,7509.9,349.2,9021.3,9830.1,9830.1,-6.6,-6.0,9830.1,9830.1,-0.9,628.5,6457.8,1860.9,0,2676,36218656047104,43,0, 
1.4900,524.7,-1652.7,76.8,-654.3,-5422.2,-425.4,-201.9,765.9,180063.0,621.3,-3599.4,261.6,-184.5,9827.1,9830.1,1360.8,-6.9,-6.0,-2889.6,1732.2,-0.6,756.3,-7388.4,1789.2,0,2682,36218656047104,44,0, 
1.4933,506.4,-1676.7,65.7,-659.7,-9819.9,-559.2,-193.2,-9830.1,111150.0,647.7,-9798.3,-8282.4,-542.4,513.3,9830.1,-9830.1,-6.9,-5.7,-9830.1,-9830.1,-0.6,782.1,-9809.7,1742.1,0,2688,36218656047104,45,0, 
1.4967,462.6,-1628.4,47.1,-711.9,-9523.2,-392.4,-239.1,-9770.1,118115.4,537.6,-8256.0,-6059.7,-263.1,3115.8,9830.1,-9545.7,-6.6,-6.0,-9652.2,-8709.6,-0.6,677.4,-9830.1,1784.4,0,2694,36218656047104,46,0, 
1.5000,432.6,-1590.0,32.1,-750.6,2124.3,-173.4,-294.6,3708.3,188880.9,432.3,-1360.5,2744.4,266.1,9827.1,9830.1,4312.2,-6.9,-6.3,696.3,4408.2,-0.6,572.7,694.8,1850.7,0,2700,36218656047104,47,0, 
1.5033,474.0,-1597.5,60.0,-706.5,8356.8,-173.7,-261.9,9830.1,227338.8,488.7,2258.4,7524.9,354.6,9006.0,9830.1,9830.1,-6.9,-6.0,9551.7,9830.1,-0.6,629.7,6274.2,1867.8,0,2706,36218656047104,48,0, 
1.5067,518.4,-1654.8,74.4,-652.8,-5551.8,-431.1,-200.7,484.5,176283.9,615.0,-3625.5,114.9,-183.0,9827.1,9830.1,1043.1,-6.9,-6.0,-3159.6,1549.8,-0.6,760.8,-7481.7,1789.2,0,2712,36218656047104,49,0, 
1.5100,512.7,-1679.1,75.6,-650.7,-9819.9,-557.1,-185.7,-9830.1,107519.1,648.9,-9780.9,-8365.8,-533.7,-108.0,9830.1,-9830.1,-6.9,-5.7,-9830.1,-9830.1,-0.3,788.1,-9791.4,1746.3,0,2718,36218656047104,50,0, 
1.5133,468.6,-1630.8,51.9,-708.6,-9535.8,-405.0,-238.5,-9808.5,114706.8,537.6,-8236.8,-6176.4,-263.1,2640.0,9830.1,-9600.6,-6.6,-6.0,-9703.2,-8712.6,-0.9,676.2,-9830.1,1791.0,0,2724,36218656047104,51,0, 
1.5167,443.4,-1578.9,47.1,-735.0,2145.0,-175.5,-286.8,3677.4,185694.6,447.0,-1417.2,2758.8,275.7,9827.1,9830.1,4252.2,-6.9,-6.3,618.0,4370.1,-0.9,581.1,719.7,1860.6,0,2730,36218656047104,52,0, 
1.5200,478.2,-1590.6,65.7,-707.4,8321.4,-178.5,-265.5,9830.1,224300.7,493.8,2133.9,7488.6,352.8,9002.7,9830.1,9830.1,-6.9,-5.7,9544.5,9830.1,0.0,634.5,6201.9,1866.3,0,2736,36218656047104,53,0, 
1.5233,525.0,-1645.5,91.8,-645.6,-5467.8,-422.1,-196.2,505.2,173468.1,624.6,-3667.5,201.3,-165.6,9827.1,9830.1,1040.4,-7.2,-5.7,-2976.9,1492.5,-0.9,768.0,-7477.8,1797.6,0,2742,36218656047104,54,0, 
1.5267,506.7,-1677.9,71.7,-651.3,-9819.9,-559.2,-183.0,-9830.1,104999.7,643.2,-9830.1,-8380.8,-547.8,-413.4,9830.1,-9830.1,-6.6,-5.7,-9830.1,-9830.1,-0.6,789.0,-9794.4,1754.4,0,2748,36218656047104,55,0, 
1.5300,465.0,-1625.4,65.1,-700.2,-9516.6,-397.5,-240.3,-9813.3,111891.0,545.1,-8264.1,-5999.4,-261.0,2434.8,9830.1,-9612.6,-6.9,-5.4,-9652.5,-8726.1,-0.9,675.6,-9830.1,1795.2,0,2754,36218656047104,56,0, 
1.5333,442.2,-1581.6,54.6,-732.3,2103.6,-168.0,-288.3,3660.9,182656.5,446.1,-1451.7,2884.5,272.7,9827.1,9830.1,4199.7,-6.6,-6.0,687.0,4216.8,-0.6,580.8,633.9,1857.6,0,2760,36218656047104,57,0, 
1.5367,477.9,-1591.5,66.3,-703.2,8394.3,-183.9,-271.8,9830.1,221633.1,489.9,2091.0,7629.6,337.5,8992.5,9830.1,9830.1,-7.2,-6.0,9651.9,9830.1,-1.5,617.7,6242.4,1856.7,0,2766,36218656047104,58,0, 
1.5400,524.7,-1653.0,83.7,-638.7,-5473.8,-432.9,-206.4,576.3,170948.7,628.5,-3706.5,331.5,-185.1,9827.1,9830.1,1105.5,-7.2,-5.7,-2923.2,1474.8,-0.3,744.6,-7472.7,1782.6,0,2772,36218656047104,59,0, 
1.5433,509.7,-1673.4,82.5,-637.5,-9819.9,-567.6,-198.0,-9830.1,102480.3,662.1,-9830.1,-8204.1,-549.0,-739.8,9830.1,-9830.1,-6.9,-5.7,-9830.1,-9830.1,-0.9,773.1,-9792.6,1733.1,0,2778,36218656047104,60,0, 
1.5467,460.5,-1641.3,58.5,-691.2,-9511.5,-408.6,-254.7,-9796.8,109816.2,548.7,-8245.8,-6009.9,-271.8,2170.8,9830.1,-9596.1,-6.3,-6.0,-9650.1,-8735.7,-0.6,660.3,-9830.1,1767.3,0,2784,36218656047104,61,0, 
1.5500,445.2,-1585.5,52.8,-725.1,2193.3,-180.0,-294.6,3755.4,180729.9,457.2,-1469.1,2831.4,268.8,9827.1,9830.1,4335.6,-6.9,-6.0,749.1,4330.2,-0.6,566.1,651.9,1833.6,0,2790,36218656047104,62,0, 
1.5533,479.7,-1594.5,59.4,-692.1,8423.4,-180.3,-268.2,9830.1,219484.2,503.4,2093.4,7542.6,342.9,9000.9,9830.1,9830.1,-6.9,-6.0,9766.5,9830.1,-0.3,615.3,6278.1,1848.0,0,2796,36218656047104,63,0, 
1.5567,524.4,-1647.0,76.5,-640.8,-5443.5,-425.4,-202.8,735.6,169022.1,615.9,-3649.8,289.5,-186.9,9827.1,9830.1,1252.2,-7.2,-5.7,-2857.2,1755.9,-0.9,753.0,-7452.9,1778.1,0,2802,36218656047104,64,0, 
1.5600,507.3,-1682.4,54.9,-648.6,-9819.9,-567.0,-193.2,-9830.1,100479.6,631.8,-9806.7,-8229.0,-552.0,-780.9,9830.1,-9830.1,-6.6,-6.0,-9830.1,-9830.1,-0.6,781.5,-9798.3,1742.1,0,2808,36218656047104,65,0, 
1.5633,455.7,-1639.2,33.3,-702.3,-9489.6,-410.4,-250.8,-9747.3,107963.7,510.0,-8283.0,-6148.8,-281.4,2121.3,9830.1,-9544.2,-6.6,-6.0,-9631.5,-8683.2,-0.9,681.9,-9830.1,1785.6,0,2814,36218656047104,66,0, 
1.5667,437.4,-1595.7,24.6,-729.6,2268.3,-183.6,-298.8,3976.5,178803.3,410.4,-1347.3,2846.4,242.7,9827.1,9830.1,4473.9,-6.6,-6.0,909.3,4530.0,-0.6,590.1,710.4,1855.8,0,2820,36218656047104,67,0, 
1.5700,473.7,-1599.0,43.5,-695.7,8572.8,-181.5,-270.0,9830.1,217928.1,468.9,2214.9,7627.8,320.1,9002.1,9830.1,9830.1,-7.2,-6.3,9820.5,9830.1,-0.6,638.4,6339.9,1863.0,0,2826,36218656047104,68,0, 
1.5733,514.2,-1677.0,51.6,-647.4,-5334.0,-436.8,-205.5,953.1,167614.2,604.8,-3576.0,269.1,-196.5,9827.1,9830.1,1497.0,-7.2,-5.7,-2746.8,1923.9,-1.2,774.3,-7425.3,1792.5,0,2832,36218656047104,69,0, 
1.5767,504.9,-1686.9,43.5,-651.0,-9819.9,-570.0,-194.4,-9830.1,99219.9,630.6,-9779.7,-8154.0,-567.3,-775.8,9830.1,-9830.1,-6.9,-5.7,-9830.1,-9830.1,-0.6,801.9,-9804.6,1750.2,0,2838,36218656047104,70,0, 
1.5800,456.3,-1649.7,20.4,-704.1,-9475.2,-419.7,-248.1,-9709.2,106555.8,527.7,-8193.6,-6177.0,-286.8,2112.3,9830.1,-9502.8,-6.9,-6.3,-9645.9,-8627.7,-0.9,688.2,-9830.1,1781.1,0,2844,36218656047104,71,0, 
1.5833,435.3,-1595.1,18.6,-742.2,2293.2,-184.5,-294.9,4056.3,177321.3,432.0,-1147.5,2810.1,243.6,9827.1,9830.1,4591.2,-6.9,-6.3,1034.1,4574.1,-0.9,586.8,715.2,1849.8,0,2850,36218656047104,72,0, 
1.5867,476.1,-1597.5,42.3,-702.0,8606.1,-183.9,-271.5,9830.1,216446.1,494.7,2437.8,7596.0,326.1,9010.2,9830.1,9830.1,-6.9,-5.7,9830.1,9830.1,-0.9,636.6,6369.3,1855.8,0,2856,36218656047104,73,0, 
1.5900,518.7,-1659.3,62.4,-648.6,-5247.6,-442.2,-210.3,1110.3,166428.6,621.3,-3292.8,277.5,-205.2,9827.1,9830.1,1635.3,-6.9,-6.3,-2648.4,2056.2,-0.9,761.1,-7380.9,1779.6,0,2862,36218656047104,74,0, 
1.5933,503.1,-1689.0,52.8,-653.1,-9819.9,-578.4,-200.7,-9830.1,98034.3,643.5,-9651.6,-8251.5,-572.4,-938.4,9830.1,-9830.1,-6.9,-5.7,-9830.1,-9830.1,-1.2,784.5,-9808.8,1727.4,0,2868,36218656047104,75,0, 
1.5967,452.7,-1651.2,25.5,-706.8,-9461.1,-427.5,-257.4,-9673.8,105444.3,529.5,-7946.7,-6101.4,-286.8,1878.6,9830.1,-9468.3,-7.2,-5.7,-9619.2,-8568.3,-0.6,669.6,-9830.1,1763.4,0,2874,36218656047104,76,0, 
1.6000,438.0,-1592.4,29.1,-728.1,2418.9,-195.9,-297.6,4250.4,176432.1,433.5,-885.3,2877.0,249.0,9827.1,9830.1,4717.8,-6.9,-6.0,1079.7,4752.9,-1.2,572.1,811.5,1836.0,0,2880,36218656047104,77,0, 
1.6033,471.9,-1600.2,47.7,-696.9,8767.2,-201.9,-280.2,9830.1,215705.1,482.1,2624.4,7669.8,318.6,9001.2,9830.1,9830.1,-6.6,-6.3,9830.1,9830.1,-0.9,623.1,6474.9,1841.1,0,2886,36218656047104,78,0, 
1.6067,518.1,-1659.9,61.8,-642.3,-5154.3,-454.8,-209.7,1380.9,165391.2,612.6,-3226.8,477.0,-204.6,9827.1,9830.1,1817.7,-6.6,-5.7,-2508.3,2187.6,-0.6,755.4,-7349.7,1771.5,0,2892,36218656047104,79,0, 
1.6100,498.3,-1683.9,52.8,-649.5,-9819.9,-586.8,-200.1,-9830.1,96848.7,631.5,-9693.0,-8076.9,-578.7,-1424.4,9830.1,-9830.1,-7.2,-6.3,-9830.1,-9830.1,-0.3,771.6,-9816.9,1728.3,0,2898,36218656047104,80,0, 
1.6133,456.9,-1638.6,36.6,-701.4,-9458.4,-429.6,-252.0,-9630.6,104110.5,534.0,-8084.4,-6097.5,-295.8,1439.1,9830.1,-9457.2,-6.6,-6.3,-9625.2,-8581.2,-1.2,663.6,-9830.1,1764.9,0,2904,36218656047104,81,0, 
1.6167,433.8,-1587.3,25.2,-736.2,2402.1,-203.7,-298.5,4339.2,175024.2,439.5,-1000.5,2904.3,231.0,9827.1,9830.1,4771.2,-7.2,-6.3,1015.8,4798.8,-0.9,573.3,745.2,1829.1,0,2910,36218656047104,82,0, 
1.6200,472.5,-1594.2,43.5,-704.4,8708.1,-207.6,-279.0,9830.1,214000.8,482.4,2564.4,7749.6,313.8,9003.6,9830.1,9830.1,-7.2,-5.7,9830.1,9830.1,-0.9,614.1,6387.9,1834.2,0,2916,36218656047104,83,0, 
1.6233,507.9,-1670.1,51.0,-662.4,-5235.9,-467.1,-220.5,1364.7,163983.3,600.6,-3162.3,504.9,-219.0,9827.1,9830.1,1842.9,-6.9,-5.7,-2494.2,2259.6,-0.9,737.4,-7397.7,1756.2,0,2922,36218656047104,84,0, 
1.6267,492.0,-1694.7,36.3,-672.0,-9819.9,-607.2,-212.7,-9830.1,95366.7,627.3,-9617.1,-7986.3,-594.3,-1595.4,9830.1,-9830.1,-7.2,-6.0,-9830.1,-9830.1,-1.2,759.0,-9807.9,1704.9,0,2928,36218656047104,85,0, 
1.6300,446.7,-1650.3,22.5,-720.9,-9456.9,-445.2,-263.7,-9625.8,102554.4,517.8,-7907.1,-5891.4,-305.7,1298.4,9830.1,-9436.5,-6.3,-6.3,-9584.7,-8556.6,-0.9,652.8,-9830.1,1746.0,0,2934,0,86,0, 
1.6333,425.4,-1604.1,19.8,-749.1,2413.8,-214.8,-308.4,4364.4,173690.4,428.7,-956.4,3082.8,224.1,9827.1,9830.1,4775.4,-6.9,-5.7,1201.8,4703.4,-0.9,559.2,715.5,1818.3,0,2940,35184640524288,87,0, 
1.6367,460.8,-1608.3,38.4,-714.9,8741.1,-224.4,-290.4,9830.1,212741.1,464.4,2676.9,7884.0,305.4,8996.1,9830.1,9830.1,-6.6,-5.7,9830.1,9830.1,-1.2,597.9,6431.4,1826.1,0,2946,35184640524288,88,0, 
1.6400,504.0,-1670.1,60.0,-667.5,-5163.6,-476.4,-219.3,1486.2,162575.4,604.5,-3127.5,611.7,-223.8,9827.1,9830.1,1838.4,-6.9,-5.7,-2425.2,2061.6,-0.6,747.3,-7363.2,1763.4,0,2952,35529311666176,89,0, 
1.6433,487.8,-1696.5,41.4,-677.7,-9819.9,-618.3,-213.3,-9830.1,94107.0,622.5,-9573.6,-7907.7,-594.6,-1885.8,9830.1,-9830.1,-6.6,-6.0,-9830.1,-9830.1,-0.6,755.1,-9810.0,1702.5,0,2958,35529311666176,90,0, 
1.6467,445.5,-1647.9,23.4,-725.4,-9449.1,-457.2,-259.2,-9628.5,101146.5,521.4,-7999.2,-5811.6,-317.4,1097.7,9830.1,-9429.9,-6.6,-6.3,-9574.2,-8617.5,-0.9,650.7,-9830.1,1740.6,0,2964,36218653949952,91,0, 
1.6500,423.6,-1599.6,13.5,-763.5,2391.6,-228.3,-314.7,4322.4,171986.1,414.9,-900.6,3060.3,200.7,9827.1,9830.1,4837.5,-6.6,-5.7,1162.2,4610.7,-0.3,550.5,654.6,1799.4,0,2970,36218653949952,92,0, 
1.6533,461.4,-1622.4,37.8,-732.3,8717.7,-223.5,-283.8,9830.1,211333.2,471.0,2616.9,8016.6,304.8,9015.0,9830.1,9830.1,-6.9,-6.3,9830.1,9830.1,-0.9,603.9,6353.4,1810.2,0,2976,36218653949952,93,0, 
1.6567,498.9,-1691.7,46.8,-682.5,-5176.2,-475.8,-224.7,1497.3,161167.5,593.7,-3123.6,657.6,-236.4,9827.1,9830.1,1941.6,-6.6,-5.7,-2386.8,1952.1,0.0,726.3,-7351.8,1734.9,0,2982,36218653949952,94,0, 
1.6600,488.7,-1716.3,39.0,-683.7,-9819.9,-600.9,-214.5,-9830.1,92995.5,625.2,-9525.9,-7795.5,-609.6,-2003.1,9830.1,-9830.1,-6.6,-5.7,-9830.1,-9830.1,-1.2,753.6,-9816.6,1687.5,0,2988,36218653949952,95,0, 
1.6633,439.2,-1675.8,14.1,-738.9,-9438.9,-442.5,-266.7,-9601.8,99812.7,516.0,-7874.1,-5818.2,-335.1,893.7,9830.1,-9397.8,-6.6,-6.0,-9564.6,-8665.8,-0.9,648.3,-9830.1,1719.9,0,2994,36218653949952,96,0, 
1.6667,422.7,-1614.6,13.8,-768.0,2394.3,-216.6,-312.3,4407.0,170652.3,423.3,-953.4,3003.6,204.3,9827.1,9830.1,4900.2,-6.6,-6.3,1230.3,4578.0,-0.6,560.1,630.9,1797.3,0,3000,36218653949952,97,0, 
1.6700,467.7,-1614.9,37.2,-735.3,8768.4,-212.4,-283.2,9830.1,209999.4,483.0,2709.0,7820.7,282.9,9014.7,9830.1,9830.1,-6.9,-6.0,9830.1,9830.1,-0.6,610.5,6378.9,1805.1,0,3006,36218653949952,98,0, 
1.6733,511.2,-1674.0,61.2,-674.7,-5159.1,-455.7,-220.2,1523.7,160130.1,605.7,-3027.6,490.2,-249.3,9827.1,9830.1,2003.4,-7.2,-5.7,-2308.8,2001.9,-0.6,749.7,-7382.1,1739.7,0,3012,36218653949952,99,0, 
1.6767,491.4,-1698.9,45.6,-680.4,-9819.9,-585.9,-212.4,-9830.1,91587.6,626.4,-9504.6,-7989.6,-612.6,-2542.8,9830.1,-9830.1,-6.9,-5.7,-9830.1,-9830.1,-0.9,761.1,-9807.9,1686.3,0,3018,36218653949952,100,0, 
1.6800,444.0,-1668.3,26.1,-733.8,-9425.4,-443.4,-265.2,-9603.0,98849.4,517.2,-7720.2,-5959.8,-345.6,434.7,9830.1,-9412.8,-6.3,-6.0,-9554.7,-8673.6,-0.9,649.8,-9830.1,1721.4,0,3024,36218653949952,101,0, 
1.6833,426.6,-1611.6,24.0,-762.6,2472.3,-207.0,-311.7,4434.0,169244.4,422.7,-723.0,3040.5,195.9,9827.1,9830.1,4845.0,-6.9,-6.3,1320.0,4538.1,-0.9,560.1,711.6,1787.1,0,3030,36218653949952,102,0, 
1.6867,461.7,-1616.7,45.3,-727.8,8811.9,-210.6,-287.4,9830.1,208813.8,469.8,2836.2,7894.5,275.1,9016.8,9830.1,9830.1,-6.9,-6.0,9830.1,9830.1,-0.9,603.9,6387.6,1796.7,0,3036,36218653949952,103,0, 
1.6900,502.5,-1684.2,61.2,-680.4,-5105.7,-464.4,-226.5,1638.9,159092.7,599.7,-2962.8,669.6,-253.8,9827.1,9830.1,1956.3,-7.2,-6.6,-2184.3,2012.7,-0.3,732.3,-7355.7,1721.4,0,3042,36218653949952,104,0, 
1.6933,486.0,-1703.7,52.5,-687.6,-9819.9,-588.6,-212.7,-9830.1,90402.0,621.9,-9435.3,-7812.3,-615.6,-2722.8,9830.1,-9830.1,-6.9,-5.7,-9830.1,-9830.1,-0.6,758.4,-9813.0,1681.2,0,3048,36218653949952,105,0, 
1.6967,447.9,-1644.0,39.3,-729.3,-9430.5,-426.0,-258.6,-9588.9,97589.7,523.5,-7694.4,-5949.0,-336.3,282.0,9830.1,-9416.1,-6.6,-6.0,-9535.5,-8687.7,-0.6,660.6,-9830.1,1728.6,0,3054,36218653949952,106,0, 
1.7000,419.4,-1611.6,29.4,-766.2,2486.7,-201.9,-309.6,4530.0,168355.2,428.7,-690.6,3121.5,197.4,9827.1,9830.1,4893.6,-6.9,-5.7,1338.9,4544.1,-1.2,556.2,627.6,1796.1,0,3060,36218653949952,107,0, 
1.7033,455.1,-1619.7,44.4,-734.4,8827.2,-199.2,-289.2,9830.1,207702.3,471.9,3017.4,7988.4,276.3,9026.4,9830.1,9830.1,-6.9,-6.0,9830.1,9830.1,-0.6,603.3,6401.1,1802.7,0,3066,36218653949952,108,0, 
1.7067,504.0,-1669.8,65.7,-671.4,-5089.5,-440.7,-215.1,1762.5,157981.2,608.4,-2808.9,630.3,-240.3,9827.1,9830.1,2078.4,-6.6,-6.0,-2088.0,2010.3,-0.6,739.8,-7348.5,1743.9,0,3072,36218653949952,109,0, 
1.7100,500.4,-1691.1,70.2,-663.3,-9819.9,-563.7,-197.4,-9830.1,89586.9,637.8,-9233.7,-7848.0,-602.1,-3033.9,9830.1,-9830.1,-6.9,-5.7,-9830.1,-9830.1,-0.9,773.4,-9811.8,1704.9,0,3078,36218653949952,110,0, 
1.7133,444.9,-1653.6,46.8,-715.2,-9426.9,-414.9,-256.5,-9558.3,96774.6,527.7,-7543.8,-5943.6,-340.8,24.3,9830.1,-9384.6,-7.2,-5.7,-9510.0,-8695.5,-0.6,654.3,-9830.1,1736.4,0,3084,36218653949952,111,0, 
1.7167,429.9,-1602.0,45.6,-747.3,2578.2,-183.0,-294.3,4613.7,167836.5,437.1,-492.0,3101.7,212.7,9827.1,9830.1,5002.2,-7.2,-6.0,1606.8,4620.6,-0.6,570.9,720.0,1806.6,0,3090,36218653949952,112,0, 
1.7200,463.2,-1614.3,53.4,-725.1,8947.5,-192.3,-276.3,9830.1,207405.9,472.5,3230.7,7919.4,285.0,9020.7,9830.1,9830.1,-6.9,-5.7,9830.1,9830.1,-0.6,607.8,6502.2,1816.5,0,3096,36218653949952,113,0, 
1.7233,502.8,-1676.1,65.1,-675.9,-5033.7,-446.4,-214.8,1843.5,157684.8,608.4,-2550.3,626.7,-244.5,9827.1,9830.1,2218.8,-7.2,-6.0,-1822.2,2092.8,-0.6,741.0,-7313.4,1745.4,0,3102,36218653949952,114,0, 
1.7267,484.8,-1704.6,48.0,-680.4,-9819.9,-575.7,-208.5,-9830.1,89364.6,629.4,-9024.3,-7819.5,-605.7,-3096.0,9830.1,-9830.1,-6.9,-5.7,-9830.1,-9830.1,-0.9,762.3,-9820.8,1690.8,0,3108,36218653949952,115,0, 
1.7300,438.6,-1665.3,24.0,-734.1,-9418.5,-422.7,-261.6,-9516.6,96700.5,515.1,-7335.6,-5864.4,-338.1,81.3,9830.1,-9358.8,-6.6,-5.7,-9462.0,-8675.7,-0.3,646.2,-9830.1,1722.9,0,3114,36218653949952,116,0, 
1.7333,418.8,-1612.8,21.0,-761.4,2606.7,-198.6,-310.8,4761.3,167317.8,419.4,-276.3,3079.2,195.0,9827.1,9830.1,5046.9,-7.2,-6.0,1726.2,4618.8,-0.9,551.4,758.1,1787.7,0,3120,36218653949952,117,0, 
1.7367,457.2,-1620.3,48.9,-722.1,9051.3,-190.2,-282.6,9830.1,207257.7,476.4,3395.7,7848.0,300.9,9024.3,9830.1,9830.1,-6.6,-6.3,9830.1,9830.1,-1.2,601.5,6597.0,1804.2,0,3126,36218653949952,118,0, 
1.7400,496.8,-1683.6,55.5,-671.1,-4920.3,-436.5,-222.9,2105.4,157610.7,595.5,-2397.0,597.6,-237.9,9827.1,9830.1,2346.6,-6.6,-5.4,-1658.1,2163.9,-0.9,732.6,-7277.1,1740.3,0,3132,36218653949952,119,0, 
1.7433,480.9,-1710.3,30.6,-679.2,-9819.9,-583.5,-214.8,-9830.1,89586.9,620.7,-8801.1,-7883.4,-606.0,-2899.8,9830.1,-9830.1,-7.2,-6.3,-9830.1,-9830.1,-0.3,753.6,-9827.7,1694.7,0,3138,36218653949952,120,0, 
1.7467,432.3,-1669.8,7.5,-731.7,-9352.5,-430.5,-274.8,-9443.4,96922.8,505.2,-7091.4,-5838.6,-335.1,327.3,9830.1,-9268.8,-6.9,-6.0,-9375.6,-8647.2,-0.6,642.3,-9830.1,1731.0,0,3144,36218653949952,121,0, 
1.7500,417.0,-1620.9,3.0,-759.3,2792.7,-201.6,-319.5,4985.4,167910.6,416.7,-177.9,3163.2,204.3,9827.1,9830.1,5347.5,-6.3,-5.7,1966.5,4667.7,-0.6,541.5,925.8,1799.7,0,3150,36218653949952,122,0, 
1.7533,456.6,-1618.2,31.5,-725.1,9166.8,-201.0,-296.7,9830.1,207554.1,466.8,3523.2,8022.9,294.6,9029.7,9830.1,9830.1,-6.6,-5.7,9830.1,9830.1,-0.6,596.4,6729.9,1810.5,0,3156,36218653949952,123,0, 
1.7567,498.9,-1679.7,47.7,-669.9,-4807.5,-449.1,-229.8,2316.0,158129.4,595.2,-2243.7,696.0,-235.2,9827.1,9830.1,2679.9,-6.9,-6.0,-1493.1,2198.4,-0.6,721.5,-7189.5,1732.8,0,3162,36218653949952,124,0, 
1.7600,482.1,-1708.2,30.3,-684.0,-9819.9,-579.0,-222.0,-9830.1,89957.4,609.3,-8649.3,-7794.9,-604.2,-2811.0,9830.1,-9830.1,-6.3,-5.7,-9830.1,-9830.1,-0.9,744.9,-9830.1,1673.1,0,3168,36218653949952,125,0, 
1.7633,438.9,-1659.0,6.9,-734.7,-9323.1,-423.3,-273.3,-9402.6,97071.0,518.1,-6921.3,-5778.6,-332.1,267.3,9830.1,-9200.4,-6.6,-6.3,-9350.4,-8678.7,-0.9,641.7,-9830.1,1714.8,0,3174,36218653949952,126,0, 
1.7667,411.9,-1608.0,1.8,-771.9,2922.6,-201.6,-322.5,5112.3,168281.1,419.1,96.6,3189.3,205.5,9827.1,9830.1,5514.3,-6.6,-6.0,2173.2,4574.4,0.0,546.6,1032.9,1780.2,0,3180,36218653949952,127,0, 
1.7700,452.7,-1612.8,26.7,-737.7,9365.4,-204.9,-294.9,9830.1,208295.1,462.3,3831.9,8149.2,286.5,9018.0,9830.1,9830.1,-6.9,-6.0,9830.1,9830.1,-0.9,589.5,6850.5,1793.7,0,3186,36218653949952,128,0, 
1.7733,493.2,-1674.6,51.0,-680.7,-4690.8,-459.6,-229.2,2586.6,158870.4,586.5,-1972.5,817.8,-244.2,9827.1,9830.1,2933.7,-6.6,-5.7,-1189.5,2142.6,-0.6,720.0,-7150.5,1725.3,0,3192,36218653949952,129,0, 
1.7767,481.2,-1695.9,42.0,-680.7,-9819.9,-592.5,-219.3,-9830.1,90698.4,617.4,-8461.5,-7663.5,-603.6,-2585.1,9830.1,-9830.1,-6.6,-6.0,-9830.1,-9830.1,-0.6,737.1,-9830.1,1676.4,0,3198,36218653949952,130,0, 
1.7800,442.2,-1647.9,26.7,-731.1,-9274.8,-442.2,-266.1,-9311.7,98256.6,514.8,-6692.1,-5741.1,-326.7,390.6,9830.1,-9141.9,-6.9,-6.3,-9243.6,-8643.3,-0.6,638.7,-9830.1,1726.5,0,3204,36218653949952,131,0, 
1.7833,424.5,-1605.6,17.7,-767.1,3026.1,-205.2,-313.2,5361.3,169096.2,424.2,221.1,3182.1,207.6,9827.1,9830.1,5681.1,-6.9,-5.7,2483.1,4707.0,-0.6,549.0,1109.1,1802.4,0,3210,36218653949952,132,0, 
1.7867,459.3,-1606.8,33.6,-743.7,9484.8,-213.6,-286.5,9830.1,209110.2,469.2,3963.6,8122.5,287.4,9016.8,9830.1,9830.1,-6.9,-6.0,9830.1,9830.1,-0.9,597.6,6919.2,1811.7,0,3216,36218653949952,133,0, 
1.7900,501.0,-1680.9,45.6,-689.1,-4540.8,-452.4,-224.1,2781.3,159759.6,599.1,-1805.4,813.0,-243.6,9827.1,9830.1,3085.5,-6.9,-5.7,-891.6,2325.6,-0.9,730.2,-7055.1,1738.8,0,3222,36218653949952,134,0, 
1.7933,483.3,-1702.2,40.8,-693.6,-9819.9,-592.2,-211.2,-9830.1,91439.4,623.7,-8295.9,-7542.9,-615.3,-2594.1,9830.1,-9830.1,-6.6,-6.0,-9830.1,-9830.1,-0.3,754.2,-9830.1,1692.9,0,3228,36218653949952,135,0, 
1.7967,441.0,-1658.1,22.2,-737.7,-9245.1,-430.2,-265.8,-9273.9,98923.5,516.3,-6705.0,-5637.9,-322.5,446.4,9830.1,-9082.2,-6.3,-6.6,-9197.4,-8554.8,-0.9,650.4,-9830.1,1736.7,0,3234,36218653949952,136,0, 
1.8000,423.0,-1595.1,27.9,-766.5,3134.4,-205.5,-312.0,5489.7,169911.3,413.1,198.0,3285.3,209.4,9827.1,9830.1,5787.9,-6.9,-6.0,2612.7,4805.7,-0.9,551.7,1191.0,1806.6,0,3240,36218653949952,137,0, 
1.8033,454.5,-1611.9,54.3,-732.6,9596.4,-202.2,-284.1,9830.1,210147.6,476.4,4008.6,8311.5,302.1,9012.3,9830.1,9830.1,-6.9,-6.0,9830.1,9830.1,-0.9,600.3,7050.9,1819.5,0,3246,36218653949952,138,0, 
1.8067,501.3,-1668.6,72.9,-678.6,-4474.2,-444.0,-216.3,2961.0,160945.2,604.5,-1724.1,981.9,-225.0,9827.1,9830.1,3199.5,-7.2,-6.0,-746.4,2433.6,-0.9,736.5,-7025.1,1752.3,0,3252,36218653949952,139,0, 
1.8100,481.5,-1703.1,43.8,-694.5,-9819.9,-585.3,-215.7,-9830.1,92625.0,619.8,-8196.6,-7310.1,-600.3,-2328.3,9830.1,-9830.1,-6.3,-5.7,-9830.1,-9830.1,-0.6,757.5,-9830.1,1692.6,0,3258,36218653949952,140,0, 
1.8133,434.1,-1659.0,10.8,-751.5,-9227.4,-431.7,-271.2,-9259.5,99812.7,509.1,-6700.8,-5576.1,-330.3,595.5,9830.1,-9064.2,-6.6,-6.0,-9157.5,-8624.4,-0.6,645.3,-9830.1,1733.4,0,3264,36218653949952,141,0, 
1.8167,420.3,-1605.6,18.6,-777.3,3177.9,-194.4,-316.5,5496.0,170652.3,424.8,292.5,3296.4,208.8,9827.1,9830.1,5839.2,-6.3,-6.0,2736.6,4814.7,-0.9,557.1,1231.5,1807.2,0,3270,36218653949952,142,0, 
1.8200,463.2,-1604.7,35.7,-743.7,9632.7,-189.3,-289.5,9830.1,210740.4,463.5,4036.2,8387.7,297.3,9004.8,9830.1,9830.1,-6.9,-5.4,9830.1,9830.1,-1.2,599.1,7147.2,1818.6,0,3276,36218653949952,143,0, 
1.8233,499.2,-1671.6,55.5,-689.7,-4410.9,-444.6,-228.3,2990.7,161612.1,596.1,-1741.2,1056.6,-230.4,9827.1,9830.1,3314.4,-6.9,-6.0,-550.8,2504.7,-0.6,734.1,-6973.8,1746.0,0,3282,36218653949952,144,0, 
1.8267,487.8,-1697.1,51.3,-688.8,-9819.9,-573.0,-215.4,-9830.1,93440.1,609.0,-8300.1,-7466.7,-606.0,-2345.7,9830.1,-9830.1,-7.2,-6.0,-9830.1,-9830.1,-0.6,758.4,-9830.1,1704.0,0,3288,36218653949952,145,0, 
1.8300,437.1,-1665.6,23.4,-742.8,-9198.6,-434.4,-275.1,-9222.0,100553.7,501.9,-6617.1,-5498.7,-334.2,677.7,9830.1,-9027.9,-6.6,-6.3,-9086.7,-8582.1,-0.6,643.8,-9830.1,1735.5,0,3294,36218653949952,146,0, 
1.8333,423.9,-1605.0,23.1,-774.0,3297.6,-203.7,-323.4,5643.6,171541.5,412.8,166.8,3451.5,214.5,9827.1,9830.1,5964.6,-6.6,-6.0,2878.2,4840.5,-0.6,553.5,1293.3,1809.6,0,3300,36218653949952,147,0, 
1.8367,458.7,-1617.9,32.1,-759.0,9786.9,-207.6,-298.8,9830.1,212148.3,462.3,3901.8,8428.5,299.1,9019.2,9830.1,9830.1,-6.6,-5.7,9830.1,9830.1,-0.6,599.4,7191.0,1815.0,0,3306,36218653949952,148,0, 
1.8400,496.5,-1680.9,41.1,-717.0,-4356.3,-460.5,-235.5,3157.8,162575.4,587.1,-1902.6,1137.9,-222.9,9827.1,9830.1,3474.9,-7.2,-6.0,-412.2,2547.9,-0.6,728.7,-6936.0,1742.1,0,3312,36218653949952,149,0, 
1.8433,482.4,-1707.3,27.6,-717.6,-9819.9,-588.6,-218.7,-9830.1,94477.5,615.6,-8288.7,-7397.7,-593.7,-2238.0,9830.1,-9830.1,-6.3,-6.0,-9830.1,-9830.1,0.0,759.3,-9830.1,1700.1,0,3318,36218653949952,150,0, 
1.8467,441.6,-1653.9,13.5,-756.9,-9183.3,-432.3,-273.3,-9215.7,101442.9,505.2,-6657.9,-5585.7,-316.2,680.1,9830.1,-9011.7,-6.6,-6.3,-9087.6,-8565.6,-1.2,651.3,-9830.1,1740.9,0,3324,36218653949952,151,0, 
1.8500,425.7,-1609.8,19.5,-778.5,3251.7,-207.0,-317.7,5632.8,172430.7,414.0,149.4,3248.7,220.2,9827.1,9830.1,5989.8,-6.9,-5.7,2943.3,4917.3,-0.9,552.9,1280.4,1805.1,0,3330,36218653949952,152,0, 
1.8533,459.3,-1613.4,44.4,-743.4,9768.9,-209.7,-297.6,9830.1,212444.7,462.0,3970.8,8280.6,314.7,9015.6,9830.1,9830.1,-7.2,-6.0,9830.1,9830.1,-0.9,600.9,7209.3,1819.5,0,3336,36218653949952,153,0, 
1.8567,493.8,-1676.1,49.2,-694.8,-4301.7,-472.2,-240.3,3100.5,163094.1,584.7,-1874.4,891.6,-221.7,9827.1,9830.1,3472.2,-6.6,-6.0,-331.2,2525.1,-0.6,726.9,-6902.7,1729.2,0,3342,36218653949952,154,0, 
1.8600,479.1,-1707.6,37.5,-698.1,-9819.9,-610.8,-224.4,-9830.1,94922.1,612.3,-8376.0,-7613.4,-589.2,-2326.5,9830.1,-9830.1,-7.2,-5.7,-9830.1,-9830.1,-0.6,746.7,-9830.1,1691.7,0,3348,36218653949952,155,0, 
1.8633,439.5,-1657.2,16.5,-739.2,-9154.2,-450.6,-268.2,-9213.9,101961.6,508.8,-6772.2,-5748.0,-323.7,495.9,9830.1,-8988.9,-6.6,-6.0,-9039.9,-8580.6,-0.9,646.5,-9830.1,1730.1,0,3354,36218653949952,156,0, 
1.8667,414.6,-1612.5,9.0,-774.3,3323.4,-212.1,-313.8,5632.2,173023.5,409.8,166.2,3112.2,198.9,9827.1,9830.1,6035.1,-7.2,-5.7,2878.2,4741.2,-0.9,549.0,1279.5,1800.9,0,3360,36218653949952,157,0, 
1.8700,454.5,-1610.4,23.1,-744.6,9795.9,-214.5,-292.8,9830.1,213259.8,450.9,3953.4,8202.9,288.3,9010.2,9830.1,9830.1,-6.9,-6.3,9830.1,9830.1,-0.9,604.5,7219.5,1812.3,0,3366,36218653949952,158,0, 
1.8733,490.5,-1688.7,42.0,-696.9,-4308.0,-465.0,-228.6,3081.3,163761.0,600.6,-1859.1,817.5,-215.1,9827.1,9830.1,3440.4,-7.2,-5.7,-319.2,2340.6,-0.9,741.0,-6912.6,1744.2,0,3372,36218653949952,159,0, 
1.8767,483.6,-1701.3,40.2,-694.5,-9819.9,-583.5,-211.5,-9830.1,95514.9,618.6,-8314.8,-7639.5,-579.3,-2353.5,9830.1,-9830.1,-6.9,-5.7,-9830.1,-9830.1,-0.6,762.3,-9830.1,1697.7,0,3378,36218653949952,160,0, 
1.8800,436.5,-1660.5,21.9,-747.0,-9145.5,-432.0,-268.5,-9216.3,102332.1,512.4,-6735.9,-5683.5,-308.7,551.4,9830.1,-8994.0,-6.9,-6.0,-9016.2,-8566.8,-0.9,659.7,-9830.1,1736.1,0,3384,36218653949952,161,0, 
1.8833,418.8,-1605.0,20.4,-778.8,3354.9,-197.1,-312.6,5639.7,173468.1,417.0,131.1,3239.1,221.1,9827.1,9830.1,5975.4,-6.9,-6.0,3073.8,4813.5,-0.9,561.3,1342.8,1801.5,0,3390,36218653949952,162,0, 
1.8867,461.7,-1605.0,54.6,-735.6,9792.0,-191.4,-286.2,9830.1,213704.4,474.9,3804.3,8176.5,315.0,9015.9,9830.1,9830.1,-7.2,-6.0,9830.1,9830.1,-1.2,613.2,7251.9,1819.2,0,3396,36218653949952,163,0, 
1.8900,504.9,-1667.4,64.5,-679.5,-4265.7,-444.3,-216.0,3176.7,164576.1,599.7,-1970.1,888.0,-218.7,9827.1,9830.1,3434.7,-7.2,-6.0,-242.7,2543.7,-0.9,739.5,-6852.3,1745.4,0,3402,36218653949952,164,0, 
1.8933,488.4,-1696.8,48.9,-688.8,-9819.9,-580.5,-203.7,-9830.1,96330.0,618.9,-8378.1,-7469.7,-583.2,-2224.2,9830.1,-9830.1,-6.9,-6.0,-9830.1,-9830.1,-0.3,760.5,-9830.1,1691.1,0,3408,36218653949952,165,0, 
1.8967,438.6,-1660.5,21.9,-747.0,-9164.4,-424.8,-258.6,-9213.6,103295.4,502.5,-6752.1,-5598.0,-326.7,598.5,9830.1,-9030.3,-7.2,-6.3,-8994.3,-8563.8,-0.9,649.8,-9830.1,1747.8,0,3414,36218653949952,166,0, 
1.9000,415.8,-1610.1,5.4,-782.7,3334.5,-198.3,-314.4,5635.2,174209.1,406.5,83.1,3215.7,207.9,9827.1,9830.1,5964.3,-6.6,-6.0,3077.4,4820.1,-0.6,547.2,1334.4,1815.0,0,3420,36218653949952,167,0, 
1.9033,451.2,-1620.3,12.6,-755.7,9819.6,-201.3,-290.4,9830.1,214519.5,449.4,3894.3,8215.8,288.6,9005.7,9830.1,9830.1,-6.9,-6.0,9830.1,9830.1,-0.9,593.7,7276.2,1830.3,0,3426,36218653949952,168,0, 
1.9067,490.5,-1689.3,15.0,-706.8,-4236.6,-456.3,-228.6,3191.4,165465.3,573.3,-1896.9,982.2,-235.8,9827.1,9830.1,3489.0,-7.2,-6.0,-141.0,2568.0,-0.9,720.3,-6852.0,1761.6,0,3432,36218653949952,169,0, 
1.9100,480.6,-1707.6,0.9,-705.9,-9819.9,-591.3,-216.6,-9830.1,97145.1,599.4,-8463.3,-7493.4,-607.5,-2335.2,9830.1,-9830.1,-6.9,-5.4,-9830.1,-9830.1,-0.6,753.3,-9830.1,1731.0,0,3438,36218653949952,170,0, 
1.9133,437.1,-1658.7,-13.5,-753.6,-9150.9,-428.7,-268.2,-9196.2,103962.3,502.2,-6797.1,-5517.0,-317.4,521.7,9830.1,-8996.7,-6.9,-6.0,-9000.3,-8528.1,-0.9,645.0,-9830.1,1777.5,0,3444,36218653949952,171,0, 
1.9167,414.9,-1603.2,-14.4,-788.4,3338.4,-197.7,-319.5,5709.3,174950.1,404.1,153.6,3347.4,210.9,9827.1,9830.1,6047.4,-6.9,-5.7,3140.7,4958.4,-1.2,553.2,1380.6,1842.9,0,3450,36218653949952,172,0, 
1.9200,454.8,-1607.1,15.0,-753.9,9819.6,-189.3,-294.3,9830.1,215186.4,459.3,3978.6,8351.7,308.1,9008.4,9830.1,9830.1,-6.9,-5.7,9830.1,9830.1,-0.6,601.2,7298.1,1858.2,0,3456,36218653949952,173,0, 
1.9233,495.3,-1669.8,32.7,-707.1,-4157.1,-444.0,-232.5,3237.0,165909.9,585.9,-1718.1,1117.5,-213.3,9827.1,9830.1,3570.6,-6.9,-5.7,-89.4,2730.6,-0.9,734.1,-6803.7,1787.7,0,3462,36218653949952,174,0, 
1.9267,481.8,-1698.0,27.0,-703.2,-9819.9,-580.2,-217.5,-9830.1,97960.2,618.9,-8271.3,-7443.9,-587.7,-2221.2,9830.1,-9830.1,-7.2,-6.0,-9830.1,-9830.1,-0.9,757.5,-9830.1,1748.4,0,3468,36218653949952,175,0, 
1.9300,433.5,-1651.5,-1.8,-750.6,-9136.8,-438.3,-270.0,-9229.2,104481.0,499.8,-6697.8,-5438.4,-312.9,522.9,9830.1,-9030.6,-6.6,-6.3,-8978.1,-8547.9,-0.3,645.9,-9830.1,1782.3,0,3474,36218653949952,176,0, 
1.9333,413.1,-1607.1,-3.6,-786.0,3321.3,-207.0,-318.0,5601.9,175320.6,408.0,196.5,3377.7,201.3,9827.1,9830.1,5937.0,-6.9,-6.0,3057.9,4831.2,-0.3,553.2,1368.0,1854.0,0,3480,36218653949952,177,0, 
1.9367,452.1,-1616.4,5.1,-758.4,9819.6,-196.5,-289.2,9830.1,215408.7,450.6,3916.2,8327.4,278.4,9007.5,9830.1,9830.1,-6.6,-6.0,9830.1,9830.1,-0.9,596.4,7293.9,1864.5,0,3486,36218653949952,178,0, 
1.9400,497.7,-1673.1,24.3,-710.7,-4227.6,-453.3,-223.2,3111.0,165984.0,583.2,-1936.2,1006.2,-243.9,9827.1,9830.1,3406.2,-7.2,-5.4,-401.4,2535.9,-0.6,731.7,-6855.9,1791.0,0,3492,36218653949952,179,0, 
1.9433,479.4,-1710.6,10.2,-716.7,-9819.9,-597.6,-219.0,-9830.1,97441.5,606.9,-8454.0,-7508.4,-598.2,-2551.2,9830.1,-9830.1,-6.6,-6.0,-9830.1,-9830.1,-0.9,754.5,-9830.1,1743.6,0,3498,36218653949952,180,0, 
1.9467,440.4,-1657.8,-1.8,-761.4,-9190.5,-441.9,-270.0,-9295.5,103814.1,504.3,-6914.7,-5620.8,-327.3,249.3,9830.1,-9101.4,-6.6,-5.7,-9120.9,-8625.6,-0.9,648.0,-9830.1,1788.3,0,3504,36218653949952,181,0, 
1.9500,421.8,-1599.3,-5.1,-780.6,3262.2,-214.5,-312.3,5407.5,174579.6,409.2,73.2,3365.4,213.0,9827.1,9830.1,5772.0,-6.9,-6.3,2767.5,4653.0,-0.6,555.0,1233.9,1862.1,0,3510,36218653949952,182,0, 
1.9533,463.5,-1605.0,21.9,-749.1,9741.0,-201.6,-287.1,9830.1,214519.5,463.5,3842.7,8235.9,304.2,9007.5,9830.1,9830.1,-6.6,-5.7,9830.1,9830.1,-0.9,608.4,7121.4,1871.4,0,3516,36218653949952,183,0, 
1.9567,502.2,-1666.2,35.4,-701.1,-4315.2,-460.2,-224.7,2829.6,165243.0,588.6,-2044.2,890.4,-215.4,9827.1,9830.1,3171.6,-6.9,-6.3,-584.1,2193.6,-0.6,731.4,-6914.7,1796.1,0,3522,36218653949952,184,0, 
1.9600,483.6,-1704.0,24.6,-709.8,-9819.9,-593.7,-216.3,-9830.1,96700.5,611.1,-8486.4,-7661.4,-597.0,-2775.9,9830.1,-9830.1,-6.9,-6.0,-9830.1,-9830.1,-0.6,754.8,-9830.1,1739.1,0,3528,36218653949952,185,0, 
1.9633,441.6,-1650.3,6.6,-755.7,-9221.4,-427.2,-270.3,-9361.8,104036.4,507.0,-7281.3,-6209.4,-326.1,199.2,9830.1,-9150.9,-6.9,-5.4,-9303.0,-8896.2,-0.6,650.1,-9830.1,1783.8,0,3534,36218653949952,186,0, 
1.9667,422.4,-1596.6,12.0,-784.2,3143.1,-183.0,-309.9,5222.4,174431.4,414.6,-407.7,2755.8,212.4,9827.1,9830.1,5643.3,-7.2,-6.0,2252.7,4125.3,-0.6,555.0,1133.1,1858.5,0,3540,36218653949952,187,0, 
1.9700,462.6,-1606.2,29.4,-748.8,9624.0,-183.9,-284.1,9830.1,214593.6,460.2,3405.0,7788.0,301.2,9028.5,9830.1,9830.1,-6.9,-5.7,9830.1,9830.1,-0.9,604.8,7043.1,1866.0,0,3546,36218653949952,188,0, 
1.9733,491.4,-1678.5,36.6,-698.7,-4405.5,-437.1,-229.8,2625.3,165168.9,580.5,-2286.3,592.8,-238.2,9827.1,9830.1,3067.2,-7.2,-6.6,-935.1,1821.6,-0.9,726.9,-6974.1,1791.3,0,3552,36218653949952,189,0, 
1.9767,481.8,-1701.6,22.8,-698.7,-9819.9,-562.5,-217.5,-9830.1,96552.3,602.7,-8755.2,-7912.8,-606.3,-2787.3,9830.1,-9830.1,-6.9,-5.7,-9830.1,-9830.1,-0.6,750.9,-9830.1,1748.7,0,3558,36218653949952,190,0, 
1.9800,430.5,-1661.1,0.0,-756.0,-9255.0,-412.2,-275.4,-9417.3,102999.0,498.3,-7156.5,-5924.1,-340.8,7.8,9830.1,-9204.9,-6.9,-6.3,-9256.2,-8861.7,-0.3,639.6,-9830.1,1779.9,0,3564,36218653949952,191,0, 
1.9833,424.2,-1599.6,6.0,-777.6,3040.8,-170.1,-309.0,5100.0,173468.1,407.4,-199.5,2867.4,207.0,9827.1,9830.1,5514.0,-6.6,-5.7,2456.1,4186.2,-0.9,556.2,1026.3,1859.1,0,3570,36218653949952,192,0, 
1.9867,459.9,-1612.2,22.8,-747.9,9592.5,-164.4,-290.1,9830.1,213482.1,451.8,3582.3,7994.7,287.7,9012.0,9830.1,9830.1,-7.2,-5.7,9830.1,9830.1,-0.9,600.6,6931.2,1868.7,0,3576,36218653949952,193,0, 
1.9900,501.3,-1682.1,39.6,-692.1,-4440.3,-411.0,-226.5,2617.2,164427.9,582.3,-2194.2,784.8,-233.7,9827.1,9830.1,2998.5,-6.6,-5.4,-665.7,1827.6,-0.6,731.4,-6999.3,1805.4,0,3582,36218653949952,194,0, 
1.9933,483.6,-1707.9,28.5,-700.8,-9819.9,-558.9,-218.4,-9830.1,95811.3,603.3,-8680.5,-7741.8,-598.5,-2896.5,9830.1,-9830.1,-6.6,-5.7,-9830.1,-9830.1,-0.6,748.2,-9830.1,1755.9,0,3588,36218653949952,195,0, 
1.9967,434.1,-1662.3,2.1,-755.1,-9267.0,-408.9,-273.6,-9435.9,102183.9,493.8,-7071.3,-5853.6,-339.6,-18.9,9830.1,-9223.2,-6.9,-5.7,-9195.6,-8878.8,-0.6,642.0,-9830.1,1786.2,0,3594,36218653949952,196,0, 
2.0000,420.9,-1603.8,2.1,-787.5,3014.4,-187.8,-321.3,5050.5,172801.2,406.5,-84.6,3023.4,209.1,9827.1,9830.1,5487.0,-7.5,-5.7,2383.5,4150.8,-0.9,546.6,1003.8,1846.2,0,3600,36218653949952,197,0, 
2.0033,451.5,-1619.1,11.7,-758.7,9549.9,-185.7,-303.9,9830.1,213037.5,446.1,3544.8,7960.5,280.5,9024.0,9830.1,9830.1,-6.9,-6.0,9830.1,9830.1,-0.9,590.4,7002.9,1852.2,0,3606,36218653949952,198,0, 
