Time,P3,C3,F3,Fz,F4,C4,P4,Cz,CM,A1,Fp1,Fp2,T3,T5,O1,O2,X3,X2,F7,F8,X1,A2,T6,T4,Trigger,Time_Offset,ADC_Status,ADC_Sequence,Event,Comments
0.0033,-162.6,159.6,1461.3,-811.5,-600.6,2001.6,-834.3,-63.3,-3927.3,-687.3,-666.0,-860.4,1448.1,7248.9,4023.9,-4584.0,-6.9,-6.0,-983.1,-4364.4,-0.6,-595.2,1219.8,12.3,0,6,0,201,0, 
0.0067,628.2,-3.9,336.3,4568.4,4774.8,-621.6,4534.2,-525.0,-2371.2,4692.0,4719.9,4522.2,-420.3,4062.9,-3437.4,-2691.9,-6.9,-6.0,4384.5,-9830.1,-1.2,4787.4,986.7,4490.7,0,12,0,202,0, 
0.0100,723.0,-175.8,-556.5,3498.0,3712.2,-2096.7,3479.4,-235.2,-741.0,3602.7,3636.9,3438.0,-1813.2,1995.3,-6610.8,-2387.7,-6.3,-5.7,3318.3,-2277.3,-0.6,3701.1,554.7,3772.2,0,18,549755813888,203,0, 
0.0133,233.1,16.2,200.1,-2277.3,-2053.2,-321.9,-2275.2,467.4,-1259.7,-2178.3,-2132.4,-2326.8,-745.2,4085.4,-1086.3,-4174.8,-6.9,-6.0,-2425.5,8526.3,-0.6,-2074.2,643.5,-946.5,0,24,549755813888,204,0, 
0.0167,-398.4,108.0,1222.2,-5030.1,-4806.3,2047.5,-5031.0,456.6,-3112.2,-4925.7,-4885.8,-5071.2,1031.4,7170.3,5296.8,-5560.2,-6.9,-5.7,-5176.5,7258.2,-0.6,-4829.7,848.4,-3366.0,0,30,549755813888,205,0, 
0.0200,-184.5,98.7,1358.7,-893.7,-680.4,2020.5,-916.5,-124.5,-3853.2,-775.2,-741.3,-936.0,1361.1,7341.3,4095.9,-4695.0,-6.9,-5.7,-1063.5,-4440.6,-0.6,-683.7,1179.3,-53.1,0,36,549755813888,206,0, 
0.0233,559.8,13.5,231.0,4519.2,4730.1,-659.1,4478.4,-516.3,-2667.6,4638.3,4681.2,4485.3,-433.5,4121.7,-3350.1,-2731.8,-6.6,-5.7,4345.5,-9830.1,-0.9,4736.4,1007.1,4448.7,0,42,549755813888,207,0, 
0.0267,666.0,-94.8,-637.5,3299.1,3520.2,-2152.8,3272.1,-245.4,-963.3,3397.5,3459.0,3263.7,-1841.7,1819.5,-6568.2,-2590.2,-6.9,-6.0,3132.0,-2497.8,-0.6,3504.6,441.9,3594.9,0,48,549755813888,208,0, 
0.0300,262.5,134.7,138.0,-2460.3,-2227.2,-298.8,-2472.0,558.9,-1556.1,-2367.6,-2311.2,-2502.3,-737.4,3997.5,-990.6,-4280.1,-7.2,-5.7,-2609.7,8513.1,-0.9,-2262.9,636.0,-1122.9,0,54,549755813888,209,0, 
0.0333,-456.0,10.8,1170.0,-5227.5,-5000.1,2115.3,-5237.4,498.6,-3260.4,-5126.4,-5076.9,-5266.8,1033.8,7047.0,5273.1,-5733.0,-6.6,-6.0,-5372.7,7366.5,-0.9,-5024.1,818.1,-3568.5,0,60,549755813888,210,0, 
0.0367,-159.3,153.6,1310.1,-974.7,-764.7,2181.6,-1006.2,-68.4,-4149.6,-864.6,-823.5,-1016.7,1397.4,7314.6,4115.1,-4718.1,-7.2,-5.7,-1144.2,-4462.5,-0.6,-772.8,1142.4,-177.3,0,66,549755813888,211,0, 
0.0400,631.2,65.1,169.2,4617.6,4827.6,-504.0,4574.4,-505.8,-2519.4,4735.5,4775.4,4576.5,-402.3,3987.6,-3435.6,-2687.1,-6.9,-6.0,4437.0,-9830.1,-0.6,4825.5,948.9,4468.8,0,72,549755813888,212,0, 
0.0433,734.7,-107.1,-672.9,3536.4,3754.2,-2049.0,3512.1,-131.7,-741.0,3640.8,3695.4,3494.1,-1864.5,1929.6,-6703.2,-2377.2,-6.6,-6.0,3368.4,-2437.8,-0.3,3737.7,481.8,3761.7,0,78,549755813888,213,0, 
0.0467,214.5,72.0,112.8,-2350.5,-2131.2,-322.5,-2358.0,659.7,-1259.7,-2262.6,-2207.4,-2400.0,-717.3,4081.2,-1151.1,-4129.8,-6.9,-5.7,-2501.4,8772.3,-0.6,-2163.0,591.3,-1058.7,0,84,549755813888,214,0, 
0.0500,-451.2,95.1,1131.3,-5163.9,-4950.3,2058.3,-5174.7,492.6,-3260.4,-5070.6,-5016.0,-5208.0,1041.0,7242.6,5303.1,-5623.5,-6.6,-6.0,-5311.8,7660.8,-0.6,-4974.9,753.9,-3522.9,0,90,549755813888,215,0, 
0.0533,-81.9,123.3,1334.7,-902.7,-696.3,2175.9,-932.1,-69.9,-4075.5,-789.3,-748.8,-942.6,1402.2,7484.7,4186.2,-4657.5,-6.9,-6.0,-1070.1,-4511.7,-0.6,-700.5,1077.3,-86.1,0,96,549755813888,216,0, 
0.0567,678.6,-36.3,156.3,4721.7,4925.1,-588.9,4677.3,-540.9,-2445.3,4830.3,4881.9,4680.9,-477.6,4059.9,-3557.1,-2658.0,-6.9,-6.3,4540.5,-9830.1,-1.2,4930.5,928.8,4598.1,0,102,549755813888,217,0, 
0.0600,787.8,-138.3,-783.0,3549.9,3756.0,-2169.9,3516.3,-364.8,-815.1,3643.2,3698.7,3506.1,-1967.4,1849.2,-6906.9,-2432.7,-6.3,-6.0,3374.4,-2547.6,-0.9,3747.3,511.2,3755.7,0,108,549755813888,218,0, 
0.0633,330.9,176.7,86.4,-2463.0,-2250.3,-364.2,-2479.8,468.9,-1407.9,-2378.1,-2324.4,-2515.8,-804.3,4047.6,-1175.7,-4189.5,-6.9,-5.7,-2624.4,8784.3,-0.6,-2281.2,711.6,-1160.4,0,114,549755813888,219,0, 
0.0667,-390.3,103.5,1194.6,-5432.7,-5221.2,2102.1,-5439.0,333.0,-3408.6,-5343.0,-5293.2,-5481.6,1078.2,7266.9,5430.9,-5720.1,-6.9,-6.0,-5586.3,7942.5,-0.9,-5245.5,948.6,-3767.4,0,120,549755813888,220,0, 
0.0700,-115.5,111.6,1367.1,-1014.9,-804.3,2168.4,-1031.7,-216.6,-4001.4,-902.7,-860.4,-1051.8,1395.3,7464.3,4285.5,-4734.6,-7.2,-6.0,-1177.5,-4629.3,-0.9,-808.8,1212.6,-199.2,0,126,549755813888,221,0, 
0.0733,621.3,-63.3,89.7,4789.5,4993.8,-606.6,4751.7,-747.6,-2519.4,4904.4,4950.9,4752.9,-575.7,3969.3,-3603.3,-2688.3,-7.5,-5.7,4607.1,-9830.1,-0.6,5000.1,928.8,4621.5,0,132,549755813888,222,0, 
0.0767,818.1,-266.7,-851.1,3687.0,3896.7,-2296.5,3668.4,-447.3,-815.1,3783.0,3841.2,3647.1,-2064.0,1722.9,-7125.3,-2379.6,-6.6,-6.0,3516.0,-2711.7,-0.6,3889.2,517.8,3873.6,0,138,549755813888,223,0, 
0.0800,282.0,-7.5,-54.9,-2621.7,-2402.4,-397.5,-2622.9,381.0,-1556.1,-2530.8,-2479.2,-2667.9,-806.4,3999.0,-1260.3,-4282.5,-7.2,-5.7,-2774.1,8966.7,-0.3,-2433.0,660.6,-1264.8,0,144,549755813888,224,0, 
0.0833,-362.7,12.6,1227.0,-5589.3,-5371.5,2224.8,-5593.5,412.2,-3408.6,-5491.8,-5447.1,-5633.4,1251.0,7374.9,5657.1,-5799.0,-6.6,-5.4,-5739.9,8264.1,-0.3,-5394.0,949.2,-3876.6,0,150,549755813888,225,0, 
0.0867,-56.7,69.3,1473.9,-1025.7,-818.7,2212.2,-1053.9,-187.2,-4223.7,-911.1,-871.2,-1064.7,1626.0,7584.3,4484.4,-4780.8,-6.9,-5.7,-1196.7,-4652.1,-0.6,-820.8,1227.6,-220.2,0,156,549755813888,226,0, 
0.0900,706.5,-121.8,226.2,4993.5,5201.4,-662.1,4956.0,-732.3,-2445.3,5106.3,5149.2,4953.6,-419.4,3955.8,-3749.4,-2602.8,-6.9,-6.3,4807.5,-9830.1,-0.6,5205.9,1096.5,4799.4,0,162,549755813888,227,0, 
0.0933,851.4,-290.1,-795.9,3820.8,4030.8,-2359.5,3799.5,-475.5,-666.9,3920.1,3969.6,3776.4,-1999.8,1561.5,-7364.4,-2344.8,-6.6,-5.7,3645.3,-2773.2,-0.6,4023.0,577.8,3974.7,0,168,549755813888,228,0, 
0.0967,391.5,93.0,142.2,-2594.4,-2376.9,-253.2,-2595.9,539.4,-1333.8,-2501.4,-2454.0,-2643.3,-753.9,3917.4,-1177.5,-4224.9,-6.6,-5.7,-2748.0,9169.5,-0.6,-2400.0,867.0,-1272.6,0,174,549755813888,229,0, 
0.1000,-416.1,135.0,1431.6,-5774.4,-5560.2,2357.1,-5772.6,519.9,-3334.5,-5679.0,-5635.2,-5821.2,1266.9,7420.8,5938.8,-5922.0,-7.2,-6.0,-5926.2,8559.0,-0.9,-5580.9,1062.9,-4051.8,0,180,549755813888,230,0, 
0.1033,-151.2,90.0,1660.8,-1001.7,-797.4,2333.7,-1020.0,-147.3,-4001.4,-886.2,-852.0,-1045.2,1641.9,7686.6,4732.5,-4791.6,-7.2,-6.0,-1170.3,-4633.5,-0.6,-796.5,1297.8,-223.8,0,186,549755813888,231,0, 
0.1067,668.4,-79.8,293.1,5305.8,5508.0,-706.2,5268.3,-789.9,-2445.3,5425.5,5462.1,5267.7,-475.5,3874.2,-3869.4,-2468.7,-6.9,-6.0,5118.3,-9830.1,-0.6,5511.9,987.6,5019.3,0,192,549755813888,232,0, 
0.1100,781.5,-345.3,-890.7,4039.2,4251.9,-2613.3,4025.7,-547.2,-518.7,4141.2,4189.8,3995.4,-2311.5,1320.9,-7626.0,-2162.7,-6.9,-6.0,3865.8,-2824.2,-0.6,4249.2,402.9,4161.0,0,198,549755813888,233,0, 
0.1133,326.7,157.2,171.9,-2737.2,-2515.2,-414.3,-2731.5,529.5,-1333.8,-2636.7,-2593.2,-2781.9,-762.6,3930.9,-1115.7,-4170.3,-6.9,-6.0,-2885.7,9356.1,-0.6,-2538.0,799.5,-1342.8,0,204,549755813888,234,0, 
0.1167,-417.3,163.5,1548.0,-6064.8,-5853.9,2288.1,-6065.1,421.5,-3334.5,-5966.7,-5924.7,-6113.7,1433.7,7576.2,6354.6,-5926.8,-7.2,-6.3,-6209.4,8638.5,-0.6,-5869.5,1052.4,-4266.9,0,210,549755813888,235,0, 
0.1200,-117.3,81.0,1605.9,-1121.1,-913.2,2251.8,-1133.7,-305.7,-4297.8,-998.4,-962.4,-1158.0,1808.1,7814.4,4894.5,-4862.4,-6.9,-6.0,-1285.2,-4779.9,-0.9,-903.9,1191.9,-312.3,0,216,549755813888,236,0, 
0.1233,741.3,-171.6,119.4,5448.9,5648.4,-825.9,5418.3,-813.3,-2371.2,5573.1,5607.9,5408.7,-387.9,3865.2,-3815.7,-2495.1,-6.6,-5.7,5261.7,-9830.1,-0.9,5667.0,991.2,5146.8,0,222,549755813888,237,0, 
0.1267,704.7,-447.9,-1127.7,4095.3,4304.7,-2842.8,4084.5,-712.5,-666.9,4204.2,4248.6,4053.6,-2314.8,1241.4,-7823.7,-2205.9,-6.6,-5.4,3919.5,-2963.7,-0.3,4308.0,329.4,4196.7,0,228,549755813888,238,0, 
0.1300,361.8,106.2,68.1,-2827.8,-2607.3,-482.4,-2813.7,465.9,-1259.7,-2732.7,-2685.3,-2875.2,-655.5,4026.9,-1029.9,-4176.6,-6.9,-6.0,-2976.0,9496.2,-0.6,-2631.0,735.6,-1421.1,0,234,549755813888,239,0, 
0.1333,-490.5,123.0,1467.6,-6214.2,-5994.3,2414.7,-6198.0,401.4,-3482.7,-6110.1,-6070.2,-6258.3,1555.5,7822.2,6556.8,-5953.2,-6.6,-6.0,-6357.6,8786.7,-0.6,-6015.0,948.9,-4404.6,0,240,549755813888,240,0, 
0.1367,-147.6,234.3,1680.9,-1082.7,-869.4,2498.7,-1093.8,-250.8,-4075.5,-955.2,-927.6,-1122.3,1939.5,8091.6,5198.4,-4757.1,-6.6,-5.7,-1246.8,-4618.2,-0.9,-870.3,1363.2,-293.1,0,246,549755813888,241,0, 
0.1400,664.8,-26.7,123.6,5659.5,5865.6,-723.0,5633.1,-908.4,-2593.5,5784.9,5820.0,5622.6,-448.5,3885.9,-3978.0,-2326.8,-6.6,-6.0,5473.2,-9830.1,-0.9,5883.6,1008.9,5326.5,0,252,549755813888,242,0, 
0.1433,751.8,-246.3,-1136.4,4281.6,4488.6,-2837.4,4265.1,-696.3,-444.6,4386.3,4431.3,4236.0,-2321.4,1190.1,-7947.6,-2059.5,-6.9,-6.0,4104.9,-2988.6,-0.6,4487.7,357.3,4381.5,0,258,549755813888,243,0, 
0.1467,307.5,241.8,67.2,-2969.1,-2755.5,-567.9,-2962.8,450.6,-1259.7,-2876.4,-2831.4,-3022.2,-738.6,3900.3,-1061.7,-4197.0,-6.9,-5.7,-3118.8,9540.9,-0.9,-2779.8,699.9,-1559.1,0,264,549755813888,244,0, 
0.1500,-488.4,303.3,1469.1,-6390.6,-6178.8,2406.9,-6384.0,433.8,-3556.8,-6288.6,-6248.7,-6435.6,1614.6,7787.7,6780.9,-6016.8,-6.6,-5.4,-6536.7,8839.5,-0.9,-6190.2,940.5,-4575.0,0,270,549755813888,245,0, 
0.1533,-152.7,376.2,1645.8,-1153.5,-947.4,2383.8,-1160.1,-227.7,-4297.8,-1021.5,-999.9,-1189.8,2014.5,8113.2,5385.6,-4822.2,-6.9,-6.0,-1317.0,-4691.7,-0.6,-933.9,1287.3,-333.9,0,276,549755813888,246,0, 
0.1567,708.3,28.2,25.8,5726.1,5922.6,-897.9,5697.9,-973.8,-2593.5,5858.1,5893.8,5694.6,-410.7,3859.8,-4009.8,-2315.1,-6.6,-6.0,5549.1,-9830.1,-0.9,5957.1,930.9,5340.0,0,282,549755813888,247,0, 
0.1600,746.4,-343.2,-1282.5,4399.8,4602.9,-3057.6,4386.3,-760.2,-666.9,4508.7,4554.9,4362.6,-2418.0,966.0,-8350.8,-2056.8,-6.9,-6.0,4230.3,-3152.7,-0.6,4621.2,300.0,4451.4,0,288,549755813888,248,0, 
0.1633,266.1,202.5,-81.3,-3225.6,-3006.9,-564.9,-3212.4,473.7,-1185.6,-3129.6,-3076.8,-3262.8,-739.5,3960.9,-1047.9,-4270.5,-6.9,-6.0,-3364.2,9582.0,-0.9,-3022.5,699.0,-1777.2,0,294,549755813888,249,0, 
0.1667,-669.6,229.8,1417.8,-6942.6,-6730.2,2584.5,-6930.0,443.1,-3556.8,-6836.7,-6796.8,-6981.0,1801.8,8096.1,7189.5,-6276.6,-6.9,-6.0,-7078.8,9013.2,-0.6,-6739.2,865.2,-5049.3,0,300,549755813888,250,0, 
0.1700,-215.4,328.8,1735.5,-1191.0,-985.2,2585.7,-1209.6,-228.3,-4520.1,-1065.6,-1035.9,-1228.5,2153.7,8483.1,5687.4,-4889.1,-6.9,-6.0,-1354.5,-4816.2,-0.6,-968.7,1260.0,-407.7,0,306,549755813888,251,0, 
0.1733,702.3,-98.4,-11.1,6083.7,6281.7,-947.4,6046.8,-933.3,-2667.6,6203.7,6242.4,6051.0,-539.7,3855.0,-4344.6,-2220.3,-7.2,-5.7,5890.8,-9830.1,-0.9,6308.1,903.3,5621.4,0,312,549755813888,252,0, 
0.1767,763.5,-482.7,-1443.9,4528.5,4737.0,-3182.7,4508.4,-756.0,-518.7,4630.8,4682.7,4487.1,-2652.9,776.4,-8706.0,-2001.3,-6.9,-6.0,4352.4,-3188.7,-0.9,4736.1,102.3,4560.6,0,318,549755813888,253,0, 
0.1800,393.3,146.7,-81.9,-3260.1,-3042.3,-509.7,-3256.5,580.2,-1185.6,-3169.8,-3118.5,-3311.4,-780.9,3925.5,-1095.3,-4250.4,-7.2,-6.3,-3409.5,9685.2,-0.9,-3069.0,632.7,-1789.8,0,324,549755813888,254,0, 
0.1833,-493.5,217.8,1547.7,-6893.1,-6681.0,2622.9,-6894.3,581.1,-3556.8,-6798.6,-6752.1,-6942.6,1776.0,8123.7,7305.6,-6217.5,-7.2,-5.7,-7037.4,9014.7,-0.3,-6702.6,856.5,-4992.6,0,330,549755813888,255,0, 
0.1867,-96.0,349.8,1800.0,-1200.3,-994.8,2628.0,-1218.9,-191.1,-4446.0,-1083.0,-1048.2,-1239.3,2181.9,8412.6,5768.7,-4893.6,-7.2,-5.7,-1368.3,-4701.6,-0.9,-990.6,1196.7,-418.8,0,336,549755813888,0,0, 
0.1900,711.6,-27.9,9.3,6100.5,6297.0,-974.7,6062.7,-979.2,-2593.5,6225.3,6257.7,6061.5,-545.1,3764.7,-4280.1,-2238.0,-6.6,-6.0,5906.7,-9830.1,-0.9,6321.9,847.5,5663.1,0,342,549755813888,1,0, 
0.1933,807.3,-420.9,-1359.6,4518.3,4725.6,-3278.4,4496.4,-732.0,-444.6,4616.4,4669.8,4468.8,-2666.1,723.3,-8627.4,-1938.9,-6.6,-6.0,4341.6,-3085.2,-0.6,4726.2,132.6,4543.5,0,348,549755813888,2,0, 
0.1967,391.5,213.3,-59.7,-3253.2,-3033.0,-629.7,-3248.4,583.5,-1111.5,-3156.3,-3111.0,-3302.4,-839.1,3930.6,-999.9,-4220.1,-6.9,-6.0,-3400.2,9656.7,-0.9,-3062.4,624.0,-1775.1,0,354,549755813888,3,0, 
0.2000,-621.6,318.3,1614.3,-7042.5,-6823.2,2618.1,-7033.8,459.0,-3630.9,-6941.7,-6899.1,-7086.0,1794.3,8137.5,7438.8,-6231.9,-6.9,-6.0,-7185.9,9173.4,-0.6,-6847.8,870.0,-5112.3,0,360,549755813888,4,0, 
0.2033,-178.8,368.1,2006.4,-1164.9,-953.1,2648.7,-1184.4,-221.7,-4520.1,-1038.3,-1010.1,-1203.6,2270.7,8490.0,5922.3,-4882.8,-6.9,-5.7,-1335.3,-4911.0,-0.9,-950.4,1314.9,-381.3,0,366,549755813888,5,0, 
0.2067,631.8,-90.6,47.1,6257.1,6458.7,-1118.1,6216.9,-1081.5,-2519.4,6377.1,6417.0,6210.9,-627.6,3691.2,-4294.8,-2233.8,-6.6,-6.0,6060.3,-9830.1,-0.9,6477.3,832.2,5767.2,0,372,549755813888,6,0, 
0.2100,654.0,-812.7,-1943.4,5956.8,6166.2,-4099.5,5924.7,-1212.0,-370.5,6071.4,6111.9,5906.1,-3479.1,-210.3,-9830.1,-1577.4,-6.9,-5.4,5771.7,-5687.4,-0.9,6167.1,-186.3,5658.6,0,378,549755813888,7,0, 
0.2133,358.2,-123.3,-600.9,-2912.7,-2688.3,-1458.0,-2908.2,439.5,-741.0,-2830.2,-2772.0,-2964.3,-1663.2,2908.2,-2678.7,-3924.6,-6.6,-5.7,-3061.5,9048.0,-0.6,-2725.8,468.6,-1484.1,0,384,550292684800,8,0, 
0.2167,-547.8,153.0,1370.7,-7366.5,-7147.2,2367.6,-7359.9,657.9,-3408.6,-7263.3,-7226.1,-7415.4,1473.3,7915.8,7401.6,-6246.6,-6.9,-5.7,-7503.3,9531.9,-0.6,-7169.1,838.8,-5416.2,0,390,550292684800,9,0, 
0.2200,-180.3,192.6,1564.8,-1350.0,-1140.6,2343.3,-1371.9,-350.4,-4520.1,-1230.0,-1197.3,-1394.4,1983.6,8368.2,5721.3,-4959.0,-7.2,-6.0,-1521.6,-4027.5,-0.6,-1136.1,1118.1,-578.4,0,396,550292684800,10,0, 
0.2233,726.9,-133.5,-260.1,6427.2,6630.9,-1334.4,6389.4,-1121.4,-2445.3,6558.6,6591.9,6386.7,-801.6,3671.4,-4639.2,-2140.8,-6.9,-6.0,6234.3,-9830.1,-0.6,6653.4,815.1,5897.7,0,402,550292684800,11,0, 
0.2267,702.9,-556.8,-1725.6,4651.8,4864.2,-3698.4,4631.7,-881.4,-370.5,4758.0,4806.0,4605.6,-3051.0,476.1,-9154.8,-1931.7,-6.9,-5.7,4474.5,-3016.2,-0.6,4856.4,108.0,4670.4,0,408,550292684800,12,0, 
0.2300,294.0,193.2,-206.7,-3479.1,-3260.7,-828.9,-3472.8,610.8,-1111.5,-3389.4,-3333.6,-3532.5,-1033.5,3790.2,-1066.2,-4323.3,-6.3,-6.0,-3622.5,9711.0,-0.6,-3286.2,695.7,-1935.6,0,414,550292684800,13,0, 
0.2333,-608.4,278.1,1507.5,-7287.9,-7073.4,2570.1,-7284.0,594.3,-3630.9,-7181.7,-7140.0,-7338.0,1604.7,8195.1,7640.4,-6395.1,-6.6,-6.0,-7423.2,9164.4,-0.9,-7093.5,882.9,-5322.3,0,420,550292684800,14,0, 
0.2367,-203.1,359.4,1865.7,-1384.2,-1183.2,2608.8,-1407.3,-138.9,-4668.3,-1260.9,-1224.9,-1423.8,2205.3,8541.3,5994.3,-5048.1,-7.2,-5.7,-1548.9,-4639.2,-0.6,-1166.4,1242.0,-606.9,0,426,550292684800,15,0, 
0.2400,636.3,-60.6,-97.2,6243.3,6442.2,-1193.4,6211.5,-996.3,-2667.6,6376.5,6411.9,6208.2,-705.6,3603.0,-4498.8,-2311.5,-6.9,-6.0,6058.2,-9830.1,-0.9,6474.3,816.0,5766.3,0,432,550292684800,16,0, 
0.2433,749.7,-440.4,-1580.1,4575.9,4782.0,-3457.8,4556.1,-690.9,-592.8,4680.6,4736.1,4535.4,-2885.7,530.7,-8929.2,-1997.1,-6.9,-6.0,4406.1,-3254.1,-0.3,4791.9,84.3,4616.1,0,438,550292684800,17,0, 
0.2467,280.5,195.3,-117.3,-3540.9,-3324.9,-675.0,-3532.2,824.1,-1111.5,-3441.6,-3395.1,-3587.4,-862.5,3783.6,-935.7,-4380.6,-6.9,-5.7,-3681.9,9710.4,-0.9,-3336.6,596.7,-2000.7,0,444,550292684800,18,0, 
0.2500,-656.7,204.0,1533.6,-7321.2,-7109.7,2642.1,-7311.6,746.1,-3705.0,-7217.7,-7171.5,-7363.2,1872.3,8065.8,7800.3,-6473.7,-7.2,-5.7,-7458.3,9114.0,-0.6,-7113.9,852.0,-5352.3,0,450,550292684800,19,0, 
0.2533,-231.3,285.6,1794.9,-1348.2,-1151.1,2724.9,-1367.4,-62.7,-4668.3,-1221.9,-1188.9,-1391.7,2284.8,8428.2,6124.5,-5091.0,-6.9,-5.7,-1508.4,-4701.9,-0.3,-1128.6,1162.8,-559.2,0,456,550292684800,20,0, 
0.2567,720.9,-113.7,-85.2,6399.0,6597.3,-1115.1,6365.4,-896.1,-2667.6,6531.9,6566.1,6363.3,-586.2,3583.8,-4324.5,-2251.5,-6.9,-5.7,6208.8,-9830.1,-0.9,6624.6,754.2,5870.4,0,462,550292684800,21,0, 
0.2600,753.0,-604.2,-1506.6,4780.2,4987.2,-3428.1,4758.9,-686.7,-370.5,4882.2,4933.5,4731.3,-2783.7,403.5,-8929.2,-1909.5,-6.9,-5.7,4605.6,-3131.7,-0.9,4983.0,40.5,4759.5,0,468,550292684800,22,0, 
0.2633,368.7,74.1,-23.4,-3439.8,-3226.8,-552.9,-3435.0,853.2,-1037.4,-3348.9,-3300.6,-3492.9,-764.4,3818.7,-813.3,-4285.2,-6.6,-6.0,-3585.0,9760.8,-0.6,-3251.7,552.6,-1938.9,0,474,550292684800,23,0, 
0.2667,-616.5,140.1,1666.8,-7407.6,-7193.7,2798.7,-7402.5,794.1,-3705.0,-7308.3,-7263.6,-7453.8,1919.4,8293.5,7989.6,-6481.5,-6.9,-5.7,-7548.9,9239.7,-0.9,-7215.3,802.2,-5423.1,0,480,550292684800,24,0, 
0.2700,-223.5,156.6,1927.5,-1396.2,-1194.9,2829.0,-1420.8,-58.2,-4742.4,-1275.6,-1241.4,-1435.2,2394.0,8613.9,6309.3,-5152.8,-6.6,-5.7,-1567.2,-4491.0,-0.9,-1180.8,1116.0,-618.9,0,486,550292684800,25,0, 
0.2733,731.1,-274.2,-162.0,6837.6,7032.6,-1107.6,6790.8,-856.2,-2593.5,6958.8,6996.3,6795.0,-636.3,3420.0,-4771.2,-2104.8,-6.3,-6.0,6635.4,-9830.1,-0.9,7060.8,698.1,6180.0,0,492,550292684800,26,0, 
0.2767,769.5,-744.6,-1827.0,5006.4,5210.1,-3571.8,4977.0,-630.0,-222.3,5098.8,5155.2,4956.6,-3105.9,162.0,-9609.0,-1753.5,-6.3,-6.0,4822.2,-3181.2,-0.9,5209.8,-98.4,4931.7,0,498,550292684800,27,0, 
0.2800,330.6,103.2,-226.8,-3673.8,-3458.7,-498.0,-3674.4,903.3,-963.3,-3592.5,-3539.7,-3729.9,-895.2,3807.3,-958.8,-4295.1,-6.9,-5.7,-3825.9,9830.1,-0.6,-3489.9,571.8,-2155.8,0,504,550292684800,28,0, 
0.2833,-606.9,200.7,1698.9,-7709.7,-7498.8,3044.1,-7707.3,899.4,-3705.0,-7620.9,-7578.6,-7762.2,2127.3,8492.1,8334.9,-6525.3,-6.9,-6.0,-7856.1,9276.9,-0.9,-7524.9,870.3,-5736.3,0,510,825170591744,29,0, 
0.2867,-239.4,207.6,2098.5,-1413.6,-1209.6,2999.7,-1438.2,-6.0,-4668.3,-1290.6,-1254.6,-1451.1,2509.8,8877.0,6575.7,-5085.3,-6.9,-6.3,-1577.4,-4612.8,-0.6,-1201.2,1260.9,-678.9,0,516,825170591744,30,0, 
0.2900,723.3,-359.1,-17.1,6733.5,6927.9,-999.3,6691.8,-911.7,-2593.5,6846.9,6894.9,6689.4,-569.7,3634.5,-4604.4,-2109.3,-6.6,-5.7,6537.6,-9830.1,-1.2,6943.8,750.6,6106.8,0,522,825170591744,31,0, 
0.2933,746.7,-714.9,-1590.6,4949.4,5151.0,-3398.1,4917.0,-730.8,-444.6,5033.4,5097.9,4896.6,-3024.0,300.9,-9349.5,-1786.2,-6.6,-5.4,4765.5,-3263.1,-0.6,5140.5,56.7,4891.5,0,528,825170591744,32,0, 
0.2967,332.4,-45.3,-112.8,-3676.5,-3462.6,-456.0,-3682.8,774.9,-1111.5,-3597.9,-3530.4,-3721.2,-921.6,3686.1,-981.9,-4337.7,-6.9,-6.0,-3818.1,9830.1,-0.9,-3493.8,663.0,-2163.9,0,534,825170591744,33,0, 
0.3000,-654.0,1.5,1732.8,-7707.0,-7495.8,3020.4,-7701.6,635.1,-3853.2,-7620.6,-7566.3,-7750.8,2001.0,8300.4,8074.2,-6577.5,-6.9,-6.0,-7848.6,9227.7,-0.9,-7523.1,834.9,-5711.1,0,540,825170591744,34,0, 
0.3033,-224.7,-27.3,2030.4,-1438.2,-1238.1,2959.2,-1457.4,-191.4,-4890.6,-1330.2,-1281.6,-1474.2,2547.6,8664.6,6351.3,-5124.3,-6.9,-5.7,-1606.8,-4654.2,-0.9,-1239.3,1157.4,-699.0,0,546,825170591744,35,0, 
0.3067,703.2,-482.7,-74.1,6689.1,6886.8,-1058.1,6647.7,-1006.2,-2667.6,6805.2,6859.8,6659.1,-593.7,3498.9,-4706.1,-2144.1,-6.9,-5.7,6500.1,-9830.1,-0.6,6904.2,807.3,6064.8,0,552,825170591744,36,0, 
0.3100,657.3,-846.3,-1693.8,4882.5,5085.9,-3407.4,4854.6,-739.5,-444.6,4975.8,5039.4,4840.8,-2991.0,159.3,-9423.6,-1906.2,-7.2,-6.0,4704.3,-3306.3,-0.6,5081.1,24.6,4834.5,0,558,825170591744,37,0, 
0.3133,204.3,-127.5,-199.8,-3702.6,-3486.0,-515.7,-3703.8,749.7,-1259.7,-3628.2,-3559.8,-3749.1,-906.6,3636.6,-1001.1,-4391.1,-6.6,-5.7,-3847.5,9815.7,-0.9,-3522.6,477.0,-2167.8,0,564,825170591744,38,0, 
0.3167,-666.3,194.4,1716.6,-7671.6,-7458.6,3113.1,-7669.2,816.3,-3705.0,-7584.9,-7527.9,-7719.6,2002.2,8341.5,8274.9,-6538.5,-6.9,-6.0,-7811.4,9281.1,-0.9,-7488.6,813.6,-5683.8,0,570,825170591744,39,0, 
0.3200,-124.5,318.9,2137.5,-1317.0,-1115.7,3159.6,-1349.1,-13.5,-4742.4,-1203.0,-1157.1,-1358.1,2574.6,8684.1,6540.0,-5055.6,-7.2,-6.3,-1479.3,-4547.4,-0.9,-1110.6,1237.8,-563.1,0,576,825170591744,40,0, 
0.3233,822.3,-240.6,94.8,6851.1,7045.2,-878.1,6801.9,-942.6,-2519.4,6969.9,7016.4,6813.6,-561.6,3447.0,-4605.0,-2069.4,-6.9,-6.3,6653.7,-9830.1,-0.9,7068.0,759.9,6213.0,0,582,825170591744,41,0, 
0.3267,776.4,-729.0,-1580.7,5033.7,5235.0,-3493.5,4998.3,-810.3,-296.4,5117.4,5189.4,4990.2,-3074.1,129.3,-9582.6,-1774.2,-6.9,-5.7,4857.9,-3252.0,-0.3,5228.1,-2.1,4965.0,0,588,825170591744,42,0, 
0.3300,404.1,127.8,52.2,-3591.0,-3378.3,-454.8,-3600.3,753.0,-963.3,-3516.9,-3447.3,-3632.7,-827.7,3720.6,-1058.1,-4290.0,-7.2,-6.0,-3736.5,9828.9,-0.3,-3410.7,661.2,-2030.1,0,594,825170591744,43,0, 
0.3333,-613.8,242.4,1903.2,-7620.3,-7411.2,3070.2,-7618.8,695.1,-3482.7,-7526.1,-7476.0,-7662.9,1978.2,8339.1,8166.3,-6494.7,-6.6,-6.0,-7760.1,9299.4,-0.9,-7430.1,883.5,-5628.0,0,600,825170591744,44,0, 
0.3367,-188.1,339.0,2203.2,-1340.7,-1140.0,3155.4,-1360.8,-211.2,-4668.3,-1224.9,-1179.0,-1371.3,2448.3,8675.1,6323.7,-5067.6,-6.9,-6.0,-1503.6,-4521.3,-0.9,-1128.3,1269.9,-587.7,0,606,825170591744,45,0, 
0.3400,705.9,-263.1,49.8,6806.1,6997.2,-936.3,6761.7,-1119.6,-2593.5,6927.0,6977.4,6774.9,-626.4,3421.2,-4836.3,-2159.1,-6.6,-6.3,6615.6,-9830.1,-0.9,7026.3,766.8,6164.1,0,612,825170591744,46,0, 
0.3433,701.4,-747.6,-1540.5,4988.7,5190.3,-3339.9,4969.2,-822.9,-370.5,5083.8,5146.2,4945.5,-3017.4,48.0,-9686.4,-1817.7,-6.9,-5.7,4813.8,-3270.0,-0.6,5186.4,38.4,4919.7,0,618,825170591744,47,0, 
0.3467,319.2,129.9,81.3,-3676.8,-3458.1,-359.7,-3665.7,734.1,-1111.5,-3588.0,-3529.8,-3720.9,-852.6,3681.6,-1161.6,-4335.9,-6.9,-5.7,-3815.7,9830.1,-0.9,-3486.0,722.4,-2130.9,0,624,825170591744,48,0, 
0.3500,-601.2,240.3,1938.6,-7729.2,-7516.2,3210.3,-7721.4,723.3,-3853.2,-7630.5,-7582.2,-7770.3,2047.8,8396.7,8086.8,-6545.7,-6.6,-5.7,-7864.8,9282.0,-0.3,-7538.4,983.1,-5708.7,0,630,825170591744,49,0, 
0.3533,-157.5,325.2,2223.9,-1325.7,-1120.2,3179.7,-1343.7,-102.3,-4742.4,-1199.1,-1160.7,-1354.2,2544.9,8755.8,6256.8,-5019.6,-6.9,-6.0,-1481.4,-4610.7,-0.9,-1113.6,1357.5,-579.6,0,636,825170591744,50,0, 
0.3567,699.3,-335.7,19.8,6859.8,7057.8,-1011.3,6823.8,-1120.5,-2593.5,6984.9,7029.9,6830.1,-699.6,3435.3,-4972.8,-2095.5,-6.6,-5.4,6669.9,-9830.1,-0.6,7082.1,850.5,6213.3,0,642,825170591744,51,0, 
0.3600,709.2,-763.2,-1593.3,4990.5,5199.9,-3417.6,4966.5,-894.6,-444.6,5091.3,5149.8,4951.8,-3157.5,52.8,-9823.5,-1845.3,-6.6,-6.3,4815.6,-3304.8,-0.9,5196.9,6.3,4900.2,0,648,825170591744,52,0, 
0.3633,275.4,21.9,-4.5,-3767.1,-3543.9,-367.5,-3758.1,689.1,-1185.6,-3681.6,-3617.4,-3810.0,-889.8,3588.3,-1437.3,-4407.9,-7.2,-5.7,-3906.3,9830.1,-0.6,-3574.2,591.6,-2214.3,0,654,825170591744,53,0, 
0.3667,-725.4,201.6,1867.8,-7860.3,-7641.0,3159.6,-7855.5,663.3,-3779.1,-7764.0,-7707.9,-7896.3,2001.6,8336.4,8018.1,-6629.7,-7.2,-6.0,-7989.9,9267.3,-0.6,-7659.9,818.4,-5832.0,0,660,825170591744,54,0, 
0.3700,-205.2,288.0,2231.1,-1450.8,-1244.4,3192.9,-1475.1,-197.4,-4742.4,-1323.0,-1284.0,-1480.5,2600.1,8694.3,6203.4,-5156.4,-6.9,-6.3,-1608.9,-4597.8,-0.3,-1231.2,1179.3,-694.8,0,666,825170591744,55,0, 
0.3733,662.1,-171.6,168.0,6829.5,7029.3,-937.5,6783.6,-1084.8,-2741.7,6953.4,7003.5,6798.6,-629.7,3373.8,-4975.2,-2132.4,-6.9,-6.0,6640.8,-9830.1,-1.2,7059.3,706.5,6179.7,0,672,825170591744,56,0, 
0.3767,702.9,-576.3,-1514.1,4926.0,5140.5,-3523.5,4902.3,-862.8,-444.6,5033.1,5091.6,4888.2,-3141.6,-26.4,-9830.1,-1888.2,-6.9,-6.0,4757.7,-3287.7,-0.6,5139.3,-111.0,4836.0,0,678,825170591744,57,0, 
0.3800,321.0,177.0,158.4,-3855.9,-3636.0,-361.5,-3848.4,861.9,-1111.5,-3767.4,-3708.9,-3903.3,-951.0,3627.6,-1314.9,-4454.7,-6.6,-6.3,-3992.1,9830.1,-0.9,-3662.4,628.5,-2285.4,0,684,825170591744,58,0, 
0.3833,-653.1,283.2,1970.7,-7922.4,-7701.9,3170.7,-7910.4,734.4,-3853.2,-7817.4,-7771.8,-7962.9,1941.3,8359.8,8116.2,-6699.0,-6.6,-6.0,-8049.3,9270.3,-0.6,-7722.9,791.4,-5907.3,0,690,825170591744,59,0, 
0.3867,-206.1,411.6,2360.1,-1389.9,-1181.1,3261.6,-1405.8,1.8,-4816.5,-1260.3,-1225.5,-1420.5,2489.7,8709.6,6201.9,-5119.5,-7.2,-6.0,-1548.6,-4599.0,-0.6,-1173.6,1248.3,-639.9,0,696,825170591744,60,0, 
0.3900,729.0,-111.9,194.7,6942.9,7147.5,-945.0,6906.6,-960.6,-2667.6,7066.5,7115.4,6912.6,-737.7,3362.7,-5023.8,-2127.0,-7.2,-5.7,6755.7,-9830.1,-0.6,7167.9,706.8,6262.2,0,702,825170591744,61,0, 
0.3933,699.0,-597.3,-1460.1,5064.6,5277.9,-3491.1,5043.3,-700.2,-296.4,5166.9,5227.8,5024.1,-3167.7,-34.5,-9786.6,-1802.7,-6.9,-6.0,4891.2,-3295.2,-0.6,5272.2,-74.1,4960.5,0,708,825170591744,62,0, 
0.3967,271.2,150.9,119.1,-3788.7,-3569.1,-525.6,-3782.4,838.8,-1111.5,-3704.1,-3639.9,-3833.4,-992.7,3579.0,-1285.5,-4413.6,-6.6,-5.7,-3926.1,9830.1,-0.6,-3603.6,513.3,-2239.2,0,714,825170591744,63,0, 
0.4000,-663.9,300.9,1930.5,-7925.7,-7713.3,3112.5,-7923.3,806.4,-3853.2,-7833.6,-7779.6,-7969.8,1902.9,8306.7,8135.4,-6731.1,-6.9,-6.0,-8055.6,9273.3,-0.9,-7738.8,828.9,-5887.8,0,720,825170591744,64,0, 
0.4033,-200.1,427.2,2193.0,-1453.5,-1251.3,3021.9,-1482.3,-43.8,-4816.5,-1334.4,-1293.6,-1491.0,2394.0,8551.2,6140.4,-5206.2,-6.6,-6.0,-1615.2,-4684.5,-0.9,-1246.2,1215.6,-702.0,0,726,825170591744,65,0, 
0.4067,779.4,-34.5,95.7,6876.0,7073.1,-1063.2,6830.7,-929.4,-2667.6,7000.8,7047.6,6845.4,-810.6,3239.7,-5035.8,-2090.4,-6.6,-6.0,6687.9,-9830.1,-0.3,7100.4,646.8,6230.7,0,732,825170591744,66,0, 
0.4100,874.5,-435.0,-1532.7,5088.3,5297.1,-3586.8,5062.2,-653.7,-222.3,5179.5,5245.8,5047.8,-3235.5,-45.0,-9811.5,-1740.9,-6.9,-6.0,4906.8,-3267.0,-0.6,5290.2,-63.0,5000.7,0,738,825170591744,67,0, 
0.4133,471.9,340.8,55.2,-3664.8,-3450.3,-536.7,-3667.5,904.8,-963.3,-3586.2,-3519.3,-3715.5,-1005.3,3600.3,-1382.7,-4338.3,-6.9,-5.7,-3804.9,9830.1,-0.3,-3482.7,573.9,-2132.7,0,744,825170591744,68,0, 
0.4167,-511.8,505.2,1933.5,-7773.3,-7557.3,3039.6,-7779.3,851.1,-3705.0,-7687.2,-7630.8,-7818.9,1948.2,8381.4,8081.1,-6565.5,-6.6,-5.7,-7909.8,9306.9,-0.6,-7587.6,856.8,-5756.4,0,750,825170591744,69,0, 
0.4200,-106.8,542.1,2222.4,-1304.1,-1104.3,3074.4,-1338.3,-46.5,-4890.6,-1197.9,-1150.8,-1349.4,2431.2,8617.2,6067.2,-5047.2,-7.5,-6.0,-1474.8,-4523.7,-0.3,-1099.5,1200.6,-564.3,0,756,825170591744,70,0, 
0.4233,724.8,16.8,29.1,7044.9,7239.3,-1107.3,6995.1,-977.7,-2445.3,7169.1,7208.4,7002.6,-815.1,3300.9,-5155.2,-1972.8,-6.6,-6.0,6851.7,-9830.1,-0.6,7262.7,699.9,6363.3,0,762,825170591744,71,0, 
0.4267,735.0,-437.7,-1607.1,5168.7,5378.7,-3621.0,5139.6,-757.5,-222.3,5264.1,5324.4,5121.6,-3308.4,-96.6,-9830.1,-1686.3,-6.9,-6.0,4990.2,-3204.6,-0.9,5365.8,-37.5,5060.7,0,768,825170591744,72,0, 
0.4300,382.5,279.0,30.0,-3558.6,-3334.2,-433.5,-3555.9,910.2,-963.3,-3471.0,-3415.8,-3611.7,-1050.9,3593.1,-1586.4,-4187.4,-6.9,-5.4,-3700.2,9830.1,-0.3,-3380.1,650.7,-2041.8,0,774,825170591744,73,0, 
0.4333,-555.6,395.7,1938.3,-7669.2,-7451.7,3101.7,-7667.7,926.7,-3556.8,-7571.7,-7527.0,-7711.8,1973.1,8341.5,7995.3,-6441.0,-6.6,-5.7,-7803.0,9311.4,-0.9,-7486.5,831.0,-5664.9,0,780,825170591744,74,0, 
0.4367,-141.9,453.6,2253.6,-1196.4,-993.9,3079.2,-1216.8,-35.1,-4594.2,-1075.8,-1038.9,-1237.5,2457.0,8628.3,5992.8,-4944.6,-6.9,-5.7,-1357.5,-4529.7,-0.9,-993.3,1244.1,-469.5,0,786,825170591744,75,0, 
0.4400,776.1,-119.7,11.4,7071.0,7263.9,-1082.1,7028.4,-1026.3,-2445.3,7193.1,7230.3,7027.2,-888.0,3216.0,-5268.0,-1956.0,-6.9,-6.3,6880.5,-9830.1,-0.3,7277.1,654.9,6383.1,0,792,825170591744,76,0, 
0.4433,685.8,-636.6,-1680.3,5211.9,5419.5,-3614.4,5198.1,-818.4,-148.2,5317.5,5369.7,5161.2,-3463.8,-198.6,-9830.1,-1640.1,-7.2,-6.0,5041.5,-3226.2,-1.2,5412.0,-153.9,5095.8,0,798,825170591744,77,0, 
0.4467,353.4,215.1,33.9,-3513.6,-3299.4,-479.1,-3498.6,878.4,-889.2,-3424.8,-3370.2,-3570.3,-1160.4,3601.5,-1743.3,-4141.2,-6.6,-5.7,-3652.5,9830.1,-0.6,-3333.3,528.6,-2007.0,0,804,825170591744,78,0, 
0.4500,-590.7,283.8,1955.1,-7578.9,-7369.2,3061.8,-7572.3,836.4,-3408.6,-7479.6,-7433.7,-7628.4,1844.7,8403.6,7837.8,-6427.5,-6.9,-5.7,-7706.1,9347.7,-0.9,-7392.6,837.3,-5595.3,0,810,825170591744,79,0, 
0.4533,-137.1,393.0,2200.5,-1113.6,-913.8,3101.1,-1134.9,9.9,-4520.1,-997.5,-957.6,-1156.8,2314.8,8721.0,5833.2,-4938.3,-7.5,-6.0,-1279.5,-4435.8,-0.3,-909.9,1190.7,-409.2,0,816,825170591744,80,0, 
0.4567,742.5,-250.2,-74.7,7093.2,7288.8,-1091.7,7053.0,-978.0,-2297.1,7211.7,7254.6,7053.0,-1052.1,3270.6,-5302.5,-2001.0,-6.9,-6.0,6897.9,-9830.1,-1.2,7309.2,677.1,6420.0,0,822,825170591744,81,0, 
0.4600,730.5,-741.0,-1733.4,5290.8,5496.0,-3593.4,5264.1,-720.0,-74.1,5389.5,5443.2,5246.7,-3509.4,-96.6,-9830.1,-1586.4,-6.3,-5.7,5113.5,-3175.2,-0.6,5488.8,-73.8,5163.9,0,828,825170591744,82,0, 
0.4633,385.2,47.7,-100.5,-3522.3,-3300.6,-511.5,-3522.9,908.7,-815.1,-3446.4,-3384.6,-3575.4,-1189.2,3614.1,-1747.2,-4173.6,-6.6,-6.0,-3664.8,9830.1,-0.9,-3348.0,592.8,-1987.5,0,834,825170591744,83,0, 
0.4667,-655.5,242.4,1696.8,-7622.4,-7401.9,3032.7,-7619.7,887.4,-3482.7,-7534.5,-7481.7,-7668.6,1705.5,8285.7,7733.7,-6453.9,-6.9,-5.7,-7757.7,9299.7,-0.6,-7439.4,845.7,-5649.6,0,840,825170591744,84,0, 
0.4700,-202.5,340.2,2047.8,-1192.8,-982.5,3047.4,-1212.9,22.2,-4594.2,-1078.2,-1037.4,-1230.9,2291.1,8631.0,5703.9,-4960.2,-6.9,-6.3,-1358.7,-4503.3,-0.6,-985.8,1339.8,-469.8,0,846,825170591744,85,0, 
0.4733,666.6,-145.2,-183.0,7002.6,7208.7,-1098.0,6960.0,-976.2,-2445.3,7116.3,7161.0,6965.1,-849.6,3258.6,-5374.8,-1986.9,-7.2,-5.7,6803.1,-9830.1,-1.2,7218.0,748.8,6356.1,0,852,825170591744,86,0, 
0.4767,696.6,-557.7,-1809.0,5147.7,5365.5,-3557.4,5126.1,-768.3,-148.2,5234.7,5298.9,5107.8,-3288.3,-91.2,-9830.1,-1683.6,-6.6,-5.7,4968.3,-3224.4,-0.9,5342.1,-49.5,5032.2,0,858,825170591744,87,0, 
0.4800,398.1,237.6,-166.8,-3556.5,-3326.1,-517.8,-3557.4,910.2,-963.3,-3480.3,-3419.7,-3609.9,-1038.9,3529.8,-1866.6,-4197.0,-6.6,-5.7,-3705.3,9830.1,-0.6,-3379.2,677.4,-2028.9,0,864,825170591744,88,0, 
0.4833,-619.2,284.1,1579.8,-7651.5,-7423.2,2979.9,-7650.9,876.9,-3630.9,-7558.5,-7512.0,-7695.0,1855.8,8182.5,7533.9,-6505.5,-6.9,-5.7,-7787.7,9256.5,-0.6,-7464.0,816.6,-5666.4,0,870,825170591744,89,0, 
0.4867,-183.0,408.0,1993.2,-1228.8,-1013.7,3083.1,-1252.5,120.6,-4668.3,-1113.3,-1076.4,-1265.4,2338.8,8521.5,5621.1,-5028.6,-7.2,-5.7,-1395.9,-4593.6,-0.6,-1024.2,1272.3,-506.4,0,876,825170591744,90,0, 
0.4900,704.4,-148.5,-152.7,6928.2,7137.0,-992.1,6886.8,-760.2,-2519.4,7053.9,7088.7,6892.5,-814.5,3240.0,-5302.5,-2072.4,-6.6,-6.0,6733.5,-9830.1,-0.6,7147.8,839.7,6286.8,0,882,825170591744,91,0, 
0.4933,684.6,-690.6,-1796.7,5102.4,5316.9,-3535.2,5075.1,-573.9,-222.3,5196.3,5252.7,5057.1,-3239.7,-112.8,-9830.1,-1740.9,-6.6,-5.4,4920.3,-3155.7,-0.6,5304.0,90.3,5001.6,0,888,825170591744,92,0, 
0.4967,349.5,179.4,-196.8,-3502.5,-3279.9,-517.5,-3500.1,965.4,-889.2,-3421.5,-3365.1,-3548.1,-994.5,3573.0,-1570.5,-4231.2,-7.2,-5.7,-3649.2,9830.1,-0.3,-3319.8,768.9,-2005.8,0,894,825170591744,93,0, 
0.5000,-689.7,201.3,1608.0,-7494.9,-7274.7,2882.7,-7497.0,807.0,-3630.9,-7408.2,-7360.8,-7538.7,1726.5,8207.4,7743.3,-6498.0,-6.6,-6.0,-7638.0,9253.2,-0.9,-7313.4,958.8,-5562.0,0,900,825170591744,94,0, 
0.5033,-232.2,340.8,1970.7,-1134.9,-922.2,2899.8,-1162.5,11.1,-4594.2,-1027.2,-985.2,-1176.0,2394.6,8531.4,5829.6,-5009.7,-7.2,-5.7,-1305.0,-4530.0,-0.6,-929.1,1340.4,-450.3,0,906,825170591744,95,0, 
0.5067,571.5,-157.8,-144.3,6902.4,7109.1,-1104.9,6853.2,-897.6,-2371.2,7014.6,7055.4,6861.3,-731.7,3331.2,-5129.7,-2081.4,-6.6,-5.7,6701.4,-9830.1,-0.6,7115.4,791.1,6219.9,0,912,825170591744,96,0, 
0.5100,586.2,-649.2,-1794.9,5047.2,5265.6,-3562.2,5018.7,-729.3,-148.2,5142.9,5190.9,4996.5,-3175.8,86.7,-9812.1,-1812.0,-7.2,-5.4,4862.4,-3197.4,-0.9,5243.1,-43.8,4962.6,0,918,825170591744,97,0, 
0.5133,286.2,168.3,-204.3,-3472.8,-3244.2,-605.1,-3479.1,883.5,-889.2,-3393.3,-3340.2,-3524.7,-1015.8,3618.3,-1553.7,-4251.3,-6.9,-6.0,-3619.8,9830.1,-0.9,-3292.8,543.6,-1991.1,0,924,825170591744,98,0, 
0.5167,-612.3,333.0,1680.9,-7480.2,-7253.1,2849.7,-7484.4,847.8,-3556.8,-7389.3,-7341.6,-7528.5,1875.3,8201.7,7704.3,-6473.7,-6.9,-5.7,-7620.3,9235.8,-0.6,-7293.0,820.5,-5537.4,0,930,825170591744,99,0, 
0.5200,-173.7,345.6,1958.4,-1183.5,-968.4,2864.1,-1207.2,13.2,-4668.3,-1062.6,-1030.8,-1220.7,2340.0,8537.1,5906.7,-4991.4,-6.9,-6.0,-1348.2,-4640.1,-1.2,-973.5,1220.7,-487.5,0,936,825170591744,100,0, 
0.5233,707.1,-98.1,-63.0,6770.7,6976.2,-1111.8,6728.7,-907.5,-2519.4,6885.3,6925.2,6730.8,-716.7,3443.1,-4955.7,-2067.0,-6.9,-5.7,6574.8,-9830.1,-0.6,6981.9,747.0,6138.6,0,942,825170591744,101,0, 
0.5267,732.0,-471.3,-1642.8,5007.3,5226.6,-3497.7,4984.8,-705.9,-370.5,5102.4,5154.6,4962.0,-3121.8,261.3,-9668.7,-1754.7,-6.6,-6.0,4821.6,-3210.6,-0.6,5204.7,-21.6,4916.4,0,948,825170591744,102,0, 
0.5300,322.8,264.3,-108.3,-3475.5,-3248.1,-672.9,-3470.1,750.0,-963.3,-3399.9,-3348.3,-3534.3,-983.7,3708.6,-1298.4,-4257.0,-6.6,-5.7,-3631.8,9830.1,-0.6,-3298.8,498.0,-1986.0,0,954,825170591744,103,0, 
0.5333,-646.5,406.2,1721.4,-7392.0,-7169.1,2745.3,-7389.0,696.3,-3556.8,-7310.4,-7261.8,-7446.6,1936.2,8362.2,7864.2,-6388.5,-6.9,-5.7,-7538.4,9247.8,-0.6,-7207.2,783.3,-5454.9,0,960,825170591744,104,0, 
0.5367,-228.3,441.3,2057.4,-1188.9,-978.0,2838.6,-1217.4,-37.2,-4594.2,-1075.2,-1035.0,-1227.3,2491.5,8727.9,6126.6,-4914.6,-7.2,-5.4,-1352.4,-4508.4,-1.2,-978.9,1134.6,-466.8,0,966,825170591744,105,0, 
0.5400,589.5,-113.1,-61.5,6709.2,6914.7,-1142.1,6663.3,-968.7,-2593.5,6833.1,6872.7,6677.4,-540.3,3564.3,-4809.3,-2110.8,-6.9,-5.7,6517.5,-9830.1,-0.9,6928.5,597.9,6087.3,0,972,825170591744,106,0, 
0.5433,644.4,-528.9,-1618.8,4954.8,5169.0,-3494.4,4922.4,-729.0,-148.2,5057.1,5108.7,4910.7,-2921.4,389.1,-9427.5,-1809.9,-6.9,-5.7,4776.9,-3235.2,-0.6,5156.1,-136.8,4877.1,0,978,825170591744,107,0, 
0.5467,233.7,212.7,-98.1,-3502.2,-3282.3,-733.5,-3508.5,745.2,-963.3,-3414.0,-3357.6,-3541.2,-889.5,3831.6,-1053.3,-4288.8,-6.3,-6.3,-3641.1,9828.0,-0.3,-3312.0,423.0,-2025.0,0,984,825170591744,108,0, 
0.5500,-653.4,232.5,1699.2,-7427.7,-7208.1,2682.0,-7426.5,679.2,-3630.9,-7317.3,-7275.0,-7457.1,1905.9,8438.1,7992.6,-6411.9,-6.9,-5.7,-7554.9,9226.5,-0.9,-7229.7,662.4,-5514.9,0,990,825170591744,109,0, 
0.5533,-130.8,260.1,2036.1,-1222.5,-1017.6,2757.0,-1246.2,-136.2,-4594.2,-1093.8,-1061.1,-1248.0,2391.3,8694.3,6227.7,-4977.6,-6.6,-6.0,-1379.1,-4551.3,-0.9,-1007.1,1119.6,-506.1,0,996,825170591744,110,0, 
0.5567,741.0,-242.1,51.6,6700.2,6901.2,-1110.9,6657.9,-964.2,-2519.4,6824.4,6869.1,6667.2,-666.9,3613.5,-4670.7,-2089.5,-6.9,-6.0,6516.0,-9830.1,-0.6,6918.9,612.3,6078.0,0,1002,825170591744,111,0, 
0.5600,743.1,-695.1,-1476.6,4923.6,5135.7,-3428.1,4894.5,-646.5,-296.4,5019.3,5083.8,4884.3,-2934.3,447.3,-9183.6,-1772.7,-6.6,-5.7,4754.4,-3211.2,-0.9,5127.0,-135.3,4841.7,0,1008,825170591744,112,0, 
0.5633,446.4,106.2,123.0,-3387.6,-3166.8,-453.6,-3384.3,887.4,-889.2,-3302.7,-3243.6,-3430.8,-793.5,3956.1,-885.3,-4153.2,-6.9,-6.0,-3530.7,9830.1,-0.6,-3198.9,408.6,-1914.9,0,1014,825170591744,113,0, 
0.5667,-470.1,233.1,1817.7,-7246.5,-7026.6,2920.8,-7242.9,844.8,-3408.6,-7149.6,-7099.2,-7282.8,1981.5,8462.1,8161.8,-6263.1,-6.9,-5.7,-7381.5,9229.8,-1.2,-7052.1,692.4,-5345.1,0,1020,825170591744,114,0, 
0.5700,-69.0,303.9,2100.9,-1050.0,-840.9,2905.2,-1074.3,70.2,-4520.1,-930.9,-893.4,-1081.8,2466.6,8711.4,6391.2,-4814.7,-7.2,-6.0,-1214.7,-4453.2,-0.6,-840.6,1108.8,-356.1,0,1026,825170591744,115,0, 
0.5733,756.0,-247.2,7.2,6749.1,6949.8,-1049.4,6697.5,-924.6,-2371.2,6869.7,6909.9,6715.8,-650.7,3723.3,-4462.5,-1995.6,-6.6,-5.7,6556.2,-9830.1,-0.9,6963.3,632.4,6097.2,0,1032,825170591744,116,0, 
0.5767,745.5,-676.2,-1569.0,4965.9,5180.7,-3450.9,4939.5,-663.0,-148.2,5060.7,5118.0,4927.8,-2911.5,540.9,-9054.3,-1687.8,-6.9,-5.7,4790.4,-3112.8,-1.2,5168.1,-110.7,4888.2,0,1038,825170591744,117,0, 
0.5800,431.1,77.1,-42.6,-3393.6,-3167.1,-480.0,-3391.5,797.1,-815.1,-3308.4,-3249.9,-3431.7,-748.8,3979.8,-712.2,-4128.3,-6.3,-5.7,-3537.9,9830.1,-0.6,-3209.1,527.4,-1906.8,0,1044,825170591744,118,0, 
0.5833,-483.6,126.9,1665.0,-7313.7,-7088.1,2943.6,-7315.2,775.5,-3482.7,-7221.6,-7173.0,-7357.8,1971.9,8441.4,8223.9,-6299.1,-7.2,-5.7,-7449.0,9168.0,-0.6,-7124.7,824.4,-5382.9,0,1050,825170591744,119,0, 
0.5867,-121.8,273.3,1992.6,-1210.8,-1001.7,2967.9,-1240.2,-21.6,-4594.2,-1091.4,-1059.6,-1249.2,2376.0,8716.5,6464.1,-4896.9,-6.9,-6.0,-1379.1,-4554.6,-0.6,-999.3,1278.6,-509.4,0,1056,825170591744,120,0, 
0.5900,682.5,-228.9,4.2,6544.5,6745.8,-1012.2,6494.4,-810.9,-2445.3,6665.4,6704.4,6510.9,-682.5,3694.5,-4350.3,-2112.0,-6.9,-6.3,6352.5,-9830.1,-0.6,6760.2,685.5,5944.5,0,1062,825170591744,121,0, 
0.5933,713.7,-630.3,-1458.9,4923.9,5133.0,-3333.6,4894.8,-480.3,-222.3,5022.3,5075.7,4876.2,-2914.2,512.1,-8821.8,-1678.2,-6.9,-6.3,4745.7,-3207.6,-1.5,5122.5,23.7,4854.3,0,1068,825170591744,122,0, 
0.5967,454.2,86.4,3.3,-3320.7,-3102.9,-483.6,-3321.0,939.3,-815.1,-3239.7,-3178.5,-3367.8,-775.2,3948.3,-526.5,-4017.3,-7.2,-5.7,-3463.2,9809.4,-0.9,-3140.1,689.1,-1841.4,0,1074,825170591744,123,0, 
0.6000,-519.3,219.0,1650.0,-7198.2,-6980.1,2849.1,-7193.4,818.1,-3556.8,-7101.9,-7059.3,-7244.1,1951.8,8406.3,8285.1,-6232.5,-7.2,-5.7,-7337.7,9183.3,-0.9,-7013.7,936.0,-5265.6,0,1080,825170591744,124,0, 
0.6033,-69.9,309.0,1915.2,-1127.4,-924.9,2867.1,-1153.5,-51.6,-4446.0,-1013.1,-975.9,-1169.4,2302.2,8614.2,6468.0,-4848.3,-6.6,-6.0,-1299.0,-4504.8,-0.6,-927.6,1271.4,-396.6,0,1086,825170591744,125,0, 
0.6067,765.9,-111.6,-71.4,6587.4,6790.2,-1002.3,6540.3,-909.6,-2445.3,6702.6,6747.9,6549.0,-667.5,3670.8,-4164.6,-2053.2,-7.2,-5.7,6393.0,-9830.1,-0.9,6794.7,846.3,6001.8,0,1092,825170591744,126,0, 
0.6100,758.7,-570.6,-1566.3,4864.8,5079.6,-3330.3,4833.9,-681.3,-222.3,4956.9,5013.9,4818.9,-2906.7,518.1,-8770.5,-1778.1,-6.6,-6.0,4682.7,-3163.8,-0.9,5061.0,-13.8,4824.0,0,1098,825170591744,127,0, 
0.6133,466.8,224.4,-47.4,-3374.4,-3153.3,-363.6,-3375.9,858.3,-1037.4,-3304.5,-3243.9,-3427.2,-712.2,3899.1,-491.7,-4116.6,-6.9,-5.7,-3532.2,9803.4,-0.9,-3199.5,582.0,-1876.2,0,1104,825170591744,128,0, 
0.6167,-566.4,180.9,1527.3,-7255.2,-7040.1,2788.5,-7258.8,703.8,-3556.8,-7174.5,-7119.6,-7302.0,1865.1,8280.0,8160.9,-6311.4,-6.6,-6.0,-7401.3,9151.5,-0.9,-7074.9,840.9,-5320.8,0,1110,825170591744,129,0, 
0.6200,-167.7,257.7,1915.5,-1152.3,-946.5,2810.7,-1172.7,-46.2,-4668.3,-1041.3,-1003.8,-1194.3,2362.2,8593.8,6534.3,-4853.1,-6.9,-6.0,-1329.3,-4555.5,-0.9,-951.3,1216.8,-414.0,0,1116,825170591744,130,0, 
0.6233,793.2,-184.5,-39.0,6601.5,6798.6,-998.7,6558.9,-884.7,-2371.2,6716.1,6762.0,6565.2,-630.6,3573.3,-4074.0,-2043.3,-6.9,-5.7,6406.2,-9830.1,-0.9,6811.8,724.2,6028.2,0,1122,825170591744,131,0, 
0.6267,789.6,-653.4,-1604.7,4858.8,5061.9,-3297.6,4831.8,-624.6,-370.5,4950.0,5007.6,4812.9,-2901.0,438.0,-8609.7,-1715.7,-6.6,-5.7,4676.1,-3103.5,-0.6,5049.0,-11.4,4809.6,0,1128,825170591744,132,0, 
0.6300,421.2,9.0,-88.2,-3419.4,-3201.0,-517.8,-3414.3,828.0,-963.3,-3330.9,-3274.5,-3462.0,-961.2,3804.0,-505.2,-4176.3,-6.9,-6.0,-3563.7,9819.6,-1.2,-3238.5,564.9,-1920.6,0,1134,825170591744,133,0, 
0.6333,-523.2,155.7,1640.4,-7185.0,-6966.3,2771.4,-7178.7,833.1,-3556.8,-7091.7,-7040.4,-7228.5,1673.4,8270.4,8221.2,-6224.4,-7.5,-6.0,-7322.1,9168.0,-0.6,-6998.1,855.9,-5251.5,0,1140,825170591744,134,0, 
0.6367,-143.1,297.6,1929.0,-1162.8,-957.3,2736.6,-1183.8,49.2,-4520.1,-1046.7,-1007.4,-1199.1,2074.8,8450.7,6420.0,-4824.3,-6.9,-5.7,-1331.4,-4512.6,-0.9,-962.7,1281.0,-423.6,0,1146,825170591744,135,0, 
0.6400,688.5,-257.7,-162.0,6457.2,6657.9,-1122.3,6419.7,-851.7,-2593.5,6579.9,6621.6,6425.1,-877.5,3475.5,-4219.5,-2118.9,-7.2,-6.0,6267.9,-9830.1,-0.9,6669.3,821.4,5904.6,0,1152,825170591744,136,0, 
0.6433,724.8,-655.5,-1653.9,4729.2,4934.7,-3471.3,4710.0,-587.7,-370.5,4828.5,4884.3,4689.6,-3082.5,304.8,-8704.8,-1856.1,-6.6,-6.0,4551.0,-3176.4,-0.3,4920.3,109.2,4698.9,0,1158,825170591744,137,0, 
0.6467,316.5,146.1,-212.4,-3492.6,-3273.9,-534.6,-3491.7,947.1,-1185.6,-3408.6,-3350.7,-3541.2,-1045.2,3728.1,-551.4,-4251.3,-6.6,-6.0,-3637.2,9759.9,-0.3,-3312.0,751.5,-1965.0,0,1164,825170591744,138,0, 
0.6500,-596.4,222.3,1428.3,-7271.7,-7056.3,2789.7,-7270.2,882.9,-3630.9,-7181.7,-7130.4,-7319.7,1602.9,8128.2,8244.9,-6302.7,-6.6,-6.0,-7413.3,9170.7,-0.9,-7090.8,1006.8,-5326.8,0,1170,825170591744,139,0, 
0.6533,-201.0,261.3,1682.4,-1185.6,-981.3,2822.4,-1206.6,67.8,-4594.2,-1068.3,-1029.0,-1221.6,1986.9,8352.9,6513.6,-4857.6,-6.9,-6.0,-1347.9,-4647.9,-0.6,-981.6,1327.2,-432.0,0,1176,825170591744,140,0, 
0.6567,703.8,-212.4,-284.7,6542.4,6742.8,-1046.4,6498.0,-790.8,-2445.3,6663.0,6703.8,6505.8,-958.5,3370.8,-4135.5,-2051.7,-7.2,-6.0,6350.1,-9830.1,-0.9,6748.5,868.2,6008.1,0,1182,825170591744,141,0, 
0.6600,700.8,-688.5,-1865.7,4741.5,4953.3,-3410.4,4722.3,-543.3,-222.3,4833.0,4895.1,4697.7,-3381.6,236.4,-8739.9,-1833.0,-6.9,-5.7,4563.3,-3225.3,-0.9,4936.2,172.5,4728.0,0,1188,825170591744,142,0, 
0.6633,361.2,-17.4,-503.1,-3647.1,-3426.6,-579.0,-3638.4,906.6,-1259.7,-3567.0,-3507.3,-3688.8,-1324.2,3636.0,-495.3,-4328.4,-6.9,-5.4,-3789.9,9776.4,-0.6,-3469.5,752.7,-2094.6,0,1194,825170591744,143,0, 
0.6667,-584.1,159.0,1283.4,-7364.4,-7147.5,2795.1,-7356.0,801.6,-3630.9,-7281.0,-7224.3,-7404.6,1415.4,8119.8,8354.7,-6374.7,-6.9,-5.4,-7503.3,9138.6,-0.9,-7182.3,997.8,-5406.3,0,1200,825170591744,144,0, 
0.6700,-183.6,132.6,1546.8,-1378.2,-1174.2,2808.3,-1398.9,-66.0,-4742.4,-1263.6,-1223.4,-1412.4,1816.2,8267.7,6573.3,-5026.8,-7.2,-6.0,-1543.8,-4706.7,-1.2,-1175.7,1330.5,-589.2,0,1206,825170591744,145,0, 
0.6733,730.5,-258.6,-347.4,6393.3,6591.6,-974.4,6358.5,-811.2,-2667.6,6511.2,6555.3,6358.2,-1185.3,3320.1,-4098.9,-2184.0,-6.9,-5.7,6202.5,-9830.1,-0.6,6596.7,887.1,5856.0,0,1212,825170591744,146,0, 
0.6767,818.7,-608.4,-1856.1,4609.5,4817.4,-3252.0,4595.7,-483.9,-666.9,4706.4,4761.9,4571.4,-3427.5,231.9,-8478.9,-1959.9,-6.9,-5.7,4434.0,-3218.1,-0.6,4799.7,305.4,4641.6,0,1218,825170591744,147,0, 
0.6800,386.4,111.9,-381.0,-3620.7,-3402.9,-403.5,-3611.7,974.1,-1185.6,-3541.5,-3480.6,-3663.3,-1330.8,3530.1,-266.7,-4379.4,-6.9,-6.0,-3762.6,9793.2,-0.6,-3449.7,846.6,-2098.8,0,1224,825170591744,148,0, 
0.6833,-528.3,199.8,1244.4,-7429.8,-7210.2,2905.2,-7420.5,848.4,-3630.9,-7335.9,-7286.1,-7467.9,1364.4,7984.8,8582.1,-6503.4,-7.2,-6.3,-7564.2,9089.4,-0.6,-7248.0,1059.0,-5470.2,0,1230,825170591744,149,0, 
0.6867,-186.6,188.4,1466.1,-1365.0,-1156.8,2885.1,-1383.0,-18.3,-4742.4,-1247.7,-1209.6,-1400.7,1735.5,8236.8,6811.5,-5071.2,-6.9,-6.0,-1529.4,-4776.9,-0.9,-1162.2,1437.9,-594.0,0,1236,825170591744,150,0, 
0.6900,713.4,-283.5,-437.1,6357.6,6560.7,-968.1,6321.9,-810.3,-2667.6,6481.5,6522.6,6330.6,-1088.4,3342.3,-3720.0,-2180.7,-6.9,-6.0,6167.7,-9830.1,-1.2,6565.8,1001.1,5839.2,0,1242,825170591744,151,0, 
0.6933,778.5,-637.8,-1886.4,4595.1,4805.1,-3291.9,4581.0,-584.1,-444.6,4697.4,4750.8,4556.4,-3302.7,226.5,-8201.1,-1906.8,-6.3,-6.3,4421.1,-3343.2,-1.2,4786.5,339.9,4621.8,0,1248,825170591744,152,0, 
0.6967,345.0,15.6,-525.0,-3708.6,-3489.6,-380.1,-3695.7,823.5,-1259.7,-3625.8,-3565.8,-3742.5,-1348.5,3586.5,-25.5,-4371.6,-6.9,-5.7,-3851.4,9767.7,-0.6,-3526.5,774.3,-2162.7,0,1254,825170591744,153,0, 
0.7000,-583.5,82.8,1250.1,-7578.3,-7361.1,2908.8,-7566.9,795.3,-3779.1,-7485.9,-7436.7,-7612.8,1371.6,8000.7,8738.7,-6556.5,-7.2,-6.0,-7718.7,9093.0,-0.6,-7389.6,1092.6,-5571.9,0,1260,825170591744,154,0, 
0.7033,-227.7,130.8,1514.4,-1558.2,-1351.2,2895.3,-1574.1,-6.3,-5112.9,-1431.3,-1396.2,-1580.7,1914.3,8228.4,7130.7,-5190.0,-6.3,-6.0,-1717.5,-4766.7,-0.9,-1349.1,1473.9,-742.8,0,1266,825170591744,155,0, 
0.7067,692.1,-345.0,-420.6,6150.0,6348.3,-897.9,6116.7,-814.2,-2815.8,6277.8,6317.1,6128.7,-960.0,3394.5,-3575.4,-2370.9,-7.2,-6.0,5963.1,-9830.1,-0.6,6363.0,1047.9,5666.1,0,1272,825170591744,156,0, 
0.7100,753.9,-604.2,-1909.5,4398.9,4610.4,-3126.6,4382.7,-499.8,-592.8,4500.6,4557.3,4371.6,-3120.6,235.8,-7956.6,-2030.7,-6.3,-6.3,4226.7,-3414.9,-0.6,4598.4,349.8,4449.0,0,1278,825170591744,157,0, 
0.7133,284.7,46.5,-503.7,-3805.2,-3582.6,-393.6,-3794.7,885.6,-1333.8,-3714.3,-3652.8,-3836.4,-1134.3,3665.4,173.4,-4491.6,-6.9,-6.0,-3936.6,9729.0,-0.3,-3612.9,940.5,-2247.0,0,1284,825170591744,158,0, 
0.7167,-651.9,73.2,1172.7,-7701.0,-7484.4,2890.5,-7695.3,816.9,-3853.2,-7591.2,-7548.3,-7726.2,1566.9,8093.7,8905.5,-6617.4,-6.9,-6.0,-7828.8,9071.1,-0.9,-7504.8,1119.0,-5677.5,0,1290,825170591744,159,0, 
0.7200,-265.2,147.3,1451.1,-1659.9,-1452.6,2900.7,-1673.1,-24.9,-5038.8,-1536.3,-1496.1,-1680.0,2089.5,8309.4,7184.7,-5264.1,-7.5,-6.0,-1816.5,-4860.9,-0.6,-1448.1,1434.0,-808.8,0,1296,825170591744,160,0, 
0.7233,711.6,-245.1,-436.2,6066.0,6265.5,-892.2,6034.5,-717.6,-2964.0,6190.2,6235.5,6048.3,-765.9,3418.2,-3395.7,-2419.5,-6.9,-6.0,5880.3,-9830.1,-1.2,6285.9,1119.9,5621.4,0,1302,825170591744,161,0, 
0.7267,756.9,-661.2,-1937.4,4205.4,4417.2,-3191.4,4193.4,-471.9,-889.2,4308.3,4368.9,4176.9,-2949.6,302.4,-7833.0,-2193.9,-7.2,-6.0,4038.3,-3486.6,-0.6,4414.5,438.3,4286.7,0,1308,825170591744,162,0, 
0.7300,312.9,-56.4,-520.2,-4052.4,-3827.1,-413.1,-4032.9,831.6,-1704.3,-3958.2,-3897.9,-4082.1,-957.6,3692.4,380.4,-4592.7,-6.6,-6.0,-4189.8,9753.0,-0.9,-3860.1,873.3,-2476.8,0,1314,825170591744,163,0, 
0.7333,-686.7,20.7,1203.0,-7912.8,-7689.9,2904.9,-7891.8,692.4,-4075.5,-7809.3,-7758.0,-7937.4,1722.6,8103.6,9025.8,-6727.5,-7.2,-6.3,-8039.1,8979.0,-0.6,-7715.4,1148.4,-5883.9,0,1320,825170591744,164,0, 
0.7367,-321.3,86.1,1578.6,-1802.4,-1588.8,2918.1,-1810.5,-123.3,-4964.7,-1672.2,-1633.8,-1818.0,2167.8,8398.8,7377.6,-5353.5,-6.6,-5.4,-1956.6,-5056.2,-0.9,-1582.5,1505.4,-979.8,0,1326,825170591744,165,0, 
0.7400,561.3,-258.3,-372.9,5848.8,6059.1,-867.3,5829.9,-952.5,-3112.2,5981.7,6023.1,5832.9,-688.8,3467.7,-3305.4,-2595.0,-6.9,-6.0,5666.1,-9830.1,-0.9,6078.3,1143.3,5414.1,0,1332,825170591744,166,0, 
0.7433,764.4,-547.2,-1825.8,4068.9,4284.6,-3121.2,4062.6,-539.1,-963.3,4179.3,4232.1,4038.6,-2834.4,438.3,-7638.9,-2267.4,-6.0,-6.3,3905.1,-3549.6,-0.9,4276.8,466.5,4162.8,0,1338,825170591744,167,0, 
0.7467,293.4,50.7,-434.1,-4211.1,-3985.2,-436.5,-4193.4,902.4,-1778.4,-4116.6,-4057.8,-4243.2,-867.0,3667.2,597.6,-4778.4,-6.9,-6.0,-4340.7,9724.8,-1.2,-4018.2,855.0,-2614.2,0,1344,825170591744,168,0, 
0.7500,-705.9,93.6,1291.8,-8001.0,-7778.7,2778.3,-7982.7,828.0,-4149.6,-7898.7,-7851.0,-8027.7,1809.9,8105.1,9117.6,-6856.5,-6.9,-5.7,-8133.9,8981.7,-0.9,-7797.0,1116.3,-5966.1,0,1350,825170591744,169,0, 
0.7533,-264.6,176.1,1614.0,-1882.5,-1674.3,2815.5,-1890.0,28.8,-5187.0,-1760.1,-1721.7,-1903.5,2347.5,8367.3,7591.8,-5413.8,-7.2,-6.0,-2043.9,-5078.4,-1.2,-1662.6,1504.5,-1014.0,0,1356,825170591744,170,0, 
0.7567,700.5,-195.0,-274.5,5810.4,6014.1,-1011.9,5786.4,-693.6,-3112.2,5944.2,5975.7,5790.3,-527.4,3512.1,-2974.2,-2598.0,-6.6,-6.3,5626.2,-9830.1,-0.9,6036.3,1141.2,5399.1,0,1362,825170591744,171,0, 
0.7600,765.6,-585.3,-1705.2,4013.7,4224.6,-3185.7,4008.9,-411.9,-889.2,4119.3,4171.2,3980.1,-2743.8,418.8,-7439.4,-2352.3,-6.9,-5.7,3843.0,-3639.9,-0.6,4216.5,453.0,4122.6,0,1368,825170591744,172,0, 
0.7633,359.4,-14.4,-310.5,-4229.1,-4006.5,-388.5,-4206.3,979.5,-1778.4,-4128.0,-4084.2,-4263.6,-796.8,3748.8,718.8,-4758.3,-6.6,-6.0,-4367.7,9745.8,-0.6,-4034.7,869.7,-2635.8,0,1374,825170591744,173,0, 
0.7667,-624.6,111.6,1368.6,-8016.0,-7801.2,2901.0,-7993.2,842.7,-4149.6,-7907.1,-7865.7,-8044.8,1905.0,8184.3,9203.1,-6849.6,-7.5,-6.0,-8145.6,8933.7,-0.6,-7816.5,1083.9,-5971.2,0,1380,825170591744,174,0, 
0.7700,-174.3,207.0,1646.7,-1909.2,-1696.5,2829.3,-1911.0,5.1,-5261.1,-1777.5,-1745.7,-1930.5,2420.4,8443.8,7694.1,-5445.3,-6.9,-6.0,-2066.1,-5108.4,-0.9,-1685.4,1471.2,-1074.9,0,1386,825170591744,175,0, 
0.7733,761.4,-269.7,-257.7,5793.3,5997.3,-965.7,5773.5,-750.6,-3186.3,5920.5,5967.6,5777.1,-417.3,3538.8,-2781.0,-2595.9,-6.6,-6.0,5610.0,-9830.1,-0.6,6019.8,993.9,5352.9,0,1392,825170591744,176,0, 
0.7767,879.6,-592.5,-1634.4,3984.0,4192.2,-3209.7,3978.9,-459.0,-963.3,4089.6,4143.0,3954.0,-2547.9,454.2,-7233.3,-2356.8,-6.9,-5.7,3812.7,-3647.7,-0.6,4193.7,314.4,4055.1,0,1398,825170591744,177,0, 
0.7800,344.7,-5.4,-156.3,-4228.8,-4008.0,-495.0,-4204.5,851.4,-1704.3,-4134.9,-4082.4,-4262.7,-633.9,3714.6,855.6,-4777.2,-6.9,-6.0,-4370.4,9720.0,-1.2,-4033.2,821.1,-2627.1,0,1404,825170591744,178,0, 
0.7833,-587.7,50.1,1533.9,-7998.9,-7779.6,2772.0,-7978.2,813.3,-4223.7,-7898.4,-7852.2,-8033.1,1990.8,8202.0,9276.6,-6822.9,-6.9,-6.0,-8137.5,8930.1,-0.9,-7802.4,954.0,-5960.7,0,1410,825170591744,179,0, 
0.7867,-238.2,76.5,1858.8,-1962.6,-1756.5,2771.1,-1971.9,37.5,-5335.2,-1837.2,-1799.4,-1981.8,2439.6,8554.2,7698.0,-5496.9,-7.2,-6.3,-2122.8,-5142.9,-0.9,-1750.8,1399.5,-1107.9,0,1416,825170591744,180,0, 
0.7900,754.8,-221.7,-64.2,5704.2,5910.6,-903.6,5673.0,-793.5,-3334.5,5827.2,5877.0,5688.3,-399.6,3673.2,-2836.8,-2634.9,-6.6,-6.3,5522.4,-9830.1,-0.6,5929.2,984.9,5268.3,0,1422,825170591744,181,0, 
0.7933,875.1,-516.6,-1463.4,3937.2,4152.3,-3053.7,3920.7,-345.0,-1111.5,4038.3,4097.4,3912.6,-2484.9,720.3,-7134.3,-2335.5,-6.9,-6.0,3766.8,-3652.8,-0.6,4142.7,418.2,4031.4,0,1428,825170591744,182,0, 
0.7967,310.2,-60.9,-191.4,-4327.2,-4106.1,-373.8,-4318.8,924.3,-1852.5,-4238.1,-4178.4,-4356.6,-626.4,3838.8,979.5,-4815.6,-6.9,-5.7,-4465.2,9698.4,-0.6,-4134.9,710.4,-2714.7,0,1434,825170591744,183,0, 
0.8000,-537.9,55.2,1610.1,-7998.3,-7775.7,3013.5,-7981.5,960.9,-4371.9,-7896.6,-7843.2,-8017.5,2153.4,8405.1,9354.9,-6825.3,-6.3,-6.0,-8125.2,8910.9,-0.6,-7796.1,1030.8,-5961.0,0,1440,825170591744,184,0, 
0.8033,-134.7,124.5,1931.4,-1867.2,-1667.4,2912.4,-1883.7,89.1,-5038.8,-1744.5,-1712.4,-1890.6,2619.9,8582.1,7759.5,-5400.9,-7.2,-6.0,-2030.4,-5164.5,-1.2,-1651.5,1280.7,-1015.2,0,1446,825170591744,185,0, 
0.8067,876.3,-189.3,7.2,5735.1,5930.7,-826.2,5703.3,-718.5,-3186.3,5859.9,5897.4,5711.1,-116.7,3707.7,-2694.6,-2585.7,-6.6,-5.7,5543.7,-9830.1,-0.6,5961.9,955.5,5307.0,0,1452,825170591744,186,0, 
0.8100,905.4,-552.9,-1339.8,3834.6,4035.0,-3115.8,3819.6,-414.3,-1037.4,3940.5,3989.7,3802.2,-2318.1,672.3,-7055.1,-2408.1,-7.2,-5.7,3662.7,-3646.8,-0.9,4040.7,279.0,3981.9,0,1458,825170591744,187,0, 
0.8133,385.2,47.4,-37.2,-4376.1,-4164.3,-418.5,-4359.9,882.3,-1926.6,-4288.5,-4237.2,-4417.2,-365.7,3932.7,1077.3,-4853.1,-6.9,-6.0,-4523.7,9694.8,-0.6,-4181.4,726.0,-2744.4,0,1464,825170591744,188,0, 
0.8167,-540.3,75.0,1663.8,-8184.9,-7967.1,2872.8,-8166.3,708.6,-4223.7,-8083.5,-8040.3,-8218.2,2245.2,8390.7,9280.8,-6937.8,-6.6,-5.7,-8319.3,8899.5,-0.6,-7985.1,978.9,-6094.5,0,1470,825170591744,189,0, 
0.8200,-173.4,128.1,1923.6,-2040.6,-1838.7,2919.3,-2056.5,-65.1,-5261.1,-1914.3,-1884.9,-2068.5,2750.1,8589.6,7678.2,-5490.6,-7.2,-5.7,-2203.8,-5215.2,-0.6,-1826.4,1368.0,-1168.2,0,1476,825170591744,190,0, 
0.8233,822.6,-181.8,228.3,5679.0,5877.3,-750.6,5645.7,-806.4,-3334.5,5808.3,5837.7,5649.0,-57.0,3786.6,-2623.8,-2608.8,-6.6,-5.7,5490.3,-9830.1,-0.9,5899.8,1049.7,5288.7,0,1482,825170591744,191,0, 
0.8267,961.5,-578.4,-1134.9,3843.0,4056.0,-2967.9,3828.3,-426.9,-1185.6,3954.3,3999.0,3812.1,-2151.0,769.2,-6942.6,-2322.0,-7.2,-6.3,3674.4,-3666.3,-0.6,4049.7,441.6,3982.5,0,1488,825170591744,192,0, 
0.8300,387.9,50.7,126.0,-4374.9,-4154.7,-426.9,-4360.5,814.5,-1926.6,-4284.6,-4228.8,-4408.5,-282.6,3983.7,1158.3,-4845.3,-6.9,-5.7,-4512.0,9696.9,-0.3,-4178.7,771.6,-2739.6,0,1494,825170591744,193,0, 
0.8333,-622.8,63.0,1791.0,-8166.3,-7945.5,2807.4,-8151.6,645.6,-4594.2,-8061.6,-8018.1,-8196.6,2409.0,8330.1,9329.7,-6971.7,-7.2,-6.0,-8295.6,8847.3,-1.2,-7969.2,954.6,-6105.3,0,1500,825170591744,194,0, 
0.8367,-178.8,207.0,2163.3,-2113.2,-1901.4,2839.8,-2132.1,-82.2,-5409.3,-1977.9,-1948.2,-2131.5,2929.8,8666.1,7903.5,-5532.3,-7.2,-6.0,-2268.3,-5301.6,-0.6,-1887.6,1435.8,-1245.0,0,1506,825170591744,195,0, 
0.8400,768.3,-111.0,389.1,5550.0,5755.5,-818.1,5513.7,-757.8,-3482.7,5681.7,5719.2,5528.4,192.3,3879.0,-2476.2,-2695.2,-6.9,-5.7,5368.2,-9830.1,-0.9,5776.8,1088.7,5144.1,0,1512,825170591744,196,0, 
0.8433,833.1,-422.1,-1034.4,3742.8,3955.8,-3037.2,3722.7,-361.2,-1185.6,3856.2,3900.3,3710.4,-1978.2,856.5,-6803.4,-2388.9,-6.6,-6.0,3576.9,-3779.4,-0.3,3956.1,458.4,3864.9,0,1518,825170591744,197,0, 
0.8467,310.2,108.0,184.2,-4480.8,-4266.3,-401.4,-4476.3,855.0,-2148.9,-4390.2,-4339.8,-4518.3,-86.7,4026.3,1233.0,-4915.8,-6.9,-6.0,-4622.1,9658.8,-0.9,-4287.9,805.2,-2839.8,0,1524,825170591744,198,0, 
0.8500,-624.0,128.1,1903.8,-8205.0,-7989.3,2907.0,-8192.4,736.8,-4520.1,-8102.7,-8059.8,-8234.4,2595.3,8432.4,9310.8,-6997.8,-6.9,-5.7,-8337.0,8839.2,-0.3,-8007.3,1045.5,-6143.4,0,1530,825170591744,199,0, 
0.8533,-180.6,229.5,2279.7,-2109.0,-1905.9,2934.6,-2120.4,-88.2,-5483.4,-1984.5,-1951.2,-2138.1,3026.4,8697.0,7841.1,-5540.4,-7.2,-6.0,-2270.4,-5373.9,-0.9,-1895.7,1420.2,-1238.4,0,1536,825170591744,200,0, 
0.8567,866.7,-137.4,427.2,5508.0,5709.0,-669.0,5481.6,-775.2,-3408.6,5639.4,5676.3,5481.3,186.0,3954.3,-2499.3,-2682.3,-6.9,-6.0,5327.7,-9830.1,-0.6,5735.4,1049.1,5139.6,0,1542,825170591744,201,0, 
0.8600,887.7,-489.6,-1006.5,3660.0,3864.3,-2912.4,3654.9,-542.7,-1407.9,3762.6,3814.8,3626.7,-1981.8,963.0,-6838.2,-2463.0,-6.9,-6.3,3489.9,-3835.8,-0.9,3867.9,452.4,3816.9,0,1548,825170591744,202,0, 
0.8633,338.1,3.9,312.9,-4532.7,-4316.4,-261.0,-4510.8,739.8,-2148.9,-4441.2,-4392.0,-4572.0,-106.2,4087.5,1174.5,-4998.9,-6.6,-6.0,-4671.6,9625.2,-0.9,-4336.5,831.0,-2871.9,0,1554,825170591744,203,0, 
0.8667,-573.9,74.7,1903.2,-8281.5,-8073.3,3018.6,-8264.1,661.2,-4668.3,-8175.6,-8138.7,-8322.0,2481.0,8515.5,9345.0,-7057.2,-6.9,-6.0,-8414.4,8812.2,-0.9,-8087.1,1065.6,-6194.7,0,1560,825170591744,204,0, 
0.8700,-180.3,165.6,2175.0,-2257.5,-2056.8,2959.8,-2263.5,-256.8,-5483.4,-2134.5,-2102.4,-2288.7,2956.8,8683.2,7695.9,-5691.0,-7.8,-5.7,-2418.3,-5435.1,-0.6,-2038.8,1377.3,-1369.5,0,1566,825170591744,205,0, 
0.8733,861.9,-73.8,458.1,5335.2,5536.2,-714.9,5314.2,-915.9,-3408.6,5468.7,5501.4,5310.3,191.4,3938.7,-2531.1,-2813.7,-6.9,-6.0,5152.5,-9830.1,-0.9,5562.6,1128.6,4989.9,0,1572,825170591744,206,0, 
0.8767,1027.5,-354.6,-905.1,3571.2,3787.8,-2776.5,3567.3,-467.7,-1407.9,3675.0,3730.5,3540.9,-1857.9,959.7,-6807.6,-2496.6,-6.6,-6.6,3404.7,-3828.6,-0.9,3787.2,606.6,3762.6,0,1578,825170591744,207,0, 
0.8800,412.5,60.0,411.0,-4514.4,-4290.9,-221.4,-4497.3,669.3,-2000.7,-4423.5,-4371.6,-4552.8,-105.9,4167.9,1179.6,-4956.3,-6.9,-6.0,-4653.0,9634.2,-1.2,-4326.6,906.6,-2871.6,0,1584,825170591744,208,0, 
0.8833,-618.9,67.8,2059.5,-8233.5,-8005.5,3063.9,-8208.0,546.9,-4594.2,-8130.3,-8085.6,-8267.1,2526.9,8485.5,9313.2,-7059.9,-6.9,-6.0,-8362.8,8794.2,-0.6,-8028.0,1009.8,-6166.8,0,1590,825170591744,209,0, 
0.8867,-168.9,195.3,2402.7,-2070.0,-1854.3,3087.3,-2073.6,-157.5,-5483.4,-1946.4,-1911.3,-2097.9,2968.2,8658.9,7764.9,-5497.2,-6.9,-6.0,-2233.2,-5400.0,-0.9,-1851.0,1431.6,-1171.5,0,1596,825170591744,210,0, 
0.8900,832.8,-180.9,596.7,5432.1,5640.6,-641.1,5411.4,-851.1,-3334.5,5562.0,5595.3,5401.8,217.8,3848.1,-2518.2,-2751.0,-7.5,-6.3,5247.0,-9830.1,-0.3,5654.4,1053.9,5060.4,0,1602,825170591744,211,0, 
0.8933,936.9,-432.3,-686.1,3635.7,3854.1,-2766.0,3632.7,-378.6,-1407.9,3743.4,3790.5,3598.8,-1887.9,919.5,-6798.9,-2438.7,-6.9,-6.0,3465.6,-3739.2,-0.9,3840.3,489.3,3829.8,0,1608,825170591744,212,0, 
0.8967,380.4,-44.4,503.4,-4499.1,-4274.4,-190.5,-4475.4,786.0,-2223.0,-4406.1,-4356.3,-4539.9,-85.8,4047.9,1154.4,-4954.8,-6.9,-6.3,-4638.6,9641.1,-1.2,-4309.2,756.3,-2868.3,0,1614,825170591744,213,0, 
0.9000,-516.9,24.9,2197.2,-8216.1,-7998.6,3031.5,-8199.3,739.8,-4668.3,-8111.1,-8073.9,-8258.1,2446.8,8419.8,9295.8,-6978.6,-6.6,-5.7,-8347.8,8785.2,-0.9,-8024.1,1022.7,-6144.3,0,1620,825170591744,214,0, 
0.9033,-0.3,165.6,2491.5,-2118.9,-1909.8,2992.2,-2134.5,-0.9,-5631.6,-1999.2,-1965.6,-2151.9,2967.3,8598.0,7742.7,-5558.7,-7.5,-6.3,-2278.8,-5433.3,-0.6,-1905.6,1383.6,-1230.9,0,1626,825170591744,215,0, 
0.9067,936.6,-135.3,665.4,5421.6,5624.4,-672.9,5385.9,-705.9,-3630.9,5545.2,5583.9,5386.8,245.4,3898.2,-2564.1,-2694.3,-6.9,-6.0,5240.7,-9830.1,-0.9,5641.2,1113.0,5066.4,0,1632,825170591744,216,0, 
0.9100,1026.9,-367.2,-660.6,3702.3,3911.1,-2721.0,3685.5,-358.8,-1111.5,3798.3,3853.5,3655.8,-1869.3,1009.8,-6909.0,-2410.8,-6.9,-5.7,3528.9,-3762.0,-0.9,3906.3,416.1,3856.8,0,1638,825170591744,217,0, 
0.9133,484.8,177.0,673.2,-4389.0,-4165.5,-99.0,-4380.0,914.1,-1926.6,-4298.7,-4243.2,-4430.1,-110.1,4164.3,1023.3,-4833.9,-6.6,-6.0,-4525.2,9675.0,-0.6,-4199.4,763.8,-2728.5,0,1644,825170591744,218,0, 
0.9167,-461.4,165.9,2236.5,-8119.8,-7902.3,3027.9,-8115.9,675.9,-4520.1,-8023.5,-7976.7,-8161.2,2510.4,8581.8,9322.2,-6873.0,-7.2,-6.3,-8252.4,8744.7,-0.9,-7931.7,927.3,-6053.1,0,1650,825170591744,219,0, 
0.9200,-92.1,231.3,2416.5,-2094.3,-1883.4,2916.3,-2113.8,-129.9,-5409.3,-1974.6,-1936.8,-2127.9,2920.2,8771.1,7591.2,-5482.8,-6.6,-5.7,-2252.1,-5445.6,-0.6,-1882.2,1263.0,-1199.7,0,1656,825170591744,220,0, 
0.9233,970.2,-69.9,637.5,5408.7,5617.8,-718.5,5373.6,-783.9,-3334.5,5535.0,5574.3,5380.2,152.7,4002.3,-2769.9,-2693.1,-6.9,-6.0,5231.4,-9830.1,-0.9,5623.8,958.2,5061.9,0,1662,825170591744,221,0, 
0.9267,1048.8,-318.3,-688.8,3620.1,3834.6,-2831.4,3603.0,-334.8,-1185.6,3718.5,3775.5,3576.9,-1842.0,1104.0,-6884.1,-2429.1,-6.6,-5.7,3453.9,-3757.5,-0.3,3819.6,474.3,3817.2,0,1668,825170591744,222,0, 
0.9300,553.8,206.4,580.8,-4427.4,-4203.9,-247.5,-4418.7,887.7,-2074.8,-4341.9,-4287.0,-4478.1,-6.0,4195.2,1007.7,-4811.4,-6.9,-5.7,-4563.9,9664.2,-0.9,-4240.5,763.8,-2777.4,0,1674,825170591744,223,0, 
0.9333,-312.6,361.2,2240.7,-8027.1,-7812.3,2951.7,-8023.5,693.3,-4520.1,-7937.1,-7893.6,-8080.5,2694.0,8610.3,9248.1,-6840.0,-6.9,-6.0,-8166.6,8744.7,-0.9,-7849.5,847.5,-5955.0,0,1680,825170591744,224,0, 
0.9367,167.1,416.7,2484.9,-1930.2,-1723.5,2919.3,-1945.8,-7.2,-5335.2,-1812.9,-1781.7,-1972.2,3187.8,8794.5,7617.3,-5373.9,-6.9,-6.3,-2096.1,-5398.5,-0.6,-1721.4,1198.2,-1057.5,0,1686,825170591744,225,0, 
0.9400,1087.5,115.2,617.4,5561.7,5766.9,-737.7,5523.6,-758.7,-3334.5,5702.7,5743.8,5550.3,349.8,4076.4,-2721.9,-2581.2,-6.9,-5.7,5396.4,-9830.1,-0.6,5805.3,852.6,5188.5,0,1692,825170591744,226,0, 
0.9433,1163.1,-237.6,-766.8,3718.2,3930.6,-2895.0,3702.9,-442.5,-1259.7,3830.1,3873.9,3677.7,-1814.7,1069.2,-6973.2,-2328.6,-6.6,-6.0,3554.1,-3632.1,-0.6,3932.4,240.0,3883.2,0,1698,825170591744,227,0, 
0.9467,607.5,288.9,620.7,-4345.8,-4123.8,-239.7,-4331.7,788.4,-1926.6,-4255.5,-4209.9,-4393.8,24.0,4334.1,1014.6,-4760.7,-7.2,-5.7,-4485.3,9717.6,-0.9,-4150.2,616.8,-2700.6,0,1704,825170591744,228,0, 
0.9500,-313.5,372.3,2282.1,-8005.2,-7784.7,2932.5,-7994.1,711.0,-4371.9,-7880.7,-7853.1,-8042.1,2585.1,8691.3,9253.8,-6759.9,-6.9,-6.0,-8120.1,8734.5,-0.9,-7782.9,807.6,-5945.7,0,1710,825170591744,229,0, 
0.9533,70.5,404.4,2581.2,-1907.1,-1700.7,2896.5,-1918.8,-78.9,-5335.2,-1782.9,-1771.8,-1963.5,3039.9,8793.0,7546.2,-5315.1,-6.9,-6.0,-2080.5,-5415.0,-0.9,-1695.3,1146.0,-1024.8,0,1716,825170591744,230,0, 
0.9567,1037.4,106.2,796.8,5621.4,5823.9,-721.2,5599.2,-795.3,-3260.4,5764.5,5777.4,5586.3,250.8,4075.5,-2734.8,-2431.8,-6.9,-6.0,5436.0,-9830.1,-0.6,5869.2,911.1,5290.2,0,1722,825170591744,231,0, 
0.9600,1028.4,-177.0,-596.7,3722.4,3931.5,-2892.3,3720.0,-428.1,-1185.6,3851.4,3870.0,3680.7,-1810.2,1139.1,-6860.1,-2246.7,-6.6,-5.4,3553.5,-3557.7,-0.9,3957.9,311.1,3930.3,0,1728,825170591744,232,0, 
0.9633,526.5,341.1,675.3,-4422.6,-4205.4,-239.1,-4402.5,771.0,-2148.9,-4309.5,-4291.5,-4476.6,18.6,4369.5,1073.1,-4738.5,-7.2,-5.7,-4566.6,9744.0,-0.9,-4202.1,561.3,-2751.6,0,1734,825170591744,233,0, 
0.9667,-395.4,312.0,2311.5,-8123.1,-7905.0,2943.0,-8104.2,655.5,-4594.2,-7989.0,-7983.6,-8169.6,2713.5,8745.3,9272.1,-6840.6,-6.9,-5.7,-8249.7,8730.0,-0.6,-7883.7,717.3,-6035.4,0,1740,825170591744,234,0, 
0.9700,0.9,377.1,2612.1,-2047.8,-1839.6,2919.6,-2050.2,-142.5,-5409.3,-1904.1,-1914.3,-2099.4,3075.0,8874.3,7542.3,-5414.7,-7.2,-6.0,-2224.5,-5478.9,-0.9,-1798.2,1124.1,-1141.5,0,1746,825170591744,235,0, 
0.9733,972.6,39.9,842.7,5457.3,5661.3,-756.3,5441.1,-867.9,-3408.6,5610.0,5600.7,5406.6,279.3,4096.8,-2756.7,-2631.3,-7.2,-6.0,5259.6,-9830.1,-0.6,5712.9,861.0,5121.6,0,1752,825170591744,236,0, 
0.9767,1019.1,-215.7,-593.4,3558.0,3769.8,-2938.8,3552.6,-533.1,-1333.8,3689.7,3699.9,3504.0,-1749.9,1151.4,-6961.5,-2388.0,-6.9,-6.0,3381.9,-3687.9,-0.6,3801.3,213.3,3762.9,0,1758,825170591744,237,0, 
0.9800,465.0,288.6,715.2,-4536.6,-4315.2,-300.9,-4515.0,735.6,-2074.8,-4420.8,-4416.0,-4600.5,145.5,4262.7,932.1,-4864.2,-7.2,-5.7,-4686.9,9741.6,-0.6,-4308.3,560.4,-2866.5,0,1764,825170591744,238,0, 
0.9833,-406.8,345.0,2340.6,-8124.9,-7899.6,2883.3,-8101.5,604.2,-4594.2,-7995.3,-8001.3,-8179.8,2721.9,8641.8,9223.2,-6880.5,-6.9,-6.0,-8268.3,8661.3,-0.6,-7890.3,704.1,-6010.5,0,1770,825170591744,239,0, 
0.9867,36.0,510.9,2604.6,-1904.7,-1692.3,2803.2,-1905.3,-180.9,-5483.4,-1763.1,-1774.8,-1958.4,3102.6,8835.3,7438.2,-5328.0,-7.2,-6.0,-2082.9,-5517.0,-0.6,-1656.9,1153.5,-1021.5,0,1776,825170591744,240,0, 
0.9900,1039.2,270.3,798.0,5557.8,5763.3,-801.9,5536.2,-808.2,-3260.4,5700.0,5691.3,5503.8,388.8,4177.5,-2816.1,-2504.7,-6.6,-6.0,5347.8,-9830.1,-0.6,5809.2,972.3,5232.0,0,1782,825170591744,241,0, 
0.9933,1112.4,-30.0,-512.4,3672.6,3885.9,-2938.2,3666.0,-422.1,-1259.7,3789.0,3798.3,3610.2,-1657.8,1253.4,-6915.3,-2321.7,-6.6,-5.7,3478.2,-3526.2,-0.9,3910.5,289.5,3882.6,0,1788,825170591744,242,0, 
0.9967,520.2,390.9,653.7,-4480.2,-4256.7,-426.9,-4459.5,696.9,-2148.9,-4381.2,-4366.5,-4542.6,79.8,4353.9,896.1,-4821.0,-6.9,-5.4,-4641.9,9789.3,-0.6,-4263.3,558.3,-2802.9,0,1794,825170591744,243,0, 
1.0000,-420.0,455.4,2285.1,-7990.5,-7767.3,2748.3,-7971.0,624.0,-4520.1,-7871.1,-7874.7,-8056.5,2719.5,8731.5,9192.3,-6820.2,-6.9,-6.0,-8146.5,8606.7,-0.6,-7766.7,807.6,-5928.9,0,1800,825170591744,244,0, 
1.0033,76.5,522.9,2559.6,-1846.5,-1634.1,2647.2,-1851.0,-141.6,-5335.2,-1706.1,-1714.2,-1903.2,3120.6,8930.7,7326.9,-5327.7,-7.2,-6.0,-2028.9,-5519.1,-0.9,-1602.6,1157.7,-983.1,0,1806,825170591744,245,0, 
1.0067,1023.6,258.6,883.8,5511.6,5717.7,-932.1,5496.9,-707.1,-3260.4,5646.0,5642.1,5451.3,376.5,4165.2,-2933.1,-2528.7,-6.9,-5.4,5302.8,-9830.1,-0.9,5753.1,801.3,5164.5,0,1812,825170591744,246,0, 
1.0100,1113.0,-21.6,-425.4,3576.0,3788.4,-2971.8,3583.5,-369.6,-1407.9,3694.5,3702.9,3513.3,-1650.0,1228.5,-6978.9,-2351.4,-6.9,-5.7,3386.1,-3529.2,-0.9,3807.9,153.6,3779.1,0,1818,825170591744,247,0, 
1.0133,488.7,462.0,833.7,-4425.0,-4196.1,-342.9,-4392.9,838.2,-2074.8,-4317.0,-4309.2,-4493.4,210.9,4486.8,871.2,-4784.7,-6.6,-6.3,-4586.1,9764.4,-0.9,-4206.3,506.4,-2785.2,0,1824,825170591744,248,0, 
1.0167,-398.7,502.2,2420.4,-7926.3,-7701.9,2767.2,-7897.5,721.8,-4520.1,-7810.5,-7810.5,-7989.6,2760.6,8696.1,9126.6,-6858.6,-6.6,-6.0,-8081.1,8545.8,-0.9,-7707.3,700.8,-5893.8,0,1830,825170591744,249,0, 
1.0200,78.0,558.0,2648.1,-1859.4,-1642.8,2728.5,-1859.4,-83.7,-5335.2,-1713.3,-1729.8,-1917.3,3058.5,8857.8,7260.3,-5358.0,-7.5,-6.0,-2040.9,-5621.4,-0.6,-1619.4,1023.0,-982.5,0,1836,825170591744,250,0, 
1.0233,1082.4,218.4,837.6,5497.5,5706.0,-884.4,5476.5,-668.4,-3408.6,5633.4,5628.9,5437.8,314.1,4174.8,-2984.4,-2549.4,-7.2,-6.0,5287.5,-9830.1,-0.6,5742.6,759.6,5161.8,0,1842,825170591744,251,0, 
1.0267,1202.4,-31.8,-462.3,3576.9,3791.7,-2828.1,3570.9,-259.2,-1185.6,3688.2,3695.1,3505.5,-1578.0,1452.0,-6867.3,-2334.6,-6.6,-5.7,3377.7,-3372.3,-0.6,3802.5,238.8,3801.0,0,1848,825170591744,252,0, 
1.0300,602.7,422.4,854.1,-4386.0,-4161.6,-234.0,-4362.0,911.7,-1852.5,-4282.2,-4278.9,-4462.5,280.5,4649.7,1022.7,-4798.2,-6.3,-6.0,-4550.4,9830.1,-0.9,-4175.1,595.5,-2748.9,0,1854,825170591744,253,0, 
1.0333,-371.4,383.4,2352.3,-7803.3,-7580.7,2815.2,-7774.5,711.0,-4446.0,-7683.9,-7693.5,-7870.2,2732.1,8800.5,9128.4,-6750.6,-6.9,-5.7,-7962.3,8519.1,-0.6,-7575.6,685.2,-5784.9,0,1860,825170591744,254,0, 
1.0367,90.6,474.0,2602.2,-1779.0,-1566.0,2632.8,-1768.5,11.1,-5261.1,-1641.9,-1654.2,-1842.6,3147.3,8928.9,7165.5,-5307.3,-7.5,-6.3,-1963.5,-5546.4,-0.9,-1538.7,1038.3,-915.6,0,1866,825170591744,255,0, 
1.0400,1000.5,141.3,808.2,5394.3,5600.7,-996.3,5382.0,-753.6,-3334.5,5533.5,5522.1,5327.4,313.5,4154.4,-3078.0,-2607.0,-7.2,-6.0,5186.7,-9830.1,-0.3,5641.8,736.2,5080.8,0,1872,825170591744,0,0, 
1.0433,1175.7,-77.4,-461.4,3492.0,3706.8,-2946.9,3498.3,-363.3,-1333.8,3607.8,3611.1,3420.6,-1568.7,1357.8,-6998.4,-2385.9,-6.6,-5.7,3300.0,-3323.7,-0.6,3719.4,255.3,3705.0,0,1878,825170591744,1,0, 
1.0467,589.8,321.3,758.7,-4495.5,-4272.0,-305.4,-4465.2,824.1,-2148.9,-4391.4,-4383.0,-4562.4,146.7,4540.2,967.2,-4841.7,-6.6,-6.0,-4652.1,9735.6,-0.6,-4281.9,545.7,-2877.6,0,1884,825170591744,2,0, 
1.0500,-202.5,382.5,2280.9,-7762.8,-7541.1,2812.8,-7733.4,684.0,-4446.0,-7647.9,-7646.4,-7831.2,2693.1,8801.7,9113.4,-6714.9,-7.2,-6.0,-7919.4,8591.4,-0.6,-7541.7,839.7,-5735.4,0,1890,825170591744,3,0, 
1.0533,267.3,386.1,2607.3,-1769.1,-1571.1,2704.8,-1770.3,-27.3,-5409.3,-1640.1,-1647.3,-1830.6,3092.4,8971.8,7306.5,-5260.2,-6.9,-6.0,-1951.5,-5631.9,-0.6,-1541.7,1131.6,-977.4,0,1896,825170591744,4,0, 
1.0567,1206.0,65.7,780.9,5563.8,5775.3,-994.2,5549.4,-704.4,-3112.2,5705.4,5698.5,5493.3,322.5,4168.5,-3041.1,-2461.5,-7.2,-6.3,5344.8,-9830.1,-0.9,5819.4,815.4,5262.6,0,1902,825170591744,5,0, 
1.0600,1205.1,-245.4,-469.2,3664.2,3858.6,-2958.0,3654.3,-339.0,-1333.8,3762.0,3771.6,3595.5,-1624.5,1381.5,-7078.8,-2360.4,-7.2,-5.7,3472.5,-3434.7,-0.3,3866.4,272.7,3729.0,0,1908,825170591744,6,0, 
1.0633,750.6,147.0,566.1,-3916.8,-3687.3,-707.4,-3893.4,702.3,-2000.7,-3804.6,-3803.1,-4005.9,-98.4,4288.2,577.2,-4506.3,-7.2,-5.7,-4099.8,8589.3,-0.6,-3690.9,564.9,-2237.7,0,1914,825170591744,7,0, 
1.0667,-552.0,369.3,3112.8,-9830.1,-9819.9,3915.9,-9830.1,1134.9,-4668.3,-9830.1,-9830.1,-9817.8,3650.7,9168.6,9331.5,-7887.9,-7.5,-6.0,-9830.1,9830.1,-0.3,-9830.1,906.6,-8692.8,0,1920,825170591744,8,0, 
1.0700,-275.1,623.7,4153.8,-4065.6,-3864.6,4675.2,-4058.4,54.9,-6372.6,-3929.7,-3948.0,-4120.2,5012.7,9827.1,9513.6,-6485.1,-7.2,-6.0,-4238.7,-2911.2,-0.9,-3832.8,1331.7,-2828.7,0,1926,9758705197184,9,0, 
1.0733,1064.1,238.5,2032.5,5836.5,6033.3,166.2,5823.0,-888.6,-4297.8,5972.1,5966.7,5780.4,1485.3,6022.2,-663.9,-2733.6,-7.2,-6.0,5624.7,-9830.1,-0.3,6075.9,927.3,5427.3,0,1932,9758705197184,10,0, 
1.0767,1289.1,1.5,641.7,3450.0,3674.1,-2183.7,3457.5,-347.1,-1556.1,3569.1,3575.4,3371.7,-899.1,2165.4,-5830.8,-2457.3,-6.3,-6.0,3249.0,-4282.5,-0.9,3684.3,343.2,3834.0,0,1938,9758705197184,11,0, 
1.0800,800.1,548.1,1928.7,-4469.1,-4253.7,414.0,-4446.3,1000.5,-2297.1,-4382.1,-4364.7,-4538.4,879.0,5343.9,2099.4,-4897.2,-6.9,-6.0,-4633.8,9547.5,-0.9,-4269.0,715.2,-2778.0,0,1944,9758705197184,12,0, 
1.0833,-179.4,512.4,3303.3,-7740.9,-7513.8,3221.7,-7724.7,720.6,-4742.4,-7633.5,-7629.6,-7814.7,3149.4,9073.5,9427.8,-6771.0,-6.9,-6.3,-7909.5,8185.5,-1.2,-7524.9,844.8,-5641.5,0,1950,9758705197184,13,0, 
1.0867,317.4,535.5,3420.6,-1672.5,-1463.7,2995.8,-1679.1,2.1,-5483.4,-1551.6,-1554.3,-1741.5,3372.0,9027.3,7330.8,-5314.2,-6.9,-6.0,-1863.9,-5982.9,-0.6,-1450.2,1155.0,-828.0,0,1956,9758705197184,14,0, 
1.0900,1224.9,214.2,1569.0,5449.8,5661.3,-540.9,5430.3,-626.7,-3334.5,5572.2,5575.8,5385.0,560.7,4344.3,-2760.9,-2553.6,-6.9,-6.3,5228.4,-9830.1,-0.3,5685.3,750.3,5139.9,0,1962,9758705197184,15,0, 
1.0933,1404.0,-27.6,280.2,3412.5,3631.5,-2556.0,3408.9,-266.1,-1333.8,3512.1,3531.3,3339.6,-1404.9,1641.9,-6555.6,-2412.6,-6.9,-6.0,3213.0,-3161.1,-1.2,3631.2,234.0,3684.9,0,1968,9758705197184,16,0, 
1.0967,818.7,433.2,1457.4,-4358.4,-4130.4,-24.3,-4337.7,828.0,-2223.0,-4274.4,-4249.5,-4435.8,301.8,4794.0,1099.2,-4803.3,-6.6,-6.0,-4528.5,9810.0,-0.9,-4157.1,514.5,-2697.0,0,1974,9758705197184,17,0, 
1.1000,0.6,491.4,2975.1,-7496.1,-7273.2,2901.0,-7483.2,838.8,-4594.2,-7395.6,-7389.9,-7570.2,2719.2,8767.8,9045.0,-6597.0,-6.6,-5.7,-7663.8,8295.9,-0.6,-7292.1,800.4,-5508.6,0,1980,9758705197184,18,0, 
1.1033,368.1,527.7,3057.0,-1581.6,-1372.2,2656.5,-1598.4,98.7,-5187.0,-1466.4,-1467.0,-1653.3,2956.2,8786.7,6846.3,-5189.4,-7.2,-6.3,-1778.1,-5807.7,-0.3,-1364.7,1122.3,-738.9,0,1986,9758705197184,19,0, 
1.1067,1257.6,237.9,1281.9,5359.5,5565.9,-866.4,5340.9,-541.2,-3334.5,5483.7,5480.4,5288.4,289.8,4232.1,-3083.4,-2556.9,-6.9,-5.7,5141.7,-9830.1,-0.9,5589.9,768.6,5073.0,0,1992,0,20,0, 
1.1100,1316.7,31.2,79.8,3380.4,3593.7,-2638.2,3371.1,-55.8,-1111.5,3473.4,3487.5,3292.2,-1449.0,1668.6,-6657.3,-2394.0,-6.9,-6.3,3171.0,-3037.2,-0.6,3585.0,105.9,3630.9,0,1998,549755813888,21,0, 
1.1133,742.2,490.8,1290.9,-4215.6,-3986.4,-168.6,-4199.1,1050.3,-2000.7,-4119.0,-4106.7,-4293.3,319.8,4752.6,1037.7,-4695.3,-6.9,-5.7,-4384.5,9830.1,-0.6,-4005.9,411.9,-2608.2,0,2004,549755813888,22,0, 
1.1167,-65.4,510.6,2707.2,-7235.1,-7012.5,2791.8,-7226.4,966.6,-4371.9,-7138.8,-7131.9,-7316.1,2675.7,8844.3,8840.4,-6464.7,-6.9,-6.0,-7405.5,8213.1,-0.9,-7032.6,696.3,-5319.0,0,2010,824633720832,23,0, 
1.1200,428.4,520.2,2848.5,-1404.3,-1186.8,2562.6,-1415.4,111.0,-4964.7,-1277.4,-1282.2,-1471.2,2940.0,8807.4,6606.0,-5074.8,-6.9,-5.7,-1593.3,-5767.2,-0.9,-1170.3,1128.6,-599.7,0,2016,824633720832,24,0, 
1.1233,1273.8,261.0,1107.9,5384.1,5592.9,-926.1,5346.9,-455.7,-3112.2,5508.0,5509.5,5316.6,264.9,4279.5,-3151.8,-2486.1,-6.9,-6.3,5167.8,-9830.1,-0.6,5618.7,819.6,5086.2,0,2022,824633720832,25,0, 
1.1267,1272.0,49.8,-40.8,3207.0,3421.5,-2710.2,3191.7,-182.1,-1259.7,3303.6,3314.4,3126.3,-1565.7,1770.9,-6632.4,-2432.1,-6.9,-5.7,3001.5,-2869.5,-0.9,3419.4,308.1,3473.4,0,2028,824633720832,26,0, 
1.1300,713.1,447.0,1149.3,-4323.0,-4101.0,-278.1,-4314.6,828.3,-2074.8,-4233.9,-4215.9,-4400.4,169.2,4821.3,892.8,-4773.9,-6.6,-6.0,-4494.9,9830.1,-0.9,-4119.6,503.7,-2698.5,0,2034,824633720832,27,0, 
1.1333,-177.9,419.1,2606.4,-7350.3,-7127.7,2596.8,-7340.1,628.2,-4371.9,-7248.9,-7243.8,-7423.8,2485.2,8750.4,8569.2,-6517.2,-6.9,-5.7,-7520.1,8038.2,-0.9,-7136.4,696.3,-5415.6,0,2040,824633720832,28,0, 
1.1367,224.1,517.5,2717.1,-1500.9,-1291.5,2397.6,-1522.2,15.0,-5335.2,-1382.1,-1388.4,-1576.5,2693.4,8736.0,6383.7,-5104.8,-6.6,-6.0,-1701.3,-5986.2,-0.6,-1277.7,1078.8,-692.4,0,2046,824633720832,29,0, 
1.1400,1152.3,247.8,1048.5,5278.8,5480.1,-934.2,5243.1,-576.6,-3112.2,5395.2,5392.5,5201.1,119.1,4330.2,-3199.8,-2531.1,-6.9,-5.7,5052.0,-9830.1,-0.6,5503.5,829.2,4992.0,0,2052,824633720832,30,0, 
1.1433,1203.0,54.0,-72.9,3215.1,3425.7,-2673.0,3201.9,-235.8,-1482.0,3311.4,3321.3,3130.5,-1628.1,1910.4,-6562.5,-2466.0,-6.6,-6.0,3008.1,-2742.6,-0.3,3426.6,219.6,3510.9,0,2058,824633720832,31,0, 
1.1467,632.7,474.3,1144.2,-4271.7,-4047.9,-218.1,-4260.6,820.8,-2074.8,-4175.4,-4165.2,-4346.7,102.9,4949.1,1045.5,-4759.8,-6.6,-5.7,-4445.4,9830.1,-0.9,-4062.3,641.1,-2647.5,0,2064,824633720832,32,0, 
1.1500,-173.7,457.8,2501.4,-7259.4,-7038.9,2594.7,-7255.2,647.7,-4371.9,-7154.1,-7151.1,-7332.3,2383.2,8825.4,8588.4,-6515.1,-6.9,-6.6,-7424.7,7947.9,-0.9,-7048.5,736.8,-5334.0,0,2070,824633720832,33,0, 
1.1533,282.6,418.2,2615.1,-1435.5,-1227.6,2439.0,-1453.8,-89.7,-5261.1,-1314.3,-1327.8,-1518.9,2721.9,8681.7,6396.3,-5106.3,-7.2,-5.7,-1639.2,-6057.6,-0.6,-1215.3,1110.6,-648.0,0,2076,824633720832,34,0, 
1.1567,1255.2,201.9,927.3,5276.4,5482.2,-886.8,5250.9,-597.0,-3186.3,5403.9,5396.4,5198.1,204.3,4311.3,-3122.1,-2562.0,-6.9,-5.7,5059.5,-9830.1,-0.3,5504.4,838.8,4977.3,0,2082,824633720832,35,0, 
1.1600,1265.7,21.3,-100.8,3100.2,3317.7,-2607.3,3088.8,-223.5,-1333.8,3206.4,3215.7,3019.8,-1456.8,1839.9,-6446.4,-2473.5,-6.6,-5.7,2902.2,-2727.6,-0.9,3315.0,313.8,3387.6,0,2088,824633720832,36,0, 
1.1633,650.1,397.2,1013.7,-4390.2,-4164.0,-164.4,-4378.5,725.1,-2223.0,-4294.8,-4282.2,-4466.4,338.1,4900.8,1057.2,-4845.3,-6.6,-6.0,-4554.6,9830.1,-0.3,-4184.1,561.6,-2782.2,0,2094,824633720832,37,0, 
1.1667,-194.7,437.7,2475.9,-7358.4,-7132.8,2606.4,-7342.8,592.8,-4520.1,-7251.6,-7253.7,-7435.5,2616.0,8814.0,8684.1,-6572.7,-6.9,-6.0,-7529.7,7913.1,-0.9,-7142.4,804.3,-5411.7,0,2100,824633720832,38,0, 
1.1700,275.1,517.2,2588.1,-1463.1,-1250.4,2360.1,-1474.5,-192.6,-5335.2,-1343.4,-1348.8,-1532.7,2805.9,8709.3,6458.4,-5139.6,-6.9,-6.3,-1657.8,-6109.5,-0.6,-1230.3,1064.1,-640.8,0,2106,824633720832,39,0, 
1.1733,1190.7,242.7,900.6,5176.2,5382.9,-1034.4,5153.4,-723.0,-3260.4,5305.5,5297.7,5106.9,241.8,4310.1,-3118.2,-2537.4,-6.6,-5.7,4960.5,-9830.1,-0.9,5415.9,841.2,4921.2,0,2112,824633720832,40,0, 
1.1767,1333.8,111.6,-118.8,3104.4,3324.0,-2723.1,3093.9,-245.1,-1185.6,3212.4,3216.3,3033.9,-1458.0,1982.4,-6331.8,-2446.5,-6.3,-6.0,2902.8,-2612.7,-0.3,3324.6,455.1,3414.3,0,2118,824633720832,41,0, 
1.1800,715.8,497.7,1045.8,-4312.8,-4085.7,-285.9,-4298.7,769.2,-2000.7,-4212.3,-4210.5,-4393.8,294.0,5001.0,1227.9,-4774.5,-6.6,-6.0,-4481.7,9830.1,-0.6,-4101.6,690.9,-2693.4,0,2124,824633720832,42,0, 
1.1833,-188.7,525.0,2440.5,-7191.0,-6966.3,2524.5,-7180.2,642.6,-4371.9,-7083.0,-7088.7,-7272.6,2639.7,8841.9,8712.6,-6421.2,-7.2,-6.0,-7360.8,7931.4,-0.9,-6979.2,827.1,-5252.1,0,2130,824633720832,43,0, 
1.1867,166.5,507.0,2490.6,-1440.6,-1225.8,2277.0,-1449.6,-64.5,-5112.9,-1314.9,-1329.0,-1514.4,2756.1,8680.8,6400.2,-5077.5,-6.9,-5.7,-1636.5,-6088.2,-0.6,-1214.7,1163.1,-630.6,0,2136,824633720832,44,0, 
1.1900,1101.3,236.7,884.7,5182.2,5392.2,-1029.3,5157.9,-678.6,-3112.2,5307.0,5301.6,5114.7,144.0,4272.6,-3126.0,-2559.3,-6.3,-6.0,4966.2,-9830.1,-0.6,5409.6,853.8,4914.3,0,2142,824633720832,45,0, 
1.1933,1244.7,109.5,-112.2,3087.9,3303.0,-2633.7,3078.3,-210.0,-1333.8,3192.3,3197.7,3010.2,-1492.8,2018.7,-6264.0,-2449.2,-6.3,-5.7,2886.0,-2676.9,-0.6,3300.3,447.3,3395.1,0,2148,824633720832,46,0, 
1.1967,567.6,466.5,994.2,-4313.4,-4088.4,-228.6,-4293.9,807.6,-2148.9,-4214.1,-4208.1,-4392.3,232.5,4982.1,1163.7,-4794.0,-6.6,-6.3,-4483.2,9830.1,-0.9,-4107.6,661.5,-2705.4,0,2154,824633720832,47,0, 
1.2000,-243.9,482.7,2371.2,-7221.3,-7007.1,2614.5,-7211.4,638.4,-4446.0,-7121.7,-7119.6,-7304.1,2454.3,8773.2,8586.9,-6467.4,-7.5,-6.0,-7395.3,7884.0,-0.6,-7011.0,835.8,-5290.2,0,2160,824633720832,48,0, 
1.2033,201.6,524.4,2480.7,-1436.7,-1227.3,2390.4,-1446.3,-91.2,-5187.0,-1307.1,-1324.8,-1509.3,2640.0,8745.0,6321.0,-5052.9,-6.6,-6.3,-1636.2,-6101.4,-0.3,-1206.3,1145.7,-629.7,0,2166,824633720832,49,0, 
1.2067,1099.8,286.5,833.4,5051.1,5258.7,-896.7,5022.9,-681.3,-3186.3,5176.2,5172.6,4984.5,94.8,4392.0,-3163.8,-2631.9,-6.6,-6.0,4833.6,-9830.1,-0.6,5286.9,925.5,4800.6,0,2172,824633720832,50,0, 
1.2100,1224.6,105.3,-132.6,2889.9,3105.3,-2488.5,2882.7,-311.1,-1333.8,3000.0,3004.2,2810.7,-1603.2,2123.4,-6200.7,-2571.3,-6.6,-6.0,2690.7,-2679.9,-0.6,3113.1,450.0,3192.6,0,2178,824633720832,51,0, 
1.2133,632.4,445.2,1058.1,-4272.0,-4051.2,-5.7,-4264.2,680.4,-2074.8,-4170.0,-4167.9,-4353.3,171.0,5059.5,1276.8,-4748.4,-7.2,-6.0,-4442.1,9830.1,-0.6,-4060.5,826.5,-2697.3,0,2184,824633720832,52,0, 
1.2167,-199.8,376.2,2429.4,-7064.4,-6841.5,2731.5,-7057.5,523.5,-4371.9,-6945.9,-6957.9,-7137.9,2368.8,8761.5,8607.3,-6443.7,-6.9,-6.0,-7229.1,7694.1,-0.9,-6850.2,938.1,-5182.2,0,2190,824633720832,53,0, 
1.2200,180.9,394.5,2505.0,-1371.9,-1160.1,2358.9,-1388.4,-246.9,-5038.8,-1236.0,-1254.9,-1447.5,2495.4,8667.0,6320.1,-5061.0,-6.9,-6.0,-1561.5,-6142.2,-0.6,-1143.3,1222.5,-577.8,0,2196,824633720832,54,0, 
1.2233,1133.7,195.9,939.9,5036.7,5246.7,-842.7,5008.5,-781.2,-3186.3,5174.1,5161.5,4966.2,74.4,4344.9,-2910.0,-2616.9,-6.6,-5.7,4825.2,-9830.1,-0.6,5273.1,900.3,4808.1,0,2202,824633720832,55,0, 
1.2267,1265.1,26.7,-0.9,2900.1,3116.7,-2363.1,2895.0,-345.9,-1185.6,3009.0,3010.5,2820.3,-1530.9,2133.9,-5916.9,-2562.6,-6.9,-6.0,2702.4,-2477.4,-0.3,3120.3,419.7,3242.4,0,2208,824633720832,56,0, 
1.2300,693.6,401.1,1148.4,-4234.5,-4009.5,33.0,-4226.7,710.1,-2223.0,-4129.5,-4131.9,-4319.1,18.0,5033.1,1363.5,-4800.9,-6.9,-6.0,-4407.3,9830.1,-0.6,-4024.8,659.7,-2651.1,0,2214,824633720832,57,0, 
1.2333,-183.3,386.4,2445.9,-7022.4,-6806.1,2654.7,-7015.8,456.0,-4594.2,-6914.1,-6923.7,-7105.8,2190.3,8655.3,8563.5,-6465.0,-6.6,-6.0,-7195.8,7628.4,-0.3,-6813.0,756.3,-5151.9,0,2220,824633720832,58,0, 
1.2367,297.9,361.2,2496.0,-1333.5,-1127.7,2452.5,-1350.0,-255.0,-5187.0,-1203.3,-1219.5,-1408.5,2378.1,8577.3,6363.0,-5030.4,-7.2,-6.0,-1530.6,-6200.7,-0.6,-1106.4,1142.7,-543.6,0,2226,824633720832,59,0, 
1.2400,1224.0,149.7,936.0,4928.1,5130.3,-765.0,4897.2,-807.0,-3186.3,5060.7,5042.7,4847.7,-0.3,4326.6,-2887.5,-2653.8,-6.6,-6.3,4712.4,-9830.1,-0.6,5163.9,882.6,4718.4,0,2232,824633720832,60,0, 
1.2433,1317.0,9.0,-20.1,2791.2,3008.7,-2364.9,2783.4,-316.5,-1333.8,2907.3,2904.0,2716.8,-1437.9,2151.0,-5763.9,-2598.0,-6.3,-5.7,2593.8,-2317.8,-0.3,3014.4,435.6,3166.2,0,2238,824633720832,61,0, 
1.2467,678.3,317.7,1135.2,-4297.5,-4074.3,-3.6,-4288.8,653.4,-2297.1,-4195.8,-4199.7,-4380.0,255.3,5030.1,1435.5,-4869.6,-7.2,-6.0,-4474.5,9830.1,-0.3,-4093.5,618.3,-2670.9,0,2244,824633720832,62,0, 
1.2500,-181.2,252.0,2370.0,-6935.7,-6708.9,2665.8,-6920.4,339.0,-4520.1,-6820.2,-6830.4,-7015.5,2421.3,8779.2,8619.6,-6456.6,-6.9,-6.0,-7107.0,7560.6,-0.9,-6719.7,735.0,-5052.9,0,2250,824633720832,63,0, 
1.2533,257.7,332.7,2451.3,-1248.0,-1038.9,2327.7,-1259.7,-301.5,-5038.8,-1118.7,-1136.1,-1324.2,2495.1,8547.0,6225.0,-4994.7,-6.6,-6.3,-1448.7,-6325.2,-0.6,-1022.4,986.4,-449.1,0,2256,824633720832,64,0, 
1.2567,1202.1,172.5,961.5,5052.3,5257.8,-749.4,5026.5,-675.9,-2964.0,5178.6,5170.2,4974.0,140.4,4433.1,-2890.8,-2596.5,-6.9,-6.3,4835.4,-9830.1,-0.6,5282.1,768.6,4848.0,0,2262,824633720832,65,0, 
1.2600,1229.7,26.1,-14.4,2766.6,2979.0,-2218.2,2760.6,-202.5,-1482.0,2881.5,2880.6,2689.5,-1463.7,2217.0,-5858.4,-2656.2,-6.6,-6.0,2570.1,-2201.1,-0.9,2990.7,269.1,3150.6,0,2268,824633720832,66,0, 
1.2633,565.8,435.0,1171.2,-4290.6,-4067.4,192.3,-4273.5,684.3,-2148.9,-4194.6,-4185.9,-4371.3,272.1,5282.4,1524.0,-4843.2,-6.9,-6.0,-4461.3,9830.1,-1.2,-4077.3,525.9,-2677.5,0,2274,824633720832,67,0, 
1.2667,-275.7,448.2,2501.4,-6931.5,-6717.3,2929.8,-6921.0,478.8,-4371.9,-6823.2,-6826.8,-7011.9,2494.5,8916.9,8798.7,-6400.8,-7.2,-5.7,-7101.9,7567.5,-0.6,-6717.9,757.5,-5034.9,0,2280,824633720832,68,0, 
1.2700,190.5,419.4,2550.9,-1098.0,-891.0,2510.7,-1119.9,-267.9,-4964.7,-981.0,-988.8,-1181.1,2653.8,8760.0,6381.3,-4853.4,-7.2,-6.0,-1300.2,-6348.0,-0.9,-875.4,1088.7,-285.0,0,2286,824633720832,69,0, 
1.2733,1050.6,184.8,1032.6,5252.7,5457.3,-755.7,5223.6,-694.8,-2964.0,5374.2,5370.0,5174.4,221.7,4506.6,-2909.4,-2402.1,-6.9,-6.0,5034.6,-9830.1,-0.9,5481.0,913.2,5031.3,0,2292,824633720832,70,0, 
1.2767,1052.4,10.2,47.4,2930.4,3147.6,-2304.3,2918.7,-289.8,-1185.6,3037.5,3046.8,2852.4,-1409.7,2215.5,-5899.8,-2456.4,-6.6,-6.0,2736.9,-2107.8,-0.3,3148.8,366.3,3284.1,0,2298,824633720832,71,0, 
1.2800,475.2,424.8,1239.9,-4416.9,-4189.8,154.2,-4407.3,717.0,-2148.9,-4319.7,-4315.5,-4500.6,314.7,5383.8,1664.1,-4803.0,-6.3,-6.3,-4591.2,9830.1,-0.6,-4212.9,586.8,-2767.2,0,2304,824633720832,72,0, 
1.2833,-366.6,357.6,2647.5,-7203.9,-6979.2,2841.6,-7198.5,435.6,-4446.0,-7091.7,-7098.3,-7280.4,2654.4,9178.2,9153.6,-6551.1,-6.9,-5.7,-7374.0,7762.8,-0.6,-6994.2,700.8,-5256.9,0,2310,824633720832,73,0, 
1.2867,189.0,415.8,2666.1,-1066.8,-855.3,2503.8,-1082.1,-276.0,-5187.0,-941.4,-952.2,-1144.2,2778.9,8947.8,6489.6,-4968.3,-7.2,-6.0,-1265.4,-6476.4,-0.9,-841.2,1108.5,-288.0,0,2316,824633720832,74,0, 
1.2900,1086.0,166.8,1046.7,5414.7,5623.2,-963.0,5382.9,-771.3,-2964.0,5540.7,5531.7,5335.5,108.6,4437.3,-3278.4,-2470.2,-6.9,-5.7,5193.9,-9830.1,-0.3,5640.0,862.5,5156.4,0,2322,824633720832,75,0, 
1.2933,1096.5,-48.0,-41.1,2977.5,3195.0,-2570.7,2968.8,-300.0,-1259.7,3080.1,3083.7,2892.3,-1561.2,2109.6,-6261.0,-2532.3,-6.3,-5.7,2771.1,-2118.6,-1.2,3193.5,318.0,3334.2,0,2328,824633720832,76,0, 
1.2967,534.9,386.1,1160.4,-4421.4,-4195.2,9.6,-4414.5,720.9,-2148.9,-4329.0,-4320.0,-4506.3,213.6,5208.0,1384.8,-4852.8,-6.6,-6.0,-4595.4,9830.1,-0.6,-4220.7,528.0,-2761.8,0,2334,824633720832,77,0, 
1.3000,-288.6,365.1,2544.6,-7200.6,-6978.0,2885.4,-7194.3,531.6,-4297.8,-7102.8,-7100.7,-7285.2,2534.7,9009.9,8797.8,-6556.5,-6.9,-6.3,-7372.2,7718.1,-0.9,-6995.7,726.9,-5233.2,0,2340,824633720832,78,0, 
1.3033,136.5,352.8,2626.5,-1188.0,-972.0,2498.4,-1204.8,-249.3,-5187.0,-1074.9,-1074.6,-1262.4,2678.4,8749.8,6312.9,-5010.6,-6.9,-6.0,-1389.3,-6278.4,-0.3,-962.7,1030.8,-380.7,0,2346,824633720832,79,0, 
1.3067,1056.9,149.4,1011.0,5420.1,5633.1,-881.1,5390.7,-699.0,-3112.2,5547.0,5537.7,5346.3,77.1,4310.1,-3326.7,-2466.9,-7.2,-6.3,5201.1,-9830.1,-1.2,5649.0,751.5,5168.4,0,2352,824633720832,80,0, 
1.3100,1105.2,-36.9,60.6,2989.5,3207.3,-2421.0,2979.0,-201.6,-1259.7,3098.1,3102.3,2910.9,-1486.5,2085.6,-6386.7,-2505.0,-6.9,-6.0,2794.2,-2096.1,-0.3,3205.2,301.5,3370.8,0,2358,824633720832,81,0, 
1.3133,471.3,360.3,1317.3,-4447.5,-4223.4,86.1,-4428.9,798.6,-2074.8,-4344.0,-4344.0,-4529.4,382.2,5305.2,1271.1,-4841.7,-6.9,-6.3,-4620.9,9830.1,-0.6,-4237.5,616.8,-2769.3,0,2364,824633720832,82,0, 
1.3167,-345.9,357.0,2659.2,-7166.4,-6943.5,2755.5,-7150.2,537.9,-4520.1,-7058.1,-7062.6,-7243.8,2587.8,9126.9,8670.0,-6510.6,-7.2,-5.7,-7339.2,7584.3,-0.6,-6953.4,810.0,-5229.0,0,2370,824633720832,83,0, 
1.3200,159.0,474.6,2754.0,-1102.8,-895.5,2421.3,-1114.8,-199.2,-5038.8,-976.2,-988.8,-1180.2,2704.5,8868.3,6165.6,-4956.3,-6.9,-6.0,-1302.3,-6417.0,-0.6,-877.8,1190.7,-331.2,0,2376,824633720832,84,0, 
1.3233,1021.2,210.3,1077.0,5275.2,5481.9,-946.8,5250.0,-752.7,-3112.2,5401.2,5395.8,5192.4,177.0,4472.1,-3273.0,-2488.8,-6.6,-5.7,5060.1,-9830.1,-0.3,5509.8,852.3,5031.6,0,2382,824633720832,85,0, 
1.3267,1080.3,92.1,128.4,2962.5,3180.0,-2440.8,2955.0,-136.8,-1185.6,3070.8,3071.1,2877.3,-1319.1,2289.6,-6254.7,-2495.1,-6.9,-6.3,2763.0,-2035.5,-0.3,3181.2,378.0,3321.0,0,2388,824633720832,86,0, 
1.3300,443.1,412.5,1336.5,-4416.6,-4191.0,-12.6,-4399.2,755.4,-2148.9,-4313.7,-4311.6,-4503.9,422.7,5385.6,1356.9,-4828.2,-6.6,-5.7,-4580.7,9830.1,-0.6,-4203.9,524.4,-2746.8,0,2394,824633720832,87,0, 
1.3333,-347.7,325.8,2727.0,-7100.4,-6875.1,2683.8,-7086.3,516.3,-4520.1,-6987.0,-6999.9,-7181.4,2639.7,9144.9,8687.7,-6432.6,-6.9,-5.4,-7275.0,7542.3,-0.6,-6889.8,720.3,-5174.7,0,2400,824633720832,88,0, 
1.3367,179.1,375.6,2758.2,-1103.7,-890.7,2267.7,-1119.6,-238.5,-5112.9,-972.9,-992.4,-1180.8,2694.0,8806.8,6062.7,-4960.5,-7.2,-6.0,-1305.6,-6527.1,0.0,-877.8,1055.4,-316.8,0,2406,824633720832,89,0, 
1.3400,1110.0,211.2,1183.8,5269.2,5480.7,-1034.7,5244.0,-640.5,-2964.0,5398.8,5386.8,5191.8,193.5,4438.2,-3284.7,-2466.9,-6.9,-6.3,5047.5,-9830.1,-0.9,5499.3,758.4,5025.0,0,2412,824633720832,90,0, 
1.3433,1236.0,115.2,282.9,2857.2,3076.5,-2464.5,2847.9,-187.8,-1259.7,2959.2,2966.1,2773.2,-1359.6,2299.8,-6065.4,-2535.9,-6.6,-5.7,2652.0,-2008.2,-0.3,3073.5,327.6,3240.9,0,2418,824633720832,91,0, 
1.3467,616.8,529.2,1445.7,-4281.9,-4054.5,81.0,-4265.4,671.7,-2074.8,-4174.2,-4179.0,-4366.5,417.9,5424.9,1451.7,-4693.5,-6.9,-6.0,-4455.9,9830.1,-0.9,-4068.6,586.8,-2643.6,0,2424,824633720832,92,0, 
1.3500,-167.7,490.2,2858.1,-6743.1,-6522.3,2763.6,-6736.2,475.8,-4371.9,-6628.2,-6640.5,-6824.1,2573.4,9078.9,8601.6,-6276.9,-6.9,-6.0,-6914.7,7467.0,-0.6,-6530.4,846.3,-4850.7,0,2430,824633720832,93,0, 
1.3533,287.4,492.6,2865.0,-866.4,-656.7,2327.1,-879.6,-278.7,-4816.5,-728.4,-754.2,-946.2,2635.2,8843.7,6036.6,-4790.1,-7.2,-6.3,-1065.9,-6425.4,-0.6,-637.5,1103.4,-66.9,0,2436,824633720832,94,0, 
1.3567,1064.1,198.0,1206.0,5346.6,5554.2,-982.8,5322.6,-781.8,-2889.9,5482.2,5469.0,5261.1,73.2,4446.9,-3311.4,-2400.0,-6.6,-6.0,5133.3,-9830.1,-0.6,5579.1,797.1,5122.2,0,2442,824633720832,95,0, 
1.3600,1030.8,54.0,237.3,2831.4,3047.4,-2574.6,2826.9,-333.0,-1185.6,2944.5,2941.2,2738.1,-1465.5,2304.3,-6148.8,-2513.4,-6.9,-6.3,2634.6,-1884.3,-0.6,3046.8,295.8,3239.4,0,2448,824633720832,96,0, 
1.3633,475.2,478.2,1400.1,-4451.1,-4229.7,-26.1,-4434.9,661.8,-2074.8,-4355.4,-4351.2,-4542.6,264.6,5493.0,1516.2,-4832.4,-6.9,-6.0,-4627.2,9830.1,-0.9,-4251.0,569.7,-2783.4,0,2454,824633720832,97,0, 
1.3667,-276.3,428.4,2733.6,-6933.9,-6711.3,2668.5,-6926.1,419.4,-4520.1,-6829.5,-6831.0,-7023.3,2520.3,9196.2,8627.1,-6405.6,-6.9,-6.0,-7109.4,7385.4,-0.6,-6730.2,780.6,-5059.2,0,2460,824633720832,98,0, 
1.3700,234.0,522.9,2807.1,-921.9,-709.8,2303.4,-939.0,-264.6,-4890.6,-797.7,-813.6,-1008.3,2673.0,8941.8,6019.8,-4821.0,-6.9,-6.0,-1128.0,-6551.7,-0.9,-706.5,1253.7,-152.4,0,2466,824633720832,99,0, 
1.3733,1124.4,218.1,1136.4,5331.9,5539.2,-968.1,5303.1,-793.8,-2889.9,5457.3,5447.7,5250.0,125.7,4557.9,-3405.9,-2383.5,-6.3,-5.7,5109.0,-9830.1,-0.3,5551.5,811.8,5099.4,0,2472,824633720832,100,0, 
1.3767,1152.3,105.3,261.0,2908.5,3124.5,-2457.0,2893.5,-233.4,-1037.4,3012.3,3016.8,2818.2,-1371.6,2387.4,-6020.1,-2448.9,-6.9,-5.7,2704.5,-1760.7,-1.2,3122.1,392.1,3271.5,0,2478,824633720832,101,0, 
1.3800,552.0,467.4,1415.7,-4414.2,-4193.1,28.5,-4401.6,731.7,-2148.9,-4320.3,-4314.3,-4504.2,480.6,5490.6,1419.9,-4845.0,-6.9,-5.7,-4589.4,9830.1,-0.3,-4208.1,572.7,-2737.5,0,2484,824633720832,102,0, 
1.3833,-251.7,452.7,2744.1,-7035.6,-6811.2,2833.8,-7030.2,546.9,-4446.0,-6928.8,-6931.2,-7117.5,2634.0,9247.5,8663.7,-6436.2,-6.9,-6.0,-7207.8,7478.1,-1.2,-6822.9,733.8,-5100.9,0,2490,824633720832,103,0, 
1.3867,279.3,508.5,2757.3,-931.2,-724.5,2415.9,-954.3,-166.5,-5038.8,-808.8,-817.5,-1014.6,2768.1,8950.2,6012.3,-4841.1,-6.6,-5.7,-1134.9,-6565.5,-0.6,-708.3,1012.2,-160.2,0,2496,824633720832,104,0, 
1.3900,1166.7,335.4,1106.4,5424.9,5639.1,-1013.7,5395.5,-648.3,-2889.9,5556.0,5553.6,5346.3,77.4,4465.8,-3485.7,-2342.1,-6.9,-6.3,5213.7,-9830.1,-0.9,5655.3,746.4,5171.4,0,2502,824633720832,105,0, 
1.3933,1202.4,127.5,219.0,2936.4,3155.7,-2552.1,2922.9,-177.6,-1037.4,3041.4,3054.6,2854.8,-1389.6,2346.0,-6247.5,-2409.9,-6.9,-6.0,2738.7,-1684.8,-0.3,3149.7,123.0,3300.0,0,2508,824633720832,106,0, 
1.3967,628.2,562.2,1409.4,-4403.1,-4173.3,38.1,-4389.3,790.2,-1852.5,-4307.4,-4298.7,-4491.6,437.7,5633.1,1483.2,-4708.8,-6.9,-6.3,-4578.3,9830.1,-0.6,-4195.8,531.0,-2726.7,0,2514,824633720832,107,0, 
1.4000,-234.0,480.3,2752.2,-6908.7,-6688.2,2730.6,-6898.8,538.2,-4297.8,-6803.4,-6809.1,-6999.3,2681.1,9342.3,8715.9,-6286.5,-6.9,-6.0,-7086.6,7433.4,-0.6,-6701.1,685.5,-5023.2,0,2520,824633720832,108,0, 
1.4033,381.0,630.0,2809.8,-834.0,-623.4,2371.8,-848.4,-173.4,-4742.4,-707.7,-722.7,-919.5,2785.8,8992.2,6078.0,-4708.2,-6.9,-6.0,-1034.7,-6521.4,-0.6,-605.7,1060.8,-76.2,0,2526,824633720832,109,0, 
1.4067,1234.2,281.1,1233.0,5568.3,5772.6,-984.0,5536.5,-730.2,-2815.8,5694.6,5687.1,5488.5,135.0,4464.3,-3327.6,-2209.2,-7.2,-6.3,5351.1,-9830.1,-0.6,5798.4,680.1,5312.4,0,2532,824633720832,110,0, 
1.4100,1300.8,205.8,262.5,2968.2,3182.4,-2457.0,2949.3,-303.6,-963.3,3066.9,3078.9,2890.2,-1323.9,2457.0,-6017.1,-2371.8,-6.9,-5.7,2770.5,-1591.5,-0.9,3185.1,220.2,3353.7,0,2538,824633720832,111,0, 
1.4133,673.2,564.3,1461.6,-4298.4,-4077.0,64.5,-4295.4,702.3,-2000.7,-4206.3,-4197.3,-4378.2,558.3,5680.2,1603.8,-4708.5,-6.6,-6.0,-4471.5,9830.1,0.0,-4089.3,466.5,-2644.8,0,2544,824633720832,112,0, 
1.4167,-108.3,586.2,2767.2,-6804.6,-6590.7,2704.5,-6806.4,428.7,-4223.7,-6693.9,-6698.1,-6888.6,2682.0,9324.9,8696.7,-6327.9,-6.9,-6.3,-6976.2,7406.1,-0.9,-6593.7,721.8,-4906.2,0,2550,824633720832,113,0, 
1.4200,465.3,566.1,2771.1,-796.5,-586.2,2336.7,-825.9,-281.7,-4964.7,-664.5,-677.4,-875.4,2696.4,8999.7,5954.7,-4742.4,-6.9,-6.3,-990.3,-6544.8,-0.3,-570.9,1109.1,-33.0,0,2556,824633720832,114,0, 
1.4233,1278.9,337.8,1203.3,5336.4,5540.7,-956.7,5305.5,-813.0,-2815.8,5463.0,5460.9,5257.5,149.1,4617.3,-3336.0,-2397.9,-6.9,-6.3,5125.8,-9830.1,-0.9,5566.8,827.1,5110.2,0,2562,824633720832,115,0, 
1.4267,1337.1,260.7,413.7,2769.6,2978.4,-2340.0,2754.3,-298.8,-1037.4,2871.6,2880.3,2685.3,-1224.6,2679.0,-5800.5,-2498.4,-7.2,-6.0,2570.4,-1487.7,-0.6,2982.3,399.6,3196.5,0,2568,824633720832,116,0, 
1.4300,650.7,536.7,1523.1,-4318.8,-4102.2,129.0,-4317.0,623.1,-2000.7,-4227.9,-4215.6,-4402.5,467.7,5735.4,1698.3,-4792.8,-6.9,-6.0,-4493.1,9830.1,-0.6,-4118.7,600.3,-2669.7,0,2574,824633720832,117,0, 
1.4333,-52.2,501.6,2815.8,-6503.4,-6292.2,2760.0,-6509.1,388.8,-4223.7,-6400.8,-6405.6,-6594.0,2560.2,9295.8,8596.2,-6177.6,-6.9,-5.7,-6684.0,7119.3,-0.3,-6302.1,733.8,-4668.6,0,2580,824633720832,118,0, 
1.4367,421.5,592.5,2741.1,-696.0,-492.6,2240.1,-723.0,-341.1,-4816.5,-573.9,-584.4,-775.5,2557.2,8889.9,5904.9,-4735.2,-7.2,-5.7,-896.1,-6654.0,-0.9,-471.9,1061.7,50.4,0,2586,824633720832,119,0, 
1.4400,1242.9,314.1,1185.3,5188.5,5390.7,-1025.4,5147.7,-804.3,-2815.8,5316.9,5309.4,5115.9,165.6,4716.3,-3119.1,-2430.6,-6.9,-6.0,4975.5,-9830.1,-0.6,5418.6,777.3,4993.5,0,2592,824633720832,120,0, 
1.4433,1291.8,340.2,429.3,2711.7,2924.4,-2345.7,2689.8,-225.0,-1185.6,2819.4,2821.5,2629.8,-1078.8,2777.4,-5479.8,-2496.0,-6.6,-6.0,2511.6,-1345.2,-0.6,2931.6,322.2,3151.8,0,2598,824633720832,121,0, 
1.4467,683.1,684.0,1549.5,-4235.7,-4013.4,91.2,-4234.5,696.9,-2148.9,-4134.0,-4134.9,-4321.2,622.5,5829.3,1892.4,-4710.0,-6.9,-5.7,-4411.8,9830.1,-0.3,-4030.5,543.6,-2570.1,0,2604,824633720832,122,0, 
1.4500,-96.6,480.3,2689.8,-6559.8,-6342.3,2569.8,-6561.0,409.8,-4371.9,-6452.1,-6455.7,-6642.0,2651.4,9291.0,8432.4,-6293.4,-6.9,-6.0,-6733.8,6910.5,-0.6,-6342.3,641.7,-4697.4,0,2610,824633720832,123,0, 
1.4533,460.2,473.1,2714.4,-772.8,-564.9,2175.3,-792.0,-266.1,-4890.6,-641.4,-657.6,-847.2,2611.2,8900.7,5742.0,-4740.9,-7.5,-5.7,-966.3,-6788.7,-0.9,-542.7,891.9,5.7,0,2616,824633720832,124,0, 
1.4567,1256.7,233.4,1175.4,5041.2,5246.4,-956.4,5009.1,-732.0,-2964.0,5163.6,5159.7,4967.1,51.0,4703.7,-3143.1,-2497.5,-6.9,-6.3,4829.4,-9830.1,-0.3,5277.3,648.3,4874.7,0,2622,824633720832,125,0, 
1.4600,1289.1,163.8,396.0,2535.9,2755.2,-2373.3,2523.9,-117.9,-1259.7,2647.2,2647.8,2460.3,-1236.6,2832.6,-5503.2,-2659.8,-6.9,-6.0,2338.5,-1427.7,-1.2,2759.4,247.2,3009.6,0,2628,824633720832,126,0, 
1.4633,607.8,500.7,1491.3,-4315.8,-4091.7,-44.4,-4312.8,717.0,-2223.0,-4222.5,-4215.0,-4400.1,407.7,5771.4,1729.8,-4911.3,-6.6,-6.0,-4491.9,9830.1,-0.9,-4108.2,437.1,-2643.3,0,2634,824633720832,127,0, 
1.4667,-76.5,549.9,2842.8,-6536.4,-6316.8,2520.0,-6532.2,566.7,-4446.0,-6427.2,-6433.5,-6617.7,2533.8,9273.3,8424.3,-6310.8,-6.9,-5.7,-6708.3,6949.5,-0.3,-6326.1,627.6,-4642.2,0,2640,824633720832,128,0, 
1.4700,371.4,612.0,2769.6,-762.9,-550.2,2065.2,-786.3,-117.0,-4816.5,-631.5,-648.9,-844.5,2519.1,8893.8,5725.2,-4776.3,-7.5,-6.6,-961.5,-6781.2,-0.6,-534.3,942.9,21.0,0,2646,824633720832,129,0, 
1.4733,1273.8,367.2,1234.8,4999.5,5202.3,-1066.2,4965.3,-612.0,-2815.8,5123.7,5115.6,4916.4,135.6,4790.4,-3099.0,-2525.7,-6.3,-6.0,4788.3,-9830.1,-0.9,5221.2,627.9,4850.7,0,2652,824633720832,130,0, 
1.4767,1308.6,284.1,446.1,2531.7,2752.5,-2329.2,2517.6,-76.2,-1407.9,2640.9,2638.5,2447.1,-1248.3,2864.7,-5461.8,-2652.6,-6.9,-5.7,2335.2,-1470.9,-0.6,2745.9,270.0,3017.7,0,2658,824633720832,131,0, 
1.4800,671.1,592.5,1601.4,-4305.9,-4081.8,108.3,-4302.9,780.0,-2223.0,-4202.7,-4203.9,-4393.8,457.5,5723.1,1603.2,-4892.1,-6.9,-6.0,-4475.1,9830.1,-0.6,-4100.7,508.5,-2657.4,0,2664,824633720832,132,0, 
1.4833,-79.5,553.2,2759.7,-6409.8,-6190.2,2577.3,-6410.1,647.4,-4297.8,-6297.0,-6307.5,-6493.8,2537.7,9143.7,8169.6,-6279.9,-6.6,-6.0,-6582.3,6774.6,-0.6,-6201.0,587.1,-4556.7,0,2670,824633720832,133,0, 
1.4867,392.4,567.6,2657.7,-743.4,-529.2,2086.5,-757.2,-115.8,-4742.4,-622.5,-634.2,-815.7,2505.9,8751.0,5522.4,-4799.4,-6.9,-6.0,-943.8,-6739.2,-0.9,-519.3,843.0,25.2,0,2676,824633720832,134,0, 
1.4900,1211.1,452.7,1227.0,5059.8,5265.9,-955.2,5028.3,-554.7,-2889.9,5185.8,5174.4,4981.2,157.2,4709.7,-3190.8,-2510.4,-6.9,-6.3,4844.4,-9830.1,-0.9,5285.1,574.5,4927.5,0,2682,824633720832,135,0, 
1.4933,1233.3,355.5,401.1,2580.0,2792.1,-2241.9,2565.6,-91.2,-1333.8,2681.1,2682.0,2486.7,-1179.0,2808.6,-5595.6,-2670.0,-6.6,-5.7,2374.5,-1240.8,-0.6,2788.5,162.3,3038.7,0,2688,824633720832,136,0, 
1.4967,488.1,623.1,1575.6,-4180.8,-3964.2,75.9,-4183.5,739.2,-2223.0,-4094.4,-4088.4,-4274.7,415.5,5725.5,1684.5,-4791.0,-7.2,-6.3,-4363.5,9830.1,-0.9,-3986.7,355.8,-2532.6,0,2694,824633720832,137,0, 
1.5000,-147.3,624.9,2796.6,-6374.1,-6155.4,2616.9,-6372.6,568.2,-4297.8,-6267.3,-6276.9,-6458.4,2526.6,9177.3,8322.9,-6203.1,-6.6,-6.0,-6551.4,6842.1,-0.9,-6165.6,594.3,-4507.5,0,2700,824633720832,138,0, 
1.5033,356.4,642.0,2724.0,-592.8,-382.8,2114.1,-614.1,-103.5,-4816.5,-469.8,-487.2,-677.4,2516.1,8805.6,5531.4,-4679.1,-7.2,-5.7,-799.5,-6750.0,-0.6,-370.8,928.2,171.0,0,2706,824633720832,139,0, 
1.5067,1230.9,408.6,1191.0,5242.2,5449.8,-996.9,5204.4,-565.5,-2815.8,5364.6,5354.7,5157.9,33.0,4650.6,-3360.9,-2416.2,-6.6,-6.3,5023.5,-9830.1,-1.2,5468.1,688.2,5060.4,0,2712,824633720832,140,0, 
1.5100,1253.4,306.9,423.0,2721.0,2938.2,-2305.5,2703.3,-39.0,-1037.4,2823.0,2830.2,2637.3,-1311.6,2741.1,-5751.9,-2522.7,-6.6,-6.0,2523.3,-1077.0,-0.6,2934.9,318.0,3181.8,0,2718,824633720832,141,0, 
1.5133,606.0,585.9,1607.1,-4239.0,-4018.2,73.5,-4242.0,794.1,-2074.8,-4155.6,-4144.2,-4332.0,402.6,5747.7,1501.5,-4776.0,-7.2,-6.0,-4421.4,9830.1,-0.3,-4048.5,587.7,-2558.1,0,2724,824633720832,142,0, 
1.5167,-198.6,523.8,2805.6,-6450.0,-6228.3,2708.7,-6451.2,657.3,-4223.7,-6345.6,-6351.0,-6535.8,2494.5,9350.7,8322.6,-6178.2,-6.9,-5.7,-6627.9,7077.0,-1.2,-6248.1,855.0,-4561.5,0,2730,824633720832,143,0, 
1.5200,278.4,580.8,2737.5,-483.6,-274.2,2168.1,-510.3,-130.2,-4742.4,-363.0,-377.7,-567.6,2398.8,8865.9,5535.0,-4607.4,-6.9,-5.7,-693.3,-6729.0,-0.9,-270.9,1097.1,273.3,0,2736,824633720832,144,0, 
1.5233,1072.2,237.3,1100.4,5534.4,5739.0,-1211.4,5502.3,-675.0,-2519.4,5656.8,5648.4,5459.1,-186.0,4510.2,-3774.6,-2269.5,-6.9,-6.0,5316.3,-9830.1,-0.9,5752.5,683.4,5311.5,0,2742,824633720832,145,0, 
1.5267,1156.8,192.6,336.3,2887.2,3103.2,-2522.4,2869.8,-168.3,-1037.4,2984.1,2992.5,2802.6,-1576.8,2532.6,-6092.4,-2422.2,-6.9,-5.7,2688.0,-842.1,-0.3,3092.7,308.4,3326.1,0,2748,824633720832,146,0, 
1.5300,581.7,589.8,1590.3,-4232.7,-4014.6,55.5,-4233.9,790.2,-1926.6,-4145.7,-4137.3,-4322.1,348.3,5826.6,1579.8,-4715.7,-6.6,-5.7,-4407.9,9830.1,-0.9,-4043.1,590.7,-2537.4,0,2754,824633720832,147,0, 
1.5333,-201.9,503.7,2734.2,-6596.7,-6378.3,2640.6,-6601.5,441.0,-4371.9,-6499.2,-6501.0,-6680.4,2461.2,9372.9,8414.1,-6232.2,-6.6,-5.7,-6773.4,7152.0,-0.6,-6398.4,740.1,-4689.0,0,2760,824633720832,148,0, 
1.5367,315.9,510.9,2653.2,-583.5,-374.4,2133.0,-607.2,-205.8,-4742.4,-457.5,-470.7,-659.1,2391.9,8862.6,5530.2,-4712.7,-7.5,-6.0,-783.9,-6852.3,-0.9,-363.3,1059.6,186.0,0,2766,824633720832,149,0, 
1.5400,1129.2,152.4,907.5,5512.2,5718.9,-1188.6,5475.3,-755.7,-2815.8,5634.9,5628.9,5437.5,-207.0,4332.0,-3931.2,-2332.5,-6.6,-6.3,5294.4,-9830.1,-0.9,5738.1,691.2,5296.5,0,2772,824633720832,150,0, 
1.5433,1175.7,39.0,12.6,2764.5,2975.4,-2607.3,2740.2,-198.6,-1111.5,2863.5,2873.1,2680.5,-1618.8,2286.3,-6342.9,-2491.2,-7.2,-6.0,2565.3,-1196.4,-0.6,2972.4,234.3,3243.3,0,2778,824633720832,151,0, 
1.5467,512.4,476.1,1236.0,-4546.2,-4324.2,53.7,-4547.1,691.5,-2148.9,-4459.2,-4448.4,-4632.0,207.3,5573.4,1366.5,-4878.0,-6.9,-6.0,-4719.0,9830.1,-1.2,-4350.6,537.6,-2804.1,0,2784,824633720832,152,0, 
1.5500,-244.8,391.2,2512.5,-6815.4,-6601.5,2720.1,-6816.9,454.5,-4297.8,-6718.2,-6717.0,-6897.3,2332.5,9208.2,8367.9,-6405.9,-6.6,-5.7,-6992.1,7083.0,-0.6,-6616.8,757.5,-4892.4,0,2790,824633720832,153,0, 
1.5533,280.2,430.5,2516.7,-681.9,-475.8,2247.0,-705.9,-213.0,-4964.7,-566.7,-572.7,-753.6,2378.7,8748.3,5506.5,-4779.6,-6.6,-6.0,-885.6,-6890.7,-0.9,-466.2,1153.8,82.2,0,2796,824633720832,154,0, 
1.5567,1152.0,181.5,775.2,5547.0,5751.9,-1146.3,5514.3,-711.0,-2815.8,5656.8,5658.6,5463.6,-230.4,4212.0,-3995.1,-2337.6,-6.3,-6.3,5323.2,-9830.1,-1.2,5766.0,837.9,5320.2,0,2802,824633720832,155,0, 
1.5600,1117.8,64.5,-60.3,2728.5,2942.1,-2571.9,2717.7,-295.5,-1185.6,2825.7,2833.5,2636.4,-1631.1,2128.8,-6414.3,-2566.5,-6.6,-6.0,2522.1,-1227.0,-0.6,2931.0,308.4,3192.0,0,2808,824633720832,156,0, 
1.5633,550.5,507.9,1239.3,-4587.9,-4367.4,91.5,-4586.7,654.0,-2148.9,-4502.7,-4492.5,-4678.2,234.6,5552.7,1517.7,-4949.4,-6.9,-5.7,-4767.3,9830.1,-0.6,-4396.2,629.4,-2851.8,0,2814,824633720832,157,0, 
1.5667,-205.5,481.8,2496.3,-6912.6,-6692.7,2718.3,-6912.0,389.7,-4371.9,-6809.1,-6810.3,-6989.1,2419.5,9183.3,8488.2,-6478.5,-6.9,-6.3,-7088.4,7098.0,-0.6,-6705.6,800.1,-4972.5,0,2820,824633720832,158,0, 
1.5700,391.8,513.0,2463.0,-653.4,-446.7,2321.1,-677.1,-314.1,-4890.6,-533.7,-543.0,-737.7,2395.5,8723.7,5543.1,-4836.6,-6.6,-5.7,-858.6,-6879.9,-0.6,-432.0,1141.8,138.0,0,2826,824633720832,159,0, 
1.5733,1259.7,181.5,760.5,5576.7,5781.9,-1143.0,5544.9,-806.4,-2741.7,5706.9,5696.7,5496.0,-373.5,4242.0,-4041.3,-2356.8,-6.9,-5.7,5360.1,-9830.1,-0.6,5808.3,808.5,5310.6,0,2832,824633720832,160,0, 
1.5767,1259.1,94.8,-119.7,2814.9,3025.8,-2504.4,2798.7,-291.9,-1185.6,2924.4,2925.3,2733.0,-1767.9,2206.8,-6389.1,-2452.5,-6.6,-6.3,2617.8,-1148.4,-0.9,3025.2,396.0,3245.7,0,2838,824633720832,161,0, 
1.5800,619.2,596.7,1183.5,-4553.7,-4335.0,172.2,-4542.3,683.1,-2148.9,-4459.5,-4453.8,-4641.0,136.5,5547.0,1570.5,-4861.5,-6.3,-5.7,-4726.2,9830.1,-0.6,-4351.5,625.2,-2814.9,0,2844,824633720832,162,0, 
1.5833,-238.2,526.8,2516.7,-6924.6,-6711.3,2762.7,-6917.1,417.0,-4520.1,-6811.2,-6821.1,-7007.7,2239.5,9196.5,8591.4,-6431.7,-7.2,-6.3,-7099.5,7216.5,-0.6,-6714.3,731.4,-4956.6,0,2850,824633720832,163,0, 
1.5867,319.2,600.9,2510.4,-698.4,-490.8,2314.5,-717.9,-263.1,-5038.8,-567.9,-583.2,-782.7,2265.0,8754.9,5725.2,-4755.6,-6.6,-5.7,-899.7,-6879.3,-0.6,-474.3,1236.9,83.1,0,2856,824633720832,164,0, 
1.5900,1209.6,328.5,782.1,5559.6,5763.3,-1122.9,5534.1,-872.4,-2741.7,5684.4,5674.8,5479.8,-467.7,4280.4,-3864.0,-2300.1,-6.6,-6.3,5336.1,-9830.1,-0.6,5784.3,810.9,5344.5,0,2862,824633720832,165,0, 
1.5933,1240.8,126.6,-54.3,2739.3,2953.5,-2545.8,2727.0,-314.1,-1111.5,2845.8,2847.3,2657.4,-1900.5,2246.4,-6351.9,-2553.3,-6.9,-5.7,2541.0,-1313.7,-0.9,2958.3,361.5,3182.7,0,2868,824633720832,166,0, 
1.5967,573.9,486.0,1274.7,-4716.0,-4493.7,114.9,-4704.0,663.6,-2223.0,-4606.5,-4610.4,-4794.9,-14.4,5529.0,1605.3,-4955.7,-6.3,-5.7,-4882.2,9830.1,0.0,-4501.5,733.2,-2935.8,0,2874,824633720832,167,0, 
1.6000,-191.7,524.4,2699.7,-6978.0,-6760.5,2845.2,-6976.2,579.0,-4594.2,-6866.1,-6879.0,-7059.9,2444.7,9218.7,8791.5,-6428.7,-6.9,-6.0,-7155.6,7073.1,-0.9,-6763.5,981.9,-5009.1,0,2880,824633720832,168,0, 
1.6033,347.1,571.2,2631.6,-741.6,-535.2,2311.2,-761.4,-159.3,-4964.7,-607.2,-629.1,-814.8,2426.1,8764.5,5843.4,-4797.9,-7.2,-6.0,-943.5,-6903.6,-0.6,-506.4,1365.0,74.7,0,2886,824633720832,169,0, 
1.6067,1242.3,233.7,890.4,5603.4,5808.9,-1149.3,5571.3,-615.0,-2815.8,5743.5,5725.2,5532.6,-344.4,4228.5,-3812.4,-2341.2,-6.9,-5.4,5389.5,-9830.1,-0.9,5850.0,1009.8,5382.3,0,2892,824633720832,170,0, 
1.6100,1237.5,141.0,4.2,2816.1,3037.2,-2553.3,2807.1,-113.4,-1185.6,2932.8,2929.5,2742.6,-1757.4,2189.4,-6263.1,-2466.9,-6.9,-6.0,2623.5,-1257.0,-0.6,3045.3,561.3,3311.1,0,2898,824633720832,171,0, 
1.6133,562.8,497.1,1275.9,-4659.0,-4432.8,51.3,-4641.0,843.0,-2223.0,-4557.6,-4563.3,-4734.6,125.7,5529.6,1692.6,-4905.9,-6.6,-5.7,-4837.8,9830.1,-0.9,-4441.2,838.8,-2877.6,0,2904,824633720832,172,0, 
1.6167,-250.8,590.4,2595.3,-7072.2,-6849.9,2772.6,-7064.4,573.3,-4594.2,-6957.3,-6973.8,-7153.2,2369.1,9255.6,8851.8,-6476.7,-6.9,-6.3,-7251.9,7211.4,-0.6,-6853.8,1041.0,-5049.3,0,2910,824633720832,173,0, 
1.6200,309.9,531.3,2555.4,-748.2,-536.7,2266.5,-768.6,-135.9,-5187.0,-615.3,-644.4,-828.0,2349.6,8711.7,5755.5,-4841.4,-6.9,-6.0,-955.8,-6885.9,-0.6,-511.2,1362.6,87.9,0,2916,824633720832,174,0, 
1.6233,1172.1,95.7,843.6,5612.7,5816.7,-1194.6,5573.7,-747.0,-2889.9,5739.3,5718.6,5529.0,-467.4,4038.9,-4054.5,-2377.8,-6.9,-6.6,5382.6,-9830.1,-0.9,5847.3,980.4,5400.6,0,2922,824633720832,175,0, 
1.6267,1175.4,19.2,-23.1,2800.5,3013.2,-2625.6,2785.5,-109.2,-1111.5,2907.3,2897.7,2710.2,-1934.7,2009.7,-6573.9,-2522.7,-6.3,-5.7,2589.0,-1302.6,-0.6,3021.9,541.2,3290.4,0,2928,824633720832,176,0, 
1.6300,546.0,443.1,1317.6,-4789.5,-4566.3,127.8,-4784.1,1004.7,-2223.0,-4698.6,-4702.5,-4874.1,131.7,5362.8,1523.7,-4960.8,-6.9,-6.3,-4972.8,9830.1,-0.9,-4588.8,838.2,-2962.8,0,2934,824633720832,177,0, 
1.6333,-292.2,406.2,2656.2,-7180.8,-6958.5,2880.0,-7170.9,681.6,-4742.4,-7070.7,-7088.4,-7261.5,2344.5,9062.1,8676.0,-6578.1,-6.9,-6.0,-7361.7,7144.8,-0.9,-6969.3,980.4,-5171.1,0,2940,824633720832,178,0, 
1.6367,229.5,345.0,2523.6,-794.7,-583.2,2252.4,-810.0,-116.1,-5261.1,-662.1,-687.0,-870.3,2214.6,8539.5,5531.1,-4944.0,-6.9,-6.3,-999.9,-6958.5,-0.9,-558.9,1288.8,-0.6,0,2946,824633720832,179,0, 
1.6400,1187.4,142.5,774.6,5583.9,5795.4,-1182.9,5556.6,-629.7,-2889.9,5722.5,5698.2,5506.8,-477.9,3887.1,-4266.9,-2418.0,-6.6,-5.7,5365.8,-9830.1,-0.6,5826.6,977.7,5350.8,0,2952,824633720832,180,0, 
1.6433,1219.2,20.4,-190.5,2666.1,2890.2,-2532.0,2660.4,-116.7,-1185.6,2776.8,2769.9,2581.5,-1913.4,1801.2,-6735.3,-2645.1,-6.9,-6.3,2462.4,-1398.6,-0.9,2889.0,441.0,3157.8,0,2958,824633720832,181,0, 
1.6467,582.6,552.6,1261.2,-4808.4,-4582.2,231.0,-4796.4,1000.8,-2148.9,-4709.7,-4714.8,-4894.5,155.7,5287.2,1417.8,-5040.3,-6.9,-6.0,-4988.1,9830.1,-0.6,-4597.2,848.7,-3010.2,0,2964,824633720832,182,0, 
1.6500,-195.3,544.8,2586.6,-7093.8,-6870.0,2982.6,-7083.9,721.8,-4520.1,-6983.7,-6999.6,-7175.4,2358.0,9040.5,8555.7,-6585.9,-6.9,-6.0,-7273.8,7071.0,-0.6,-6879.3,1054.8,-5099.1,0,2970,824633720832,183,0, 
1.6533,340.8,546.9,2517.9,-643.5,-431.1,2450.1,-663.3,-44.1,-5187.0,-521.7,-541.5,-715.8,2216.7,8550.6,5408.4,-4893.0,-7.2,-5.4,-855.0,-6984.6,-0.6,-413.4,1358.7,138.9,0,2976,824633720832,184,0, 
1.6567,1116.9,148.8,755.4,5639.1,5848.8,-1063.8,5608.2,-576.0,-2964.0,5762.4,5749.8,5571.6,-533.7,3806.4,-4392.6,-2376.9,-6.6,-6.0,5410.5,-9830.1,-0.6,5874.6,902.7,5387.7,0,2982,824633720832,185,0, 
1.6600,1154.1,96.6,-101.4,2643.3,2862.6,-2486.1,2635.8,-66.6,-1259.7,2744.7,2734.5,2554.2,-1974.6,1850.7,-6717.0,-2619.0,-6.6,-6.0,2430.3,-1262.1,-0.3,2861.7,547.5,3135.9,0,2988,824633720832,186,0, 
1.6633,522.6,457.2,1323.9,-4708.5,-4481.4,279.9,-4688.4,922.5,-2074.8,-4614.9,-4622.1,-4799.7,33.6,5234.4,1424.7,-4966.5,-6.6,-6.3,-4890.0,9830.1,-0.6,-4499.1,930.0,-2944.2,0,2994,824633720832,187,0, 
1.6667,-236.1,444.9,2671.2,-6908.4,-6682.8,3013.5,-6892.8,682.8,-4520.1,-6800.1,-6819.3,-6993.6,2324.4,8905.8,8497.8,-6420.3,-7.2,-6.0,-7092.9,7075.5,-0.3,-6691.2,1116.3,-4962.0,0,3000,824633720832,188,0, 
1.6700,311.7,563.4,2608.2,-495.6,-280.5,2374.2,-504.6,-92.4,-4890.6,-363.6,-391.5,-570.9,2190.6,8368.8,5376.9,-4697.4,-6.3,-6.3,-703.5,-7003.2,-0.9,-257.7,1498.8,241.5,0,3006,824633720832,189,0, 
1.6733,1128.9,177.0,780.0,5728.8,5940.0,-1156.5,5705.7,-717.9,-2667.6,5855.7,5836.5,5656.8,-612.6,3751.2,-4351.8,-2288.7,-6.9,-5.7,5500.2,-9830.1,-0.6,5970.0,1061.1,5445.6,0,3012,824633720832,190,0, 
1.6767,1080.9,-0.3,-41.4,2739.9,2961.6,-2487.3,2732.1,-177.6,-1111.5,2842.2,2837.1,2655.3,-1953.3,1822.5,-6640.8,-2550.3,-6.6,-6.3,2531.1,-999.9,-1.2,2960.1,558.6,3214.5,0,3018,824633720832,191,0, 
1.6800,479.7,495.3,1311.3,-4614.0,-4383.9,222.3,-4599.3,815.1,-2000.7,-4520.1,-4527.6,-4699.2,32.4,5248.5,1416.3,-4870.5,-6.9,-6.3,-4798.2,9830.1,0.0,-4401.3,897.9,-2843.1,0,3024,824633720832,192,0, 
1.6833,-251.4,525.0,2664.0,-6819.6,-6596.1,2866.5,-6811.5,602.1,-4446.0,-6716.7,-6730.8,-6902.1,2215.2,8986.5,8457.6,-6348.9,-6.9,-6.0,-7003.5,6967.5,-0.9,-6605.7,1012.5,-4864.5,0,3030,824633720832,193,0, 
1.6867,369.6,609.3,2656.5,-377.7,-165.9,2319.0,-393.6,-155.7,-4816.5,-254.7,-278.7,-458.1,2175.6,8475.6,5359.2,-4607.4,-6.6,-6.0,-590.1,-7010.4,-0.9,-147.6,1405.5,362.1,0,3036,824633720832,194,0, 
1.6900,1325.1,294.3,870.3,5802.6,6009.0,-1100.7,5773.5,-714.9,-2593.5,5926.5,5908.8,5728.8,-535.8,3907.5,-4265.7,-2179.2,-6.9,-5.7,5575.2,-9830.1,-0.6,6036.6,1032.6,5537.4,0,3042,824633720832,195,0, 
1.6933,1262.7,86.1,13.8,2837.4,3057.0,-2486.7,2829.0,-160.8,-889.2,2940.9,2934.3,2751.9,-1992.0,1972.2,-6479.4,-2436.3,-6.6,-6.0,2629.2,-821.7,-0.9,3057.6,521.7,3304.8,0,3048,824633720832,196,0, 
1.6967,626.7,517.2,1369.2,-4516.5,-4290.6,231.0,-4504.5,828.0,-2074.8,-4428.9,-4429.8,-4600.2,-7.8,5385.3,1565.4,-4789.5,-6.6,-5.7,-4701.9,9830.1,-0.6,-4306.5,917.1,-2779.8,0,3054,824633720832,197,0, 
1.7000,-190.8,459.9,2698.8,-6711.9,-6489.0,2837.7,-6706.2,505.2,-4297.8,-6609.9,-6623.1,-6789.3,2129.7,8997.3,8445.9,-6296.1,-6.6,-6.0,-6900.3,6937.5,-0.6,-6495.3,1098.6,-4809.3,0,3060,824633720832,198,0, 
1.7033,356.7,437.1,2514.6,-444.0,-227.7,2170.8,-464.4,-213.9,-4890.6,-321.3,-343.2,-513.9,2053.5,8382.3,5285.7,-4675.2,-7.2,-6.0,-657.9,-7053.6,-0.6,-207.6,1434.9,275.1,0,3066,824633720832,199,0, 
1.7067,1100.1,65.7,727.8,5566.8,5774.1,-1303.5,5532.0,-755.1,-2815.8,5693.7,5667.0,5489.4,-656.4,3740.7,-4234.5,-2393.7,-6.9,-6.0,5335.8,-9830.1,-0.6,5804.4,936.3,5313.3,0,3072,824633720832,200,0, 
1.7100,1190.1,83.7,-29.4,2683.5,2904.0,-2515.8,2668.2,-99.6,-1111.5,2799.6,2781.9,2605.5,-1854.0,1954.5,-6329.7,-2534.1,-6.6,-6.3,2478.3,-853.5,-0.6,2908.8,572.1,3148.5,0,3078,824633720832,201,0, 
1.7133,486.6,424.5,1218.3,-4585.2,-4363.8,89.1,-4580.7,776.4,-2074.8,-4485.6,-4501.2,-4670.1,31.5,5275.2,1570.2,-4913.7,-7.2,-6.0,-4772.1,9830.1,-0.6,-4379.4,756.6,-2865.3,0,3084,824633720832,202,0, 
1.7167,-240.6,389.7,2583.9,-6743.1,-6519.6,2640.6,-6736.2,518.1,-4520.1,-6625.2,-6651.6,-6824.1,2237.7,8904.6,8420.7,-6377.7,-6.6,-6.0,-6924.6,6873.6,-0.9,-6519.6,1045.2,-4843.5,0,3090,824633720832,203,0, 
1.7200,357.3,448.2,2448.6,-423.9,-213.6,2089.2,-444.0,-186.6,-4742.4,-293.7,-323.1,-501.6,2154.0,8349.3,5306.4,-4704.0,-6.9,-6.0,-636.6,-7133.4,-0.9,-192.9,1299.9,264.6,0,3096,824633720832,204,0, 
1.7233,1186.8,177.6,696.9,5585.4,5792.1,-1329.3,5547.3,-721.5,-2815.8,5715.6,5691.3,5512.2,-563.7,3866.4,-4170.3,-2356.8,-6.9,-6.0,5358.6,-9830.1,-0.9,5823.0,924.6,5338.2,0,3102,824633720832,205,0, 
1.7267,1154.7,26.7,-95.1,2691.9,2907.3,-2667.6,2676.3,-171.3,-1037.4,2804.1,2794.5,2618.7,-1858.5,2025.0,-6284.1,-2568.0,-6.9,-6.0,2487.3,-915.9,-0.6,2919.6,440.1,3133.5,0,3108,824633720832,206,0, 
1.7300,601.2,495.0,1339.2,-4501.5,-4282.5,43.2,-4492.2,834.9,-2074.8,-4401.9,-4407.6,-4579.8,121.8,5453.1,1697.7,-4860.3,-6.6,-6.3,-4680.0,9830.1,-1.2,-4288.5,801.6,-2804.7,0,3114,824633720832,207,0, 
1.7333,-180.0,387.3,2609.1,-6643.8,-6427.8,2604.9,-6638.1,532.5,-4371.9,-6530.1,-6552.6,-6725.4,2239.5,9037.8,8466.0,-6325.2,-7.2,-6.3,-6829.5,6922.2,-1.2,-6421.2,993.0,-4793.4,0,3120,824633720832,208,0, 
1.7367,349.8,392.1,2531.1,-333.6,-125.1,2023.2,-350.4,-225.3,-4816.5,-200.7,-233.4,-410.1,2141.4,8472.0,5283.3,-4657.8,-6.9,-6.0,-542.7,-7050.9,0.0,-95.4,1300.2,335.4,0,3126,824633720832,209,0, 
1.7400,1171.2,76.8,761.1,5685.0,5891.1,-1467.3,5660.1,-838.5,-2593.5,5823.0,5793.3,5608.2,-624.9,3984.0,-4300.5,-2295.9,-6.9,-6.0,5463.6,-9830.1,-0.9,5934.9,845.1,5378.7,0,3132,824633720832,210,0, 
1.7433,1163.7,-52.2,-66.9,2741.7,2952.9,-2730.3,2733.3,-243.6,-963.3,2852.7,2839.8,2668.5,-1978.2,2097.9,-6495.9,-2481.0,-6.9,-6.0,2537.1,-867.3,-0.6,2973.9,327.3,3158.1,0,3138,824633720832,211,0, 
1.7467,575.7,416.7,1324.2,-4491.6,-4265.1,3.0,-4480.5,835.8,-2000.7,-4386.3,-4397.7,-4565.4,91.5,5449.8,1471.2,-4825.5,-6.6,-6.0,-4665.6,9830.1,-0.3,-4270.8,738.9,-2807.1,0,3144,824633720832,212,0, 
1.7500,-226.5,368.1,2609.7,-6683.1,-6462.6,2582.4,-6676.2,510.9,-4371.9,-6567.3,-6587.4,-6756.0,2165.1,8917.2,8282.7,-6344.1,-6.9,-6.0,-6860.1,6899.4,-0.9,-6455.4,948.0,-4839.6,0,3150,824633720832,213,0, 
1.7533,343.5,458.4,2576.1,-354.3,-144.9,2060.1,-375.6,-197.1,-4816.5,-219.6,-242.1,-424.2,2103.3,8370.3,5026.8,-4636.2,-6.9,-5.7,-555.3,-7136.1,-0.6,-109.8,1266.9,313.2,0,3156,824633720832,214,0, 
1.7567,1128.9,110.7,784.8,5702.7,5907.9,-1448.1,5677.2,-767.4,-2667.6,5829.6,5816.1,5639.7,-682.5,3732.9,-4602.9,-2260.8,-6.6,-6.0,5486.4,-9830.1,-0.6,5944.8,793.2,5362.2,0,3162,824633720832,215,0, 
1.7600,1213.5,41.7,42.3,2775.0,2985.0,-2717.7,2766.6,-147.9,-1037.4,2883.3,2876.4,2701.2,-2005.5,1852.8,-6751.8,-2431.2,-6.9,-5.7,2570.4,-855.6,-0.9,3006.3,431.1,3155.7,0,3168,824633720832,216,0, 
1.7633,625.8,417.0,1390.5,-4439.1,-4219.2,36.3,-4428.6,800.4,-2000.7,-4341.6,-4347.6,-4518.0,-64.8,5196.0,1265.1,-4790.1,-7.2,-6.3,-4622.1,9830.1,-0.6,-4224.9,775.5,-2802.3,0,3174,824633720832,217,0, 
1.7667,-194.4,379.5,2621.7,-6552.3,-6337.8,2622.9,-6549.9,471.9,-4297.8,-6450.3,-6459.3,-6628.8,2068.5,8736.6,7992.6,-6278.4,-6.9,-6.0,-6739.2,6919.5,-0.6,-6341.1,945.9,-4737.6,0,3180,824633720832,218,0, 
1.7700,396.3,414.0,2463.0,-241.8,-37.5,2050.8,-265.8,-286.5,-4816.5,-116.7,-140.1,-310.8,1944.9,8190.6,4641.6,-4602.0,-6.9,-6.0,-453.6,-7051.2,-0.6,-6.6,1303.8,359.4,0,3186,824633720832,219,0, 
1.7733,1185.3,90.0,741.6,5781.3,5986.5,-1457.7,5748.0,-750.6,-2593.5,5907.9,5889.3,5716.2,-756.6,3705.9,-4853.4,-2249.7,-7.2,-5.7,5560.5,-9830.1,-0.3,6015.9,936.3,5421.0,0,3192,824633720832,220,0, 
1.7767,1196.7,12.0,-132.0,2804.4,3016.5,-2817.3,2789.4,-200.7,-963.3,2913.3,2907.0,2732.7,-2112.6,1813.5,-7029.9,-2513.1,-6.9,-6.0,2607.3,-782.1,-0.6,3030.3,499.8,3153.6,0,3198,824633720832,221,0, 
1.7800,606.3,375.0,1235.7,-4437.3,-4214.1,-194.1,-4422.6,795.9,-2074.8,-4338.3,-4343.1,-4515.3,-187.8,5071.2,816.3,-4837.8,-6.9,-6.0,-4607.7,9830.1,-1.2,-4220.4,829.8,-2818.2,0,3204,824633720832,222,0, 
1.7833,-186.9,340.8,2502.6,-6527.7,-6308.7,2492.1,-6517.8,473.7,-4223.7,-6420.3,-6432.3,-6598.8,1991.7,8703.6,7692.3,-6319.8,-6.9,-6.0,-6704.4,6839.7,-0.6,-6315.3,972.6,-4730.4,0,3210,824633720832,223,0, 
1.7867,419.7,376.2,2392.5,-175.2,29.7,1939.2,-199.2,-232.5,-4816.5,-53.7,-70.8,-247.2,1775.4,8067.9,4389.3,-4603.2,-7.2,-6.0,-380.7,-7098.9,-1.2,51.6,1355.1,429.3,0,3216,824633720832,224,0, 
1.7900,1210.8,78.6,707.7,5866.8,6072.3,-1490.4,5833.5,-719.1,-2519.4,5990.1,5978.1,5797.2,-914.4,3515.7,-5064.6,-2237.4,-6.9,-6.0,5647.5,-9830.1,-0.9,6096.3,852.3,5502.6,0,3222,824633720832,225,0, 
1.7933,1149.0,-11.1,-161.4,2939.4,3149.7,-2808.3,2924.7,-186.6,-963.3,3037.5,3037.5,2861.4,-2204.1,1690.2,-7260.0,-2465.4,-7.2,-6.3,2736.6,-693.9,-0.6,3153.3,403.8,3281.7,0,3228,824633720832,226,0, 
1.7967,536.7,505.8,1260.3,-4268.1,-4049.7,-32.7,-4263.0,779.7,-1926.6,-4177.8,-4179.9,-4347.6,-228.9,5136.0,729.6,-4718.1,-6.9,-6.0,-4450.8,9830.1,-0.6,-4066.5,756.0,-2669.1,0,3234,824633720832,227,0, 
1.8000,-202.8,477.6,2625.3,-6333.6,-6113.7,2498.1,-6327.9,505.8,-4149.6,-6222.6,-6237.6,-6408.9,1904.4,8764.8,7551.9,-6163.2,-6.9,-6.0,-6510.9,6958.5,-0.9,-6117.6,973.2,-4559.7,0,3240,824633720832,228,0, 
1.8033,343.8,545.4,2507.7,35.1,244.5,1925.4,15.0,-308.7,-4520.1,166.8,144.6,-26.4,1773.3,8085.6,4302.9,-4434.0,-6.6,-5.7,-169.2,-7004.1,-0.9,267.9,1232.1,641.7,0,3246,824633720832,229,0, 
1.8067,1156.2,216.9,757.8,6075.6,6281.4,-1555.5,6042.9,-890.1,-2223.0,6198.0,6186.9,6011.7,-950.4,3534.6,-5302.2,-2083.8,-6.9,-5.7,5853.6,-9830.1,-0.9,6311.1,746.1,5686.8,0,3252,824633720832,230,0, 
1.8100,1083.3,53.4,-60.0,3053.7,3269.4,-2843.4,3050.4,-306.0,-592.8,3156.6,3156.0,2985.9,-2356.5,1665.9,-7440.6,-2323.8,-6.3,-6.0,2851.2,-577.5,-0.9,3276.0,246.6,3389.4,0,3258,824633720832,231,0, 
1.8133,460.2,560.1,1318.5,-4224.9,-4003.5,-117.6,-4204.8,745.5,-1778.4,-4124.7,-4124.4,-4287.9,-357.9,5044.8,611.4,-4689.0,-6.6,-6.3,-4395.6,9830.1,-0.3,-4010.1,571.8,-2624.1,0,3264,824633720832,232,0, 
1.8167,-280.2,624.3,2588.4,-6271.2,-6057.6,2496.3,-6257.4,460.5,-4075.5,-6166.2,-6173.4,-6340.2,1770.6,8738.4,7525.5,-6123.3,-6.9,-6.0,-6448.5,7035.9,-0.9,-6055.2,776.7,-4494.3,0,3270,824633720832,233,0, 
1.8200,383.7,677.7,2534.1,95.7,303.6,1887.0,83.4,-235.8,-4446.0,219.6,202.5,24.9,1798.8,8139.3,4278.3,-4370.4,-6.9,-6.0,-108.9,-6883.2,-0.6,328.2,1182.9,713.7,0,3276,824633720832,234,0, 
1.8233,1110.9,269.7,684.6,6135.9,6341.7,-1629.3,6115.8,-854.7,-2297.1,6259.2,6248.7,6064.8,-996.9,3571.5,-5328.9,-2028.9,-6.9,-6.0,5913.0,-9830.1,-0.6,6371.4,758.1,5737.8,0,3282,824633720832,235,0, 
1.8267,1101.9,177.9,-112.8,3159.3,3375.6,-2985.9,3158.7,-248.1,-666.9,3269.1,3266.4,3094.5,-2301.3,1780.5,-7428.0,-2227.8,-7.2,-6.3,2960.4,-486.3,-0.6,3381.6,352.8,3497.1,0,3288,824633720832,236,0, 
1.8300,549.3,565.8,1287.6,-4199.4,-3977.7,-234.0,-4179.0,850.5,-1704.3,-4104.6,-4106.7,-4263.3,-236.4,5277.3,757.5,-4624.5,-6.9,-5.7,-4379.4,9830.1,-0.6,-3990.3,690.0,-2564.4,0,3294,824633720832,237,0, 
1.8333,-327.9,460.8,2566.2,-6373.5,-6149.1,2372.4,-6350.4,549.0,-4075.5,-6254.7,-6268.5,-6432.6,1953.0,8833.2,7691.1,-6173.7,-6.9,-5.7,-6545.7,7075.5,-0.6,-6150.9,861.6,-4590.6,0,3300,824633720832,238,0, 
1.8367,307.5,500.1,2458.5,24.6,241.8,1830.6,20.7,-248.7,-4668.3,157.5,138.6,-23.1,1923.0,8372.1,4448.1,-4418.4,-6.9,-6.0,-173.7,-6869.1,-0.9,265.2,1280.4,628.2,0,3306,824633720832,239,0, 
1.8400,1073.1,31.2,667.5,6104.1,6312.0,-1720.5,6087.9,-890.4,-2297.1,6240.0,6223.2,6039.6,-932.4,3678.3,-5212.8,-2084.1,-7.2,-6.0,5886.9,-9830.1,-0.9,6351.3,738.9,5719.2,0,3312,824633720832,240,0, 
1.8433,1093.2,-125.7,-201.6,3108.3,3324.6,-3037.2,3102.6,-335.7,-889.2,3219.3,3217.2,3039.3,-2271.9,1824.3,-7485.3,-2309.7,-6.3,-5.7,2915.1,-547.2,-0.9,3332.7,281.7,3441.6,0,3318,824633720832,241,0, 
1.8467,505.8,454.5,1233.0,-4350.3,-4122.0,-229.8,-4329.3,788.1,-1704.3,-4245.3,-4246.2,-4412.7,-213.6,5282.4,773.1,-4684.5,-6.6,-6.0,-4518.0,9830.1,-0.6,-4132.2,713.1,-2708.7,0,3324,824633720832,242,0, 
1.8500,-344.7,389.4,2508.0,-6507.0,-6290.4,2388.9,-6488.7,478.2,-4149.6,-6381.0,-6402.3,-6564.3,2018.4,8881.2,7753.5,-6195.3,-6.9,-6.3,-6678.3,7162.5,-1.2,-6286.2,825.0,-4710.0,0,3330,824633720832,243,0, 
1.8533,203.7,571.5,2368.8,-105.6,102.6,1864.8,-117.6,-247.2,-4742.4,34.8,9.9,-158.4,1891.2,8269.8,4518.0,-4527.0,-7.2,-6.0,-304.8,-6923.1,-0.6,132.6,1287.0,506.1,0,3336,824633720832,244,0, 
1.8567,947.7,211.5,516.9,6128.7,6330.6,-1643.4,6102.3,-920.4,-2371.2,6263.7,6249.3,6076.5,-870.9,3499.5,-5285.7,-2077.2,-6.9,-6.0,5913.3,-9830.1,-1.2,6366.9,822.9,5693.4,0,3342,824633720832,245,0, 
1.8600,945.3,51.6,-359.7,3174.9,3381.3,-3000.0,3164.1,-391.5,-741.0,3277.5,3279.3,3112.5,-2412.9,1593.3,-7541.4,-2266.5,-6.6,-5.7,2973.3,-564.0,-0.6,3383.7,278.1,3453.3,0,3348,824633720832,246,0, 
1.8633,420.3,573.6,1116.6,-4292.4,-4071.0,-110.1,-4275.3,741.0,-1778.4,-4198.8,-4191.0,-4347.9,-241.5,5148.3,748.2,-4657.5,-6.9,-5.7,-4460.1,9830.1,-0.9,-4086.3,858.0,-2685.9,0,3354,824633720832,247,0, 
1.8667,-332.7,507.6,2414.4,-6407.7,-6191.4,2564.4,-6404.7,495.6,-4075.5,-6306.6,-6308.4,-6463.8,2028.3,8820.3,7831.5,-6142.5,-6.9,-6.3,-6582.9,7227.0,-1.2,-6201.9,1116.0,-4659.0,0,3360,824633720832,248,0, 
1.8700,228.0,546.0,2364.0,114.6,320.4,2042.7,96.3,-299.1,-4371.9,234.9,227.1,64.2,1887.9,8198.1,4491.6,-4409.1,-7.5,-6.0,-91.2,-6818.4,-0.9,336.3,1433.4,648.0,0,3366,824633720832,249,0, 
1.8733,950.4,30.0,368.1,6380.4,6585.0,-1736.4,6354.3,-938.1,-2148.9,6502.5,6498.0,6333.6,-1203.6,3452.7,-5511.3,-1975.8,-6.9,-6.0,6161.4,-9830.1,-0.6,6610.8,845.1,5871.9,0,3372,824633720832,250,0, 
1.8767,929.1,-60.6,-592.8,3321.3,3535.2,-3063.3,3308.7,-486.9,-444.6,3423.3,3433.5,3272.4,-2615.1,1535.1,-7780.8,-2172.9,-6.3,-5.4,3125.1,-494.1,-0.9,3535.5,275.7,3567.3,0,3378,824633720832,251,0, 
1.8800,437.7,526.5,981.0,-4181.4,-3957.6,-39.6,-4173.0,694.8,-1630.2,-4092.3,-4083.3,-4240.2,-377.7,5190.3,707.1,-4540.5,-7.2,-5.7,-4354.2,9830.1,-1.2,-3978.3,763.8,-2580.6,0,3384,824633720832,252,0, 
1.8833,-362.1,398.4,2257.2,-6423.9,-6204.9,2637.9,-6419.4,386.7,-4001.4,-6321.3,-6321.6,-6473.7,1795.2,8823.9,7728.3,-6125.1,-6.6,-5.4,-6596.4,7227.9,-0.6,-6211.8,862.2,-4693.5,0,3390,824633720832,253,0, 
1.8867,253.5,443.7,2203.5,54.3,263.7,1920.9,29.4,-348.3,-4520.1,172.5,166.5,14.4,1679.4,8164.5,4365.0,-4419.9,-6.6,-6.0,-154.5,-6856.2,-0.9,276.3,1275.0,569.4,0,3396,824633720832,254,0, 
1.8900,992.4,16.8,221.7,6297.3,6504.9,-1805.4,6260.1,-1038.3,-2445.3,6421.5,6418.5,6251.1,-1200.0,3336.3,-5636.4,-2020.5,-6.6,-6.0,6081.9,-9830.1,-0.6,6528.9,698.7,5793.9,0,3402,824633720832,255,0, 
1.8933,963.3,-164.7,-600.0,3344.7,3565.8,-3166.8,3336.3,-539.1,-518.7,3448.8,3456.9,3295.8,-2735.7,1404.3,-7904.4,-2191.8,-6.6,-6.0,3148.2,-578.4,-0.3,3566.4,317.1,3586.2,0,3408,824633720832,0,0, 
1.8967,401.1,442.5,932.4,-4135.8,-3911.4,-194.7,-4127.1,670.8,-1630.2,-4039.2,-4033.2,-4186.2,-510.0,5040.9,567.3,-4548.9,-6.9,-6.0,-4306.5,9830.1,-0.6,-3930.0,724.8,-2554.8,0,3414,824633720832,1,0, 
1.9000,-413.7,378.3,2254.2,-6333.9,-6116.4,2614.2,-6329.4,407.1,-4001.4,-6219.3,-6226.8,-6376.5,1777.2,8804.1,7596.0,-6095.7,-6.9,-6.0,-6506.4,7299.9,-0.9,-6117.6,918.3,-4588.8,0,3420,824633720832,2,0, 
1.9033,233.1,501.3,2210.1,175.2,378.0,2028.0,148.5,-339.3,-4371.9,303.0,291.9,126.9,1731.6,8196.9,4302.0,-4347.0,-7.2,-6.0,-24.0,-6786.3,-0.9,405.0,1354.2,686.7,0,3426,824633720832,3,0, 
1.9067,969.0,15.0,352.2,6544.8,6750.3,-1724.7,6512.4,-1076.1,-2074.8,6678.0,6671.1,6510.6,-1160.4,3266.7,-5745.9,-1889.4,-6.6,-5.7,6334.5,-9830.1,-0.6,6781.5,726.9,6014.4,0,3432,824633720832,4,0, 
1.9100,925.2,-201.3,-642.9,3536.7,3750.6,-3085.2,3519.3,-502.5,-444.6,3636.3,3648.9,3498.9,-2721.3,1259.7,-8183.7,-2040.6,-6.6,-6.0,3337.5,-486.6,-0.6,3754.2,156.9,3749.4,0,3438,824633720832,5,0, 
1.9133,361.8,452.7,968.1,-4110.0,-3888.0,-141.6,-4098.0,727.2,-1407.9,-4010.1,-4006.8,-4153.5,-528.9,4955.7,324.0,-4494.0,-6.9,-6.3,-4278.3,9830.1,-0.6,-3902.1,702.3,-2555.4,0,3444,824633720832,6,0, 
1.9167,-435.9,402.0,2282.4,-6383.1,-6162.9,2541.3,-6380.4,459.0,-3927.3,-6265.8,-6273.6,-6414.9,1681.8,8686.2,7456.8,-6128.4,-7.5,-5.7,-6551.4,7388.1,-0.6,-6169.8,805.2,-4664.4,0,3450,824633720832,7,0, 
1.9200,193.2,421.2,2177.7,183.6,395.1,1910.7,159.9,-309.9,-4297.8,316.8,306.6,165.3,1650.9,8069.7,4121.7,-4350.3,-6.9,-6.0,-10.2,-6743.4,-0.9,419.1,1187.7,686.7,0,3456,824633720832,8,0, 
1.9233,927.3,-17.4,242.7,6549.9,6750.9,-1821.0,6515.1,-985.2,-2148.9,6669.3,6672.6,6527.1,-1365.3,3186.0,-5974.2,-1923.9,-6.9,-6.0,6336.6,-9830.1,-0.3,6784.8,488.7,5992.8,0,3462,824633720832,9,0, 
1.9267,908.7,-141.9,-697.5,3512.7,3723.9,-3258.3,3497.7,-476.4,-296.4,3617.7,3627.3,3490.2,-2840.7,1195.8,-8329.5,-2109.0,-7.2,-5.7,3319.5,-532.5,-0.3,3726.3,-31.8,3680.7,0,3468,824633720832,10,0, 
1.9300,493.8,472.5,931.5,-4040.1,-3819.9,-163.8,-4028.7,787.8,-1482.0,-3942.3,-3932.1,-4067.7,-617.7,4999.8,248.1,-4516.2,-6.9,-5.7,-4203.3,9830.1,-0.6,-3832.5,522.9,-2512.2,0,3474,824633720832,11,0, 
1.9333,-384.6,453.9,2244.3,-6311.7,-6093.9,2568.0,-6306.6,466.2,-3779.1,-6196.5,-6198.9,-6346.5,1674.3,8774.4,7382.1,-6045.9,-6.6,-6.0,-6476.7,7351.8,-0.3,-6090.3,712.8,-4610.1,0,3480,824633720832,12,0, 
1.9367,232.2,483.6,2201.4,287.7,497.1,1964.4,270.3,-342.9,-4371.9,416.1,406.2,261.0,1581.0,8095.5,4034.1,-4281.3,-6.9,-6.0,90.9,-6715.2,-0.6,520.5,1006.5,758.4,0,3486,824633720832,13,0, 
1.9400,923.1,48.3,157.8,6603.0,6803.7,-1847.7,6571.5,-1044.6,-2074.8,6729.0,6726.3,6575.1,-1360.5,3166.5,-6135.9,-1845.3,-6.9,-5.4,6390.9,-9830.1,-0.3,6834.0,419.4,6020.1,0,3492,824633720832,14,0, 
1.9433,1004.7,-63.3,-726.9,3608.4,3819.0,-3112.5,3595.5,-450.6,-370.5,3707.1,3714.9,3574.8,-2781.3,1274.7,-8407.2,-2018.4,-6.6,-5.7,3406.5,-472.5,-0.9,3819.3,4.5,3796.5,0,3498,824633720832,15,0, 
1.9467,503.4,543.6,869.7,-3981.6,-3764.4,-45.9,-3975.0,803.4,-1407.9,-3891.6,-3884.1,-4021.5,-497.1,5040.6,153.3,-4393.8,-6.9,-6.0,-4155.9,9830.1,-0.6,-3779.1,565.2,-2442.3,0,3504,824633720832,16,0, 
1.9500,-339.9,571.8,2169.3,-6200.4,-5985.0,2668.5,-6202.5,517.8,-3705.0,-6097.8,-6096.6,-6225.3,1668.6,8742.9,7299.6,-6013.8,-6.6,-6.3,-6369.6,7438.2,-0.3,-5997.3,688.5,-4532.4,0,3510,824633720832,17,0, 
1.9533,173.4,558.9,2039.4,340.8,546.9,1947.3,316.8,-264.3,-4149.6,466.5,460.2,320.7,1596.3,8077.8,3893.4,-4290.9,-7.2,-6.0,144.3,-6667.5,-1.2,567.3,1053.9,819.9,0,3516,824633720832,18,0, 
1.9567,923.4,54.0,63.6,6642.0,6849.3,-1847.4,6607.2,-1009.5,-1926.6,6769.8,6765.0,6622.5,-1428.9,3122.7,-6212.7,-1886.1,-6.6,-5.7,6425.7,-9830.1,-0.9,6876.0,422.7,6045.3,0,3522,824633720832,19,0, 
1.9600,918.0,-34.5,-908.1,3549.6,3760.2,-3202.5,3530.4,-453.9,-444.6,3652.2,3662.1,3523.8,-2889.3,1210.8,-8476.8,-2091.6,-6.6,-6.0,3358.2,-492.3,-0.3,3762.6,-84.9,3731.1,0,3528,824633720832,20,0, 
1.9633,425.4,512.7,658.8,-4058.4,-3832.8,-160.2,-4056.0,728.1,-1482.0,-3963.0,-3952.8,-4084.5,-691.8,4924.8,84.6,-4495.8,-6.9,-6.0,-4223.1,9830.1,-0.9,-3853.2,499.2,-2522.1,0,3534,824633720832,21,0, 
1.9667,-260.4,495.9,2073.9,-6256.2,-6037.5,2616.0,-6262.5,427.8,-3853.2,-6156.3,-6148.2,-6279.3,1651.2,8704.2,7235.7,-6029.1,-7.5,-6.0,-6420.6,7340.1,-0.9,-6049.8,702.0,-4533.9,0,3540,824633720832,22,0, 
1.9700,253.8,516.9,2061.3,231.6,436.5,1995.6,207.3,-285.9,-4297.8,368.7,354.3,217.5,1567.8,8049.0,3886.5,-4318.8,-6.9,-6.0,42.3,-6727.8,-0.6,461.7,1027.2,687.0,0,3546,824633720832,23,0, 
1.9733,951.3,47.1,70.2,6590.7,6793.5,-1797.6,6551.4,-946.5,-2074.8,6725.4,6722.1,6579.6,-1338.6,3195.3,-6118.2,-1892.7,-6.9,-6.3,6385.8,-9830.1,-0.6,6823.5,468.3,6021.3,0,3552,824633720832,24,0, 
1.9767,1017.3,-101.1,-819.9,3542.7,3753.9,-3141.6,3528.0,-519.3,-296.4,3656.1,3663.9,3522.0,-2860.5,1203.0,-8490.0,-2138.1,-7.2,-6.0,3355.8,-495.3,-0.9,3760.2,-49.8,3720.6,0,3558,824633720832,25,0, 
1.9800,493.8,507.9,671.1,-3919.8,-3701.1,-223.8,-3909.0,685.2,-1333.8,-3818.1,-3812.1,-3946.5,-598.5,4870.8,-94.2,-4467.0,-6.9,-5.7,-4082.7,9830.1,-0.6,-3718.8,536.4,-2418.0,0,3564,824633720832,26,0, 
1.9833,-219.0,450.6,1958.4,-6099.6,-5881.2,2465.7,-6096.9,471.3,-3705.0,-5988.6,-5987.4,-6126.9,1608.0,8523.6,7033.2,-5992.5,-6.9,-6.3,-6261.6,7361.4,-0.9,-5890.8,739.5,-4442.1,0,3570,824633720832,27,0, 
1.9867,320.4,407.1,1877.1,291.6,495.9,1907.7,272.1,-245.7,-4297.8,421.2,411.0,270.6,1511.1,7991.1,3800.7,-4354.5,-6.6,-6.3,95.1,-6642.0,-1.2,514.8,1047.3,758.1,0,3576,824633720832,28,0, 
1.9900,1027.2,-176.4,-45.3,6530.1,6734.4,-1703.7,6492.3,-919.5,-2074.8,6653.4,6656.1,6517.5,-1375.8,3111.3,-6105.0,-1994.7,-6.6,-6.0,6321.9,-9830.1,-0.9,6761.7,486.9,5954.1,0,3582,824633720832,29,0, 
1.9933,932.7,-331.8,-970.8,3514.2,3726.9,-3116.1,3495.0,-500.1,-296.4,3607.8,3627.0,3485.1,-2838.3,1154.1,-8467.2,-2138.7,-6.6,-5.7,3318.9,-512.1,-0.6,3723.9,-23.4,3694.5,0,3588,824633720832,30,0, 
