Time,P3,C3,F3,Fz,F4,C4,P4,Cz,CM,A1,Fp1,Fp2,T3,T5,O1,O2,X3,X2,F7,F8,X1,A2,T6,T4,Trigger,Time_Offset,ADC_Status,ADC_Sequence,Event,Comments
0.0033,-240.9,-116.7,-75.0,-108.9,-15.9,-150.0,-55.2,-42.9,-2223.0,-195.9,78.3,162.9,-778.2,-7182.9,-7143.9,-3396.0,-6.9,-5.7,0.0,-375.6,-1.2,-102.6,-14.1,-168.3,0,6,0,86,0, 
0.0067,-245.7,-123.3,-211.2,-115.5,-27.0,-155.1,-53.4,-49.2,-2148.9,-207.3,67.8,148.2,-1015.8,-7442.4,-7124.7,-3085.5,-6.9,-5.7,-13.8,-387.6,-0.9,-102.6,-7.5,-174.3,0,12,0,87,0, 
0.0100,-247.5,-117.6,-112.5,-115.5,-27.0,-145.5,-60.0,-49.2,-2371.2,-212.7,61.5,147.0,-992.4,-7263.6,-7483.5,-3192.3,-7.2,-6.0,-14.7,-388.5,-0.6,-106.5,-9.6,-181.5,0,18,0,88,0, 
0.0133,-251.4,-126.3,0.0,-116.7,-38.7,-153.9,-69.9,-53.4,-2371.2,-190.5,64.5,155.1,-696.9,-6867.0,-7809.6,-3626.4,-6.9,-6.0,-12.9,-375.0,-0.9,-100.8,-11.4,-179.1,0,24,0,89,0, 
0.0167,-248.7,-117.6,27.9,-115.5,-38.4,-150.9,-66.3,-49.8,-2223.0,-195.0,66.6,151.8,-541.8,-6830.4,-7722.0,-3751.8,-6.9,-6.0,-5.7,-379.2,-1.2,-102.9,-3.9,-167.1,0,30,0,90,0, 
0.0200,-256.5,-124.5,-87.3,-120.0,-29.4,-151.5,-46.5,-51.3,-2148.9,-198.6,67.8,155.4,-693.6,-7145.4,-7298.1,-3399.6,-6.6,-5.7,-13.2,-377.4,-0.9,-92.1,5.4,-164.1,0,36,0,91,0, 
0.0233,-255.3,-123.6,-189.3,-125.7,-21.9,-152.4,-43.8,-51.0,-2223.0,-198.3,66.0,150.9,-963.3,-7442.1,-7226.1,-3028.2,-6.9,-6.0,-10.8,-379.5,-0.6,-93.3,-6.3,-168.3,0,42,0,92,0, 
0.0267,-253.8,-128.7,-103.2,-126.9,-40.8,-156.9,-52.2,-52.2,-2371.2,-193.8,67.2,151.8,-949.8,-7275.9,-7500.3,-3133.2,-6.6,-5.7,-10.8,-377.4,-0.6,-90.6,-6.9,-180.9,0,48,0,93,0, 
0.0300,-244.8,-112.2,49.2,-118.2,-35.1,-147.3,-49.8,-41.7,-2297.1,-181.5,71.1,157.2,-640.8,-6854.7,-7797.3,-3549.3,-6.9,-6.0,-6.6,-375.0,-0.9,-87.0,-6.9,-163.8,0,54,0,94,0, 
0.0333,-241.8,-114.6,-6.9,-118.5,-48.3,-145.8,-53.1,-46.5,-2297.1,-182.7,74.4,161.1,-448.5,-6830.1,-7690.2,-3697.2,-6.9,-5.4,-4.8,-370.8,-1.2,-87.0,-12.0,-161.7,0,60,0,95,0, 
0.0367,-239.7,-115.2,-148.5,-121.8,-46.8,-160.2,-54.6,-49.5,-2223.0,-183.0,67.2,155.7,-598.5,-7139.4,-7290.6,-3329.7,-6.6,-5.7,-12.3,-378.0,-0.9,-85.5,-7.8,-162.3,0,66,0,96,0, 
0.0400,-236.4,-123.3,-241.5,-125.4,-48.6,-160.2,-45.0,-57.0,-2445.3,-184.5,62.4,152.1,-796.8,-7407.0,-7192.5,-3003.3,-6.9,-6.0,-10.8,-379.2,-0.9,-96.3,-9.0,-166.2,0,72,0,97,0, 
0.0433,-233.7,-118.2,-191.4,-131.4,-78.6,-165.9,-60.9,-56.1,-2223.0,-188.4,56.4,144.6,-839.4,-7289.1,-7497.6,-3173.1,-6.9,-6.6,-17.1,-387.0,-0.9,-102.6,-21.9,-188.1,0,78,0,98,0, 
0.0467,-236.1,-121.5,-28.8,-127.8,-62.7,-160.8,-68.4,-49.8,-2371.2,-211.5,61.2,144.0,-588.0,-6890.7,-7873.5,-3614.7,-6.9,-5.7,-11.4,-389.4,-0.6,-103.8,-29.1,-184.2,0,84,0,99,0, 
0.0500,-232.8,-121.5,25.8,-135.0,-60.3,-169.2,-69.0,-53.4,-2371.2,-185.7,49.2,132.9,-351.3,-6758.7,-7752.6,-3658.2,-6.9,-6.0,-24.0,-399.0,-0.6,-105.6,-30.0,-192.3,0,90,0,100,0, 
0.0533,-235.2,-128.7,-125.4,-134.7,-53.4,-168.0,-64.2,-52.2,-2223.0,-206.1,50.7,133.2,-534.9,-7087.8,-7365.0,-3339.6,-6.9,-5.7,-21.3,-393.6,-1.2,-102.3,-24.6,-186.6,0,96,0,101,0, 
0.0567,-235.5,-127.5,-242.7,-137.7,-51.6,-173.7,-50.7,-54.6,-2297.1,-210.0,45.6,127.8,-856.2,-7432.8,-7257.9,-2993.7,-6.9,-6.0,-28.2,-401.1,-0.3,-121.5,-25.2,-199.8,0,102,0,102,0, 
0.0600,-238.8,-135.0,-261.0,-143.7,-68.1,-173.7,-58.8,-57.3,-2371.2,-218.7,34.5,117.3,-935.4,-7341.3,-7651.5,-3205.8,-6.9,-5.7,-33.9,-411.6,-0.6,-130.2,-31.5,-204.6,0,108,0,103,0, 
0.0633,-236.7,-134.7,-112.2,-147.6,-78.6,-180.0,-60.9,-52.5,-2445.3,-224.7,30.3,115.5,-731.1,-7072.5,-7950.6,-3573.0,-7.5,-6.3,-44.1,-413.7,-0.9,-137.4,-41.7,-204.6,0,114,0,104,0, 
0.0667,-234.0,-132.9,-90.0,-143.7,-66.0,-174.6,-55.8,-50.1,-2371.2,-221.1,32.7,116.7,-631.5,-6999.9,-7881.6,-3693.0,-6.9,-6.3,-42.0,-416.1,-1.2,-134.7,-36.9,-205.5,0,120,0,105,0, 
0.0700,-234.3,-135.0,-258.3,-142.8,-63.3,-176.4,-52.2,-51.3,-2297.1,-230.1,34.5,117.6,-882.0,-7418.7,-7440.0,-3332.7,-7.2,-5.7,-40.5,-413.7,-0.3,-145.2,-32.4,-213.9,0,126,0,106,0, 
0.0733,-233.1,-137.1,-336.3,-140.4,-58.8,-190.5,-62.1,-52.5,-2371.2,-218.7,33.0,116.1,-1251.9,-7740.3,-7365.6,-2946.3,-6.9,-6.0,-42.6,-409.5,-0.9,-129.9,-37.2,-201.0,0,132,0,107,0, 
0.0767,-235.2,-129.0,-212.1,-132.0,-56.4,-178.8,-56.1,-46.5,-2445.3,-222.3,42.0,126.6,-1372.2,-7644.0,-7759.8,-3068.7,-6.3,-6.0,-27.6,-408.0,-0.6,-128.7,-33.6,-207.0,0,138,0,108,0, 
0.0800,-231.6,-123.9,-35.4,-125.4,-45.3,-175.2,-57.3,-42.6,-2445.3,-214.8,48.9,131.7,-1178.4,-7296.3,-8110.5,-3539.7,-6.6,-5.7,-27.9,-395.4,-1.2,-116.7,-26.4,-197.7,0,144,0,109,0, 
0.0833,-231.0,-126.9,13.2,-120.3,-46.5,-165.0,-47.7,-41.7,-2297.1,-202.8,56.4,140.7,-1047.0,-7199.1,-7935.0,-3660.6,-6.6,-6.0,-25.8,-388.5,-0.9,-104.1,-23.7,-180.9,0,150,0,110,0, 
0.0867,-228.0,-117.9,-177.0,-113.1,-27.6,-153.6,-48.3,-35.7,-2297.1,-215.7,60.9,147.9,-1276.2,-7544.7,-7530.9,-3305.4,-6.9,-6.0,-20.1,-381.9,-0.3,-108.9,-13.8,-170.1,0,156,0,111,0, 
0.0900,-223.8,-106.5,-259.8,-100.5,-17.4,-150.0,-34.5,-27.3,-2223.0,-195.9,74.7,160.2,-1595.1,-7780.8,-7430.4,-3003.9,-6.6,-6.0,-2.7,-369.0,-0.9,-100.5,-10.8,-162.3,0,162,0,112,0, 
0.0933,-232.2,-119.1,-196.8,-105.0,-30.6,-147.3,-34.8,-36.0,-2371.2,-198.9,76.2,157.8,-1651.5,-7648.2,-7778.7,-3077.1,-6.9,-6.0,-2.7,-370.5,-0.9,-88.5,-8.7,-166.5,0,168,0,113,0, 
0.0967,-234.3,-111.0,-83.7,-97.5,-18.9,-144.3,-38.1,-31.2,-2371.2,-191.4,75.6,160.5,-1436.1,-7297.2,-8111.7,-3598.5,-6.9,-5.7,2.7,-368.7,-0.6,-97.2,-5.7,-160.5,0,174,0,114,0, 
0.1000,-234.9,-113.7,-37.2,-97.8,-8.7,-143.4,-33.6,-30.3,-2148.9,-198.3,81.3,163.8,-1215.3,-7193.4,-7987.2,-3651.0,-6.9,-5.7,6.0,-367.8,-0.9,-101.4,2.7,-164.4,0,180,0,115,0, 
0.1033,-240.3,-120.9,-201.3,-102.0,-7.8,-143.1,-23.7,-35.1,-2148.9,-200.4,69.0,160.5,-1406.4,-7508.4,-7654.5,-3323.1,-6.9,-6.3,-9.3,-370.8,-1.2,-90.9,12.9,-162.0,0,186,0,116,0, 
0.1067,-243.0,-127.8,-331.2,-100.8,7.2,-142.2,-22.5,-36.3,-2371.2,-186.6,80.7,163.5,-1701.3,-7770.6,-7557.0,-2913.0,-6.9,-6.3,-1.8,-368.7,-0.3,-89.1,13.5,-153.9,0,192,0,117,0, 
0.1100,-240.0,-122.1,-256.8,-105.6,-7.5,-153.6,-38.7,-39.3,-2371.2,-200.4,77.1,161.1,-1731.0,-7635.9,-7849.8,-3090.0,-6.9,-6.0,-5.7,-375.0,-0.9,-105.0,6.3,-165.6,0,198,0,118,0, 
0.1133,-238.2,-122.4,-30.3,-97.5,-0.3,-151.5,-44.4,-42.3,-2297.1,-184.2,82.2,164.1,-1490.1,-7278.3,-8097.3,-3507.6,-6.9,-5.4,0.3,-366.6,-0.9,-93.0,5.1,-171.3,0,204,0,119,0, 
0.1167,-235.2,-117.6,19.2,-101.4,-10.8,-148.5,-40.8,-44.4,-2223.0,-186.6,82.2,166.8,-1330.5,-7180.8,-8045.1,-3704.4,-6.9,-6.0,-0.9,-367.2,-0.9,-87.3,-0.3,-175.8,0,210,0,120,0, 
0.1200,-236.7,-115.5,-120.6,-101.1,11.7,-156.3,-33.0,-44.4,-2223.0,-180.6,84.3,166.2,-1417.5,-7494.3,-7650.3,-3279.9,-7.2,-6.6,3.9,-362.4,-1.2,-89.7,5.4,-161.1,0,216,0,121,0, 
0.1233,-237.3,-125.1,-225.3,-106.2,5.4,-159.6,-37.2,-45.3,-2297.1,-186.3,78.3,160.8,-1690.8,-7763.4,-7469.7,-2935.2,-7.2,-6.0,-0.3,-372.3,-0.9,-87.9,-3.9,-164.4,0,222,0,122,0, 
0.1267,-238.2,-123.3,-184.5,-108.6,-7.5,-161.7,-43.5,-49.8,-2371.2,-190.5,72.3,153.3,-1699.2,-7600.2,-7780.5,-3092.1,-6.9,-6.0,-5.4,-377.4,-0.6,-91.2,-10.5,-165.0,0,228,0,123,0, 
0.1300,-231.9,-110.7,-8.1,-107.7,-21.0,-161.4,-53.4,-43.8,-2445.3,-197.1,73.8,150.6,-1435.8,-7203.0,-8123.4,-3526.2,-6.6,-5.7,0.3,-380.7,-0.9,-96.3,-11.4,-171.9,0,234,0,124,0, 
0.1333,-234.0,-122.1,25.5,-117.0,-21.3,-167.4,-54.3,-48.3,-2371.2,-207.9,59.7,138.3,-1283.7,-7114.2,-8040.3,-3657.9,-6.6,-6.0,-20.1,-392.4,-0.9,-100.5,-13.2,-180.9,0,240,0,125,0, 
0.1367,-232.8,-126.3,-94.2,-123.3,-11.7,-174.0,-46.2,-48.6,-2297.1,-215.1,56.4,138.6,-1405.2,-7467.6,-7668.9,-3322.5,-6.9,-6.0,-26.1,-394.2,-0.6,-111.0,-9.9,-183.3,0,246,0,126,0, 
0.1400,-232.8,-123.6,-199.8,-129.6,-15.9,-175.2,-41.1,-51.0,-2223.0,-209.1,51.3,133.2,-1619.7,-7695.9,-7538.4,-2903.7,-6.6,-5.4,-20.4,-400.8,-0.9,-107.7,-18.0,-191.7,0,252,0,127,0, 
0.1433,-232.8,-129.0,296.1,-138.3,-5.7,-183.3,-31.5,-56.1,-2445.3,-209.1,42.3,126.0,-1311.3,-7362.6,-7330.5,-2720.4,-7.2,-5.7,-30.3,-407.4,-0.6,-126.0,-27.6,-200.7,0,258,0,128,0, 
0.1467,-231.9,-122.4,285.6,-139.8,-48.0,-188.7,-47.7,-51.9,-2223.0,-228.3,41.1,119.4,-1160.1,-7200.6,-7919.1,-3381.0,-6.6,-5.4,-29.4,-405.9,-0.9,-126.6,-39.0,-219.3,0,264,0,129,0, 
0.1500,-234.6,-131.4,188.1,-144.6,-46.5,-196.2,-57.3,-59.1,-2297.1,-232.2,36.0,114.9,-992.4,-7108.2,-7952.7,-3552.3,-7.2,-6.0,-39.0,-405.6,-0.6,-141.9,-47.4,-226.5,0,270,0,130,0, 
0.1533,-231.0,-125.4,-66.0,-137.7,-34.8,-187.2,-48.0,-43.8,-2148.9,-224.7,42.0,120.9,-1172.7,-7449.9,-7679.1,-3269.4,-6.9,-6.0,-32.7,-407.1,-0.3,-133.2,-39.3,-215.1,0,276,0,131,0, 
0.1567,-232.5,-127.8,-144.9,-135.6,-21.3,-186.9,-33.3,-49.8,-2371.2,-223.8,43.2,123.9,-1383.3,-7710.9,-7501.8,-2869.8,-6.9,-6.0,-28.8,-407.7,-0.6,-128.7,-40.5,-214.5,0,282,0,132,0, 
0.1600,-231.3,-127.5,-117.3,-133.5,-30.6,-180.6,-53.4,-48.0,-2371.2,-227.1,44.7,124.8,-1390.5,-7537.5,-7951.2,-3007.2,-6.9,-6.0,-30.3,-405.3,-0.3,-133.5,-41.1,-210.6,0,288,0,133,0, 
0.1633,-232.5,-130.5,19.5,-133.5,-57.6,-183.3,-57.6,-51.3,-2371.2,-229.8,45.3,123.3,-1057.2,-7086.0,-8275.8,-3469.5,-6.9,-5.7,-29.1,-403.2,-1.2,-136.5,-45.9,-216.9,0,294,0,134,0, 
0.1667,-232.2,-131.1,28.8,-127.5,-40.2,-178.2,-56.1,-47.1,-2223.0,-228.6,50.1,129.3,-874.5,-7011.0,-8140.5,-3570.6,-6.9,-6.0,-25.8,-401.4,-0.6,-128.7,-38.7,-215.4,0,300,0,135,0, 
0.1700,-236.7,-123.9,-59.4,-127.5,-19.2,-186.6,-49.8,-47.1,-2223.0,-221.4,50.7,131.7,-952.2,-7300.2,-7739.1,-3258.3,-6.6,-6.0,-23.7,-396.6,-1.2,-122.7,-40.8,-212.1,0,306,0,136,0, 
0.1733,-238.2,-128.4,-211.8,-126.9,-22.5,-179.1,-43.5,-44.1,-2297.1,-221.7,52.2,131.4,-1145.7,-7599.0,-7598.4,-2899.5,-7.2,-5.7,-24.0,-394.5,-0.6,-128.7,-36.3,-201.0,0,312,0,137,0, 
0.1767,-235.5,-120.3,-182.1,-123.6,-26.1,-171.6,-51.3,-40.5,-2445.3,-224.7,52.8,128.4,-1113.0,-7439.7,-7877.4,-2990.7,-6.9,-6.0,-16.5,-394.5,-1.2,-112.2,-32.1,-194.4,0,318,0,138,0, 
0.1800,-240.3,-122.4,-82.2,-120.0,-49.2,-171.0,-60.3,-38.4,-2297.1,-206.7,57.6,136.2,-845.1,-7044.3,-8204.4,-3436.2,-6.9,-6.0,-17.1,-384.3,-0.9,-122.1,-32.7,-204.3,0,324,0,139,0, 
0.1833,-240.6,-124.5,-62.7,-121.5,-42.0,-171.6,-54.6,-36.3,-2371.2,-202.5,59.4,138.9,-625.8,-6940.2,-8104.8,-3593.7,-6.6,-6.0,-15.6,-382.5,-1.2,-108.9,-30.6,-200.4,0,330,0,140,0, 
0.1867,-243.0,-126.9,-156.3,-120.0,-17.1,-170.4,-35.7,-29.4,-2297.1,-207.9,58.8,138.9,-666.9,-7242.3,-7764.6,-3262.8,-6.9,-5.7,-15.9,-380.4,-0.9,-118.8,-23.1,-187.2,0,336,0,141,0, 
0.1900,-242.7,-130.8,-227.1,-118.5,-19.2,-170.4,-32.4,-22.2,-2297.1,-211.8,60.6,140.7,-908.7,-7467.3,-7537.5,-2832.9,-7.2,-6.0,-18.9,-377.7,-0.6,-111.6,-15.0,-190.8,0,342,0,142,0, 
0.1933,-245.4,-131.7,-192.0,-113.1,-21.9,-165.9,-43.2,-24.6,-2297.1,-191.7,65.1,147.3,-956.7,-7379.1,-7889.1,-3044.7,-7.2,-5.7,-8.4,-366.0,-0.3,-99.0,-12.3,-178.8,0,348,0,143,0, 
0.1967,-242.4,-125.7,-36.0,-114.0,-36.9,-163.5,-44.1,-24.3,-2371.2,-196.5,76.2,153.3,-714.6,-6983.4,-8271.9,-3497.1,-6.9,-6.0,2.1,-362.4,-1.2,-86.1,-14.4,-187.5,0,354,0,144,0, 
0.2000,-245.7,-130.2,0.6,-114.6,-29.1,-165.0,-30.3,-30.0,-2371.2,-185.1,72.0,152.7,-521.7,-6885.9,-8170.5,-3588.6,-6.9,-6.0,0.3,-362.4,-0.6,-88.2,-12.6,-177.3,0,360,0,145,0, 
0.2033,-248.7,-134.4,-172.8,-117.3,-23.4,-170.4,-30.0,-33.9,-2297.1,-188.4,68.4,148.5,-678.3,-7224.6,-7786.2,-3186.3,-6.9,-6.0,-7.5,-363.6,-1.2,-91.2,-9.0,-182.4,0,366,0,146,0, 
0.2067,-245.1,-132.9,-237.6,-117.3,-9.0,-166.5,-25.5,-36.6,-2148.9,-202.8,63.3,144.9,-987.6,-7578.3,-7675.8,-2822.7,-7.2,-6.0,-15.6,-370.8,-0.6,-93.6,-11.1,-185.1,0,372,0,147,0, 
0.2100,-249.6,-132.3,-177.3,-117.9,-41.1,-162.6,-29.4,-42.3,-2445.3,-200.4,62.1,141.6,-1077.6,-7413.6,-8027.7,-2971.2,-6.6,-6.0,-15.0,-368.7,-1.2,-104.1,-16.5,-181.5,0,378,0,148,0, 
0.2133,-256.2,-140.7,-67.8,-123.9,-52.2,-179.4,-53.4,-49.5,-2519.4,-202.8,53.7,134.4,-898.8,-7056.0,-8315.4,-3421.8,-6.9,-6.0,-21.6,-383.1,-0.6,-109.5,-32.7,-202.5,0,384,0,149,0, 
0.2167,-255.0,-132.6,-101.4,-120.9,-36.9,-172.8,-50.7,-47.4,-2371.2,-200.1,55.2,135.0,-758.1,-6988.8,-8192.4,-3547.2,-7.2,-6.0,-24.6,-380.1,-0.9,-106.8,-27.3,-209.4,0,390,0,150,0, 
0.2200,-255.0,-133.5,-231.9,-123.0,-30.9,-169.8,-43.8,-45.3,-2223.0,-213.9,57.0,139.5,-979.2,-7352.7,-7901.4,-3233.4,-6.6,-6.0,-24.6,-374.7,-0.6,-106.2,-30.0,-202.8,0,396,0,151,0, 
0.2233,-255.3,-131.1,-300.3,-131.1,-43.2,-175.8,-43.5,-43.8,-2223.0,-204.3,53.1,136.8,-1339.8,-7683.3,-7685.1,-2784.9,-7.2,-6.0,-21.9,-376.5,-0.9,-112.2,-24.0,-203.7,0,402,0,152,0, 
0.2267,-256.5,-141.9,-222.3,-141.0,-54.9,-176.1,-52.2,-50.4,-2445.3,-221.4,47.4,123.6,-1474.5,-7598.7,-7953.0,-3012.6,-7.2,-6.0,-30.3,-382.5,-0.6,-118.5,-36.6,-219.9,0,408,0,153,0, 
0.2300,-252.6,-134.7,-112.2,-140.7,-65.7,-181.2,-65.4,-47.4,-2371.2,-213.9,39.0,119.4,-1300.8,-7182.9,-8316.3,-3460.8,-7.2,-5.7,-38.1,-395.1,-0.9,-127.5,-36.6,-217.5,0,414,0,154,0, 
0.2333,-256.5,-134.7,-78.9,-140.7,-53.1,-181.8,-62.4,-52.2,-2371.2,-230.4,40.5,115.2,-1195.5,-7168.2,-8190.3,-3573.0,-7.2,-6.3,-33.9,-399.9,-0.9,-136.8,-39.6,-214.8,0,420,0,155,0, 
0.2367,-261.0,-144.9,-290.7,-146.4,-27.0,-184.5,-55.8,-57.3,-2148.9,-228.6,37.8,114.9,-1431.9,-7534.8,-7844.7,-3270.6,-7.2,-6.3,-35.7,-393.6,-0.6,-116.4,-37.8,-217.2,0,426,0,156,0, 
0.2400,-251.7,-135.0,-390.9,-138.6,-16.2,-179.4,-48.0,-50.7,-2148.9,-210.0,46.5,122.7,-1722.3,-7837.8,-7770.0,-2930.7,-6.9,-6.0,-34.2,-386.4,-1.2,-121.8,-30.9,-209.7,0,432,0,157,0, 
0.2433,-250.8,-136.5,-338.1,-132.3,-34.2,-174.9,-51.3,-42.3,-2445.3,-215.1,53.7,128.1,-1806.0,-7717.8,-8075.7,-3042.6,-7.2,-5.7,-24.6,-378.6,-1.2,-130.8,-29.1,-202.2,0,438,0,158,0, 
0.2467,-251.4,-125.7,-164.1,-134.4,-35.4,-174.0,-63.3,-37.8,-2371.2,-207.3,51.0,125.7,-1620.6,-7364.7,-8423.4,-3489.6,-6.6,-6.0,-30.3,-384.6,-0.9,-126.6,-34.8,-204.0,0,444,0,159,0, 
0.2500,-251.1,-123.9,-186.0,-130.2,-38.4,-175.8,-71.4,-34.2,-2445.3,-219.3,55.8,132.6,-1494.6,-7297.8,-8414.7,-3605.4,-6.9,-5.7,-18.6,-378.9,-0.9,-117.9,-40.2,-203.7,0,450,0,160,0, 
0.2533,-245.4,-124.8,-344.7,-121.2,-11.4,-173.4,-49.8,-28.2,-2371.2,-208.2,60.3,137.7,-1665.9,-7612.2,-7971.9,-3253.2,-6.6,-6.3,-13.8,-377.1,-0.9,-115.2,-34.5,-201.9,0,456,0,161,0, 
0.2567,-243.9,-121.8,-507.9,-124.2,-6.9,-171.9,-58.8,-22.2,-2297.1,-202.2,64.2,142.2,-2001.0,-7973.7,-7855.8,-2814.0,-6.9,-6.0,-12.6,-365.7,-0.6,-105.9,-36.3,-202.8,0,462,0,162,0, 
0.2600,-244.5,-121.2,-479.4,-124.2,-8.1,-168.0,-57.3,-23.1,-2445.3,-205.2,65.4,141.6,-2147.7,-7877.1,-8172.3,-2999.7,-6.3,-6.0,-13.5,-369.9,-0.6,-130.2,-37.5,-201.3,0,468,0,163,0, 
0.2633,-246.0,-120.6,-353.7,-124.2,-24.9,-181.2,-69.0,-21.6,-2371.2,-220.2,66.0,143.1,-1956.9,-7510.2,-8552.7,-3465.9,-6.9,-5.7,-10.2,-372.3,-1.2,-129.3,-46.8,-207.9,0,474,0,164,0, 
0.2667,-247.2,-127.8,-375.0,-127.5,1.5,-175.8,-72.6,-20.7,-2297.1,-223.8,57.3,138.9,-1885.5,-7440.6,-8403.3,-3636.3,-6.9,-6.0,-15.9,-375.0,-1.2,-108.0,-43.2,-213.6,0,480,0,165,0, 
0.2700,-247.5,-127.2,-522.9,-130.5,-4.2,-172.8,-65.1,-18.9,-2371.2,-211.5,51.3,135.3,-2167.5,-7867.2,-8110.2,-3318.0,-6.9,-6.0,-18.0,-372.6,-0.6,-115.8,-36.6,-212.1,0,486,0,166,0, 
0.2733,-247.8,-120.9,-687.3,-127.8,2.4,-173.7,-55.5,-18.9,-2297.1,-199.2,56.1,141.6,-2503.5,-8214.9,-7992.3,-3022.8,-6.9,-5.7,-19.5,-369.3,-0.9,-113.7,-30.9,-199.8,0,492,0,167,0, 
0.2767,-235.2,-114.0,-610.2,-115.8,1.2,-163.5,-56.4,-11.1,-2371.2,-201.9,70.2,148.2,-2617.2,-8117.1,-8352.0,-3076.2,-6.6,-6.0,-9.0,-361.8,-0.6,-93.3,-26.1,-199.2,0,498,0,168,0, 
0.2800,-238.8,-118.5,-537.0,-116.1,-6.3,-157.8,-60.6,-16.8,-2371.2,-190.5,71.7,153.0,-2455.8,-7772.4,-8690.4,-3572.4,-6.6,-6.0,-7.5,-357.0,-0.9,-90.6,-23.4,-187.5,0,504,0,169,0, 
0.2833,-249.9,-118.5,-571.5,-114.6,-10.5,-158.7,-50.7,-16.5,-2371.2,-186.9,73.5,157.2,-2368.8,-7753.8,-8653.5,-3710.1,-6.9,-5.7,-7.5,-350.4,-0.6,-89.4,-21.6,-191.7,0,510,0,170,0, 
0.2867,-251.4,-119.4,-689.4,-109.8,26.1,-156.6,-42.3,-16.2,-2148.9,-193.8,76.5,159.0,-2610.9,-8114.4,-8193.6,-3379.8,-6.9,-5.7,-6.9,-351.6,-0.9,-84.6,-14.4,-175.8,0,516,0,171,0, 
0.2900,-259.5,-124.2,-871.5,-112.8,19.8,-152.7,-33.6,-18.9,-2297.1,-182.7,73.2,152.1,-3067.5,-8520.3,-8085.9,-3021.0,-6.6,-6.0,-6.9,-362.4,-0.6,-96.3,-9.3,-172.2,0,522,0,172,0, 
0.2933,-258.9,-124.2,-826.8,-112.8,30.0,-150.0,-40.5,-21.6,-2371.2,-200.1,72.0,152.1,-3223.2,-8388.9,-8365.8,-3145.2,-7.2,-6.3,-10.5,-355.5,-0.9,-84.0,-4.8,-175.5,0,528,0,173,0, 
0.2967,-262.5,-130.5,-708.3,-123.0,1.5,-158.1,-67.8,-33.9,-2297.1,-195.9,66.9,144.3,-3098.4,-8075.1,-8714.1,-3592.5,-6.9,-6.0,-13.2,-363.3,-0.9,-90.6,-10.8,-202.5,0,534,0,174,0, 
0.3000,-265.2,-128.7,-736.5,-124.5,9.0,-162.0,-58.8,-31.2,-2371.2,-206.4,67.2,148.5,-3129.0,-8087.4,-8696.7,-3787.5,-6.6,-6.0,-18.6,-364.2,-0.9,-88.5,-11.1,-186.3,0,540,0,175,0, 
0.3033,-265.8,-131.4,-941.7,-124.8,12.3,-153.9,-45.9,-32.4,-2148.9,-201.6,63.3,150.9,-3402.0,-8511.9,-8288.1,-3440.1,-6.9,-6.0,-20.7,-365.1,-0.6,-106.2,-3.6,-181.5,0,546,0,176,0, 
0.3067,-266.4,-132.9,-1139.7,-131.4,30.6,-155.7,-35.7,-36.9,-2223.0,-229.5,61.2,147.9,-3793.5,-8844.9,-8246.7,-3142.8,-7.2,-6.0,-12.3,-363.6,-0.6,-78.3,-1.8,-178.8,0,552,0,177,0, 
0.3100,-263.7,-133.8,-1092.6,-133.2,22.5,-158.4,-46.2,-34.2,-2297.1,-176.4,60.3,144.6,-3929.4,-8736.9,-8536.8,-3240.0,-6.9,-6.0,-18.9,-366.0,-0.6,-79.5,-8.1,-178.2,0,558,0,178,0, 
0.3133,-264.9,-134.7,-1012.5,-135.0,16.8,-155.4,-62.4,-38.4,-2297.1,-189.9,57.9,141.6,-3776.4,-8376.9,-8905.2,-3674.7,-6.9,-6.0,-17.7,-362.7,-0.6,-87.3,-17.1,-180.6,0,564,0,179,0, 
0.3167,-259.8,-131.7,-1054.2,-134.4,24.0,-154.8,-62.4,-36.0,-2297.1,-189.6,59.1,141.6,-3716.4,-8310.9,-8867.7,-3807.3,-6.6,-5.7,-18.9,-363.9,-0.9,-100.2,-17.1,-182.4,0,570,0,180,0, 
0.3200,-258.0,-132.0,-1190.4,-132.6,28.5,-168.0,-47.7,-34.2,-2223.0,-189.6,59.7,138.6,-3999.9,-8744.7,-8554.8,-3521.1,-6.6,-5.7,-18.0,-366.6,-0.6,-84.6,-12.3,-177.9,0,576,0,181,0, 
0.3233,-248.4,-120.0,-1281.3,-130.2,36.0,-162.6,-46.2,-30.9,-2371.2,-196.8,59.1,138.3,-4356.6,-9062.1,-8429.4,-3128.4,-6.9,-6.0,-13.2,-362.7,-0.9,-97.5,-15.0,-179.1,0,582,0,182,0, 
0.3267,-250.8,-132.3,-1364.7,-128.4,31.2,-165.3,-56.4,-33.3,-2445.3,-193.8,54.3,136.8,-4583.1,-8934.9,-8806.2,-3322.8,-6.9,-5.7,-24.9,-365.1,-0.6,-87.0,-14.7,-180.3,0,588,0,183,0, 
0.3300,-255.3,-135.6,-1222.5,-132.9,31.8,-165.6,-59.7,-36.3,-2223.0,-201.0,45.3,130.2,-4478.4,-8613.6,-9177.9,-3731.4,-6.6,-6.0,-33.3,-363.6,-0.9,-106.8,-15.9,-185.4,0,594,0,184,0, 
0.3333,-255.3,-135.0,-1229.7,-134.7,36.0,-172.8,-63.9,-36.9,-2371.2,-223.2,45.3,125.4,-4406.1,-8586.6,-9091.8,-3938.7,-7.2,-6.0,-36.0,-366.6,-0.6,-100.5,-17.7,-191.4,0,600,0,185,0, 
0.3367,-256.5,-139.5,-1407.6,-132.9,45.0,-170.7,-60.0,-39.0,-2148.9,-220.5,42.3,122.1,-4682.7,-8948.7,-8789.7,-3565.8,-6.9,-6.0,-37.8,-374.1,-0.9,-125.7,-21.0,-189.3,0,606,0,186,0, 
0.3400,-256.8,-146.4,-1583.1,-135.9,31.8,-172.8,-50.1,-36.9,-2519.4,-218.7,40.5,121.2,-5079.0,-9297.0,-8695.2,-3178.2,-7.2,-6.0,-41.4,-375.0,-0.6,-119.7,-21.0,-178.2,0,612,0,187,0, 
0.3433,-257.1,-142.8,-1583.4,-136.5,15.3,-181.2,-67.5,-40.2,-2445.3,-221.1,36.3,118.5,-5183.4,-9138.9,-9000.0,-3343.8,-6.9,-6.0,-42.3,-382.5,-0.6,-129.3,-26.4,-195.0,0,618,0,188,0, 
0.3467,-250.5,-136.8,-1466.7,-125.7,14.1,-172.2,-70.2,-24.0,-2445.3,-217.8,46.5,128.7,-5080.5,-8826.0,-9304.8,-3788.4,-7.5,-6.3,-36.9,-369.9,-0.9,-118.2,-26.1,-197.7,0,624,0,189,0, 
0.3500,-247.2,-135.6,-1477.2,-122.1,32.4,-171.6,-69.6,-18.0,-2297.1,-222.3,52.2,133.2,-5037.0,-8811.9,-9334.2,-4003.8,-6.6,-5.7,-30.0,-364.5,-0.6,-120.3,-33.9,-194.7,0,630,0,190,0, 
0.3533,-243.6,-130.2,-1671.3,-118.2,47.1,-170.4,-47.7,-13.2,-2297.1,-219.9,57.3,133.5,-5281.2,-9154.5,-8973.9,-3675.6,-7.2,-5.7,-22.2,-365.4,-1.2,-132.0,-25.5,-190.8,0,636,0,191,0, 
0.3567,-243.0,-128.4,-1764.9,-118.2,35.4,-170.1,-55.8,-12.9,-2297.1,-219.6,54.0,128.4,-5625.9,-9483.3,-8883.3,-3291.3,-7.2,-5.7,-25.2,-372.0,-0.9,-139.5,-22.8,-195.0,0,642,0,192,0, 
0.3600,-240.3,-123.6,-1761.0,-114.6,42.0,-162.9,-54.0,-8.7,-2371.2,-218.4,59.7,140.1,-5772.9,-9406.2,-9157.8,-3507.0,-6.6,-6.0,-20.4,-361.2,-1.2,-95.7,-22.8,-179.1,0,648,0,193,0, 
0.3633,-240.9,-118.2,-1632.6,-113.1,35.4,-168.0,-74.1,-11.4,-2371.2,-199.2,60.9,147.6,-5632.8,-9082.5,-9484.5,-3906.9,-7.2,-6.0,-23.1,-352.5,-0.6,-105.3,-24.3,-191.4,0,654,0,194,0, 
0.3667,-243.0,-127.2,-1643.1,-116.1,38.7,-165.3,-68.4,-20.7,-2297.1,-214.8,57.6,143.1,-5585.4,-9049.5,-9423.3,-4090.5,-6.9,-6.0,-23.1,-359.7,-1.2,-99.9,-25.8,-190.5,0,660,0,195,0, 
0.3700,-238.2,-121.8,-1711.8,-110.7,54.3,-163.8,-59.4,-15.3,-2297.1,-189.9,68.1,149.1,-5786.7,-9432.0,-9034.8,-3706.2,-6.6,-6.0,-9.6,-348.9,-0.9,-105.3,-18.3,-176.4,0,666,0,196,0, 
0.3733,-246.6,-128.7,-1878.0,-112.8,44.4,-174.6,-67.8,-21.6,-2223.0,-199.5,64.8,144.6,-6151.2,-9725.1,-8935.2,-3332.4,-6.9,-6.0,-14.7,-356.1,-1.2,-100.2,-17.7,-189.0,0,672,0,197,0, 
0.3767,-245.1,-129.6,-1884.6,-117.0,30.9,-180.0,-79.2,-24.9,-2445.3,-207.6,57.9,139.2,-6248.4,-9630.3,-9298.8,-3447.9,-6.6,-6.0,-21.0,-358.2,-0.6,-100.8,-21.3,-185.7,0,678,0,198,0, 
0.3800,-253.5,-135.9,-1684.5,-121.8,21.0,-180.0,-84.9,-30.6,-2445.3,-205.2,51.9,135.3,-6078.6,-9249.6,-9674.7,-3916.5,-6.9,-6.0,-27.0,-363.0,-0.9,-106.2,-24.6,-189.3,0,684,0,199,0, 
0.3833,-250.2,-134.1,-1624.2,-112.2,36.3,-171.3,-83.1,-30.0,-2297.1,-211.5,61.2,139.8,-5957.1,-9166.2,-9596.4,-4085.4,-6.9,-6.0,-18.3,-359.7,-0.9,-107.1,-23.1,-182.1,0,690,0,200,0, 
0.3867,-247.2,-134.7,-1692.9,-118.5,46.5,-169.5,-51.3,-31.8,-2223.0,-203.7,60.0,138.3,-6141.3,-9421.2,-9207.0,-3743.7,-7.2,-5.7,-13.2,-351.9,-1.2,-98.4,-10.2,-165.9,0,696,0,201,0, 
0.3900,-253.5,-137.7,-1806.0,-120.3,39.0,-164.4,-49.2,-30.3,-2297.1,-201.0,55.2,134.1,-6475.8,-9744.0,-9062.4,-3341.4,-6.6,-5.7,-26.7,-357.3,-0.9,-101.1,-5.4,-163.2,0,702,0,202,0, 
0.3933,-252.3,-141.6,-1694.7,-127.2,32.4,-165.6,-59.7,-28.8,-2371.2,-215.4,56.7,142.8,-6524.4,-9595.5,-9382.2,-3435.0,-6.9,-6.3,-24.0,-349.2,-0.6,-113.4,-5.1,-162.3,0,708,0,203,0, 
0.3967,-258.6,-153.6,-1515.3,-132.9,26.1,-162.6,-71.7,-38.4,-2519.4,-204.0,52.5,134.7,-6334.2,-9225.6,-9722.1,-3887.4,-6.9,-6.0,-27.6,-352.5,-0.3,-93.6,-6.0,-160.5,0,714,0,204,0, 
0.4000,-252.6,-147.9,-1466.1,-133.5,19.5,-166.8,-55.5,-41.1,-2223.0,-204.3,52.2,136.2,-6203.7,-9099.0,-9639.6,-4027.5,-6.9,-6.0,-26.4,-358.5,-0.6,-83.1,-0.9,-153.6,0,720,0,205,0, 
0.4033,-252.6,-143.1,-1551.3,-136.2,34.2,-167.1,-42.3,-40.8,-2371.2,-198.0,45.6,127.2,-6319.5,-9398.4,-9246.3,-3591.6,-7.2,-6.3,-34.2,-359.7,-0.9,-102.3,1.2,-160.5,0,726,0,206,0, 
0.4067,-255.3,-149.1,-1628.1,-146.1,24.9,-169.5,-45.0,-46.5,-2223.0,-225.0,36.3,114.9,-6521.1,-9637.5,-9057.3,-3212.7,-7.2,-6.0,-42.6,-366.9,-0.6,-99.9,-4.2,-164.1,0,732,0,207,0, 
0.4100,-257.1,-153.9,-1624.5,-144.3,9.0,-178.5,-46.8,-54.6,-2371.2,-201.6,38.7,119.1,-6529.5,-9546.6,-9452.1,-3416.4,-6.9,-5.7,-38.7,-366.3,-0.9,-88.2,-10.8,-167.1,0,738,0,208,0, 
0.4133,-255.6,-158.1,-1419.0,-150.0,-11.1,-181.8,-54.9,-58.2,-2445.3,-200.4,34.2,114.9,-6228.9,-9128.7,-9777.0,-3792.3,-6.9,-5.4,-51.9,-375.3,-0.9,-101.1,-14.7,-171.6,0,744,0,209,0, 
0.4167,-258.0,-156.9,-1305.0,-155.4,-7.5,-188.4,-65.7,-61.2,-2371.2,-218.4,29.4,109.2,-5970.0,-8985.6,-9613.2,-3868.2,-6.9,-6.0,-53.7,-379.2,-0.9,-99.9,-20.1,-176.1,0,750,0,210,0, 
0.4200,-256.8,-158.7,-1431.6,-154.2,1.8,-186.9,-64.5,-56.7,-2223.0,-217.8,33.0,111.6,-6076.5,-9318.6,-9225.9,-3566.1,-6.6,-5.7,-43.8,-381.3,-0.6,-105.9,-20.7,-167.4,0,756,0,211,0, 
0.4233,-248.1,-148.8,-1551.6,-144.3,-1.8,-180.3,-51.0,-51.6,-2297.1,-201.3,36.0,119.4,-6348.0,-9489.9,-9080.7,-3176.7,-6.9,-5.4,-37.8,-374.1,-0.6,-114.3,-18.3,-170.4,0,762,0,212,0, 
0.4267,-250.2,-147.6,-1371.0,-143.4,-5.4,-180.9,-61.5,-53.1,-2297.1,-219.3,29.4,116.1,-6253.5,-9321.3,-9349.8,-3246.9,-6.9,-5.7,-44.7,-370.5,-0.6,-105.9,-25.8,-173.7,0,768,0,213,0, 
0.4300,-247.8,-141.0,-1215.3,-137.7,1.8,-179.1,-69.9,-45.0,-2445.3,-215.1,34.5,116.4,-5862.3,-8886.6,-9645.6,-3632.7,-7.2,-6.0,-42.6,-366.9,-0.3,-110.1,-27.9,-173.1,0,774,0,214,0, 
0.4333,-250.2,-153.3,-1073.1,-139.2,-9.9,-180.3,-63.3,-45.0,-2297.1,-228.3,38.7,116.7,-5559.0,-8722.5,-9546.6,-3758.7,-6.9,-6.3,-45.6,-369.9,-0.6,-123.9,-34.8,-181.8,0,780,0,215,0, 
0.4367,-247.2,-143.7,-1219.2,-136.5,8.7,-180.3,-66.9,-34.5,-2297.1,-220.8,40.2,115.2,-5628.3,-8983.2,-9219.0,-3466.5,-6.6,-6.0,-41.1,-372.6,-0.9,-127.2,-34.2,-180.6,0,786,0,216,0, 
0.4400,-240.9,-146.1,-1266.6,-134.4,13.8,-176.7,-64.2,-33.3,-2297.1,-226.5,38.1,117.9,-5749.2,-9188.1,-8994.9,-3062.1,-6.9,-6.3,-45.3,-369.6,-0.9,-126.9,-32.4,-176.4,0,792,0,217,0, 
0.4433,-241.8,-146.1,-1127.7,-131.1,-11.1,-176.4,-64.5,-33.6,-2297.1,-224.1,39.6,118.5,-5565.0,-8946.9,-9208.5,-3096.9,-6.6,-5.7,-45.3,-362.4,-0.6,-122.4,-35.4,-177.3,0,798,0,218,0, 
0.4467,-236.4,-144.0,-843.3,-129.9,-13.5,-172.2,-60.0,-23.4,-2371.2,-240.3,34.8,114.3,-5178.6,-8471.1,-9475.8,-3504.9,-6.9,-5.7,-49.5,-366.9,-0.9,-127.8,-29.1,-172.2,0,804,0,219,0, 
0.4500,-238.8,-152.7,-794.4,-131.4,-24.9,-178.5,-60.3,-22.5,-2371.2,-238.2,35.7,115.8,-4846.2,-8313.3,-9294.9,-3636.3,-6.3,-6.0,-44.4,-366.3,-0.9,-140.7,-36.9,-176.4,0,810,0,220,0, 
0.4533,-235.8,-142.8,-741.3,-125.4,-3.0,-170.7,-44.7,-19.2,-2297.1,-228.3,42.0,117.6,-4745.1,-8531.1,-8814.3,-3212.4,-6.9,-6.0,-36.9,-371.4,-0.9,-130.8,-40.5,-181.8,0,816,0,221,0, 
0.4567,-235.8,-140.1,-778.5,-119.4,6.0,-169.5,-34.8,-17.7,-2297.1,-245.7,45.9,122.7,-4833.9,-8717.7,-8634.6,-2793.0,-6.9,-6.0,-32.7,-369.0,-1.2,-126.0,-39.6,-172.2,0,822,0,222,0, 
0.4600,-236.7,-144.6,-599.7,-122.1,-11.1,-172.8,-56.1,-16.8,-2371.2,-236.1,42.9,120.9,-4664.4,-8461.2,-8888.7,-2929.8,-7.2,-6.0,-38.4,-370.2,-0.3,-148.8,-46.8,-173.4,0,828,0,223,0, 
0.4633,-235.2,-142.2,-326.1,-119.7,-37.2,-172.5,-63.3,-16.8,-2445.3,-216.6,48.3,123.9,-4171.5,-7951.2,-9120.0,-3314.4,-6.6,-5.7,-30.6,-365.7,-0.3,-135.6,-48.6,-176.1,0,834,0,224,0, 
0.4667,-235.8,-140.4,-230.7,-117.9,-21.3,-170.1,-66.9,-15.9,-2297.1,-224.7,52.5,127.8,-3769.5,-7767.0,-9029.7,-3465.3,-6.9,-6.0,-26.4,-361.8,-0.6,-122.1,-42.3,-179.7,0,840,0,225,0, 
0.4700,-235.5,-138.3,-276.3,-113.7,-6.3,-167.7,-53.4,-13.8,-2223.0,-214.8,59.4,132.9,-3713.1,-8014.5,-8578.2,-3049.2,-6.3,-6.0,-24.3,-358.2,-0.6,-112.2,-30.0,-182.1,0,846,0,226,0, 
0.4733,-236.4,-134.4,-225.3,-109.8,-6.0,-163.2,-38.4,-11.4,-2223.0,-208.8,60.6,132.6,-3703.5,-8172.6,-8333.1,-2628.0,-6.6,-6.0,-22.5,-345.3,-1.2,-110.4,-24.3,-173.4,0,852,0,227,0, 
0.4767,-241.5,-143.4,-123.6,-114.0,-36.0,-170.1,-40.5,-18.3,-2371.2,-207.0,58.5,135.0,-3563.1,-7959.6,-8648.1,-2755.8,-7.2,-6.0,-15.6,-345.9,-0.6,-106.5,-27.0,-180.9,0,858,0,228,0, 
0.4800,-238.8,-135.9,27.9,-107.4,-23.7,-162.3,-46.2,-15.6,-2445.3,-215.1,62.4,142.2,-3084.9,-7490.7,-8967.6,-3164.1,-6.6,-5.7,-16.5,-342.0,-0.9,-100.2,-22.8,-177.9,0,864,0,229,0, 
0.4833,-243.0,-144.3,125.4,-109.2,-32.7,-161.7,-46.2,-19.8,-2223.0,-207.3,63.0,145.8,-2669.7,-7342.8,-8807.1,-3273.9,-7.5,-6.3,-14.1,-336.6,-0.9,-91.8,-15.0,-172.8,0,870,0,230,0, 
0.4867,-244.8,-152.1,-148.8,-113.4,-48.9,-154.5,-35.4,-24.6,-2297.1,-204.3,57.0,144.6,-2781.3,-7685.4,-8707.2,-3044.1,-6.9,-6.0,-27.0,-341.1,-0.9,-92.1,-8.4,-164.7,0,876,0,231,0, 
0.4900,-242.4,-146.1,-99.0,-116.7,-20.4,-160.8,-39.3,-28.8,-2297.1,-207.3,54.0,140.1,-2714.7,-7791.0,-8199.6,-2518.5,-7.5,-6.0,-26.4,-336.9,-0.9,-101.4,-8.4,-164.7,0,882,0,232,0, 
0.4933,-244.5,-153.0,80.4,-124.2,-59.7,-161.4,-42.0,-31.5,-2297.1,-215.4,46.5,127.5,-2513.1,-7507.8,-8377.2,-2583.0,-7.2,-6.0,-33.9,-351.0,-0.6,-86.1,-1.5,-165.6,0,888,0,233,0, 
0.4967,-244.2,-153.0,276.6,-126.6,-62.1,-162.6,-44.7,-34.8,-2371.2,-205.8,42.3,124.5,-2020.8,-7083.6,-8702.7,-2994.9,-6.9,-6.3,-35.7,-357.3,-1.2,-119.1,-3.9,-166.5,0,894,0,234,0, 
0.5000,-249.9,-156.6,397.2,-145.8,-60.0,-177.0,-46.8,-45.6,-2297.1,-226.2,30.0,109.2,-1612.2,-6963.6,-8527.8,-3110.4,-6.9,-5.7,-52.8,-366.0,-0.6,-101.7,-9.0,-180.9,0,900,0,235,0, 
0.5033,-244.8,-160.5,364.2,-145.8,-60.6,-178.2,-50.4,-43.2,-2297.1,-219.3,22.2,98.4,-1550.1,-7240.5,-8058.0,-2739.9,-6.9,-6.3,-53.1,-378.0,-0.6,-109.2,-11.7,-177.6,0,906,0,236,0, 
0.5067,-245.7,-159.9,230.4,-157.5,-74.1,-185.7,-45.0,-47.1,-2223.0,-228.0,8.7,89.4,-1622.1,-7480.2,-7865.7,-2410.2,-6.6,-6.0,-68.4,-396.0,-0.9,-114.9,-16.2,-191.1,0,912,0,237,0, 
0.5100,-242.1,-159.3,367.2,-157.2,-77.4,-188.4,-51.3,-43.2,-2519.4,-234.6,12.0,92.1,-1542.0,-7315.2,-8079.9,-2456.4,-6.6,-6.0,-63.6,-389.7,-1.2,-117.6,-22.8,-187.5,0,918,0,238,0, 
0.5133,-242.7,-161.1,501.0,-159.3,-102.9,-188.4,-42.3,-43.2,-2371.2,-231.3,10.2,90.6,-1201.8,-6890.7,-8354.4,-2892.3,-6.9,-5.4,-63.0,-393.9,-0.3,-123.0,-28.2,-202.5,0,924,0,239,0, 
0.5167,-239.7,-157.2,547.8,-159.0,-95.4,-188.1,-47.1,-45.0,-2445.3,-248.4,9.9,87.6,-927.0,-6829.5,-8220.3,-3036.9,-6.6,-6.0,-65.7,-394.8,-0.9,-124.2,-28.8,-195.6,0,930,0,240,0, 
0.5200,-241.8,-156.9,446.4,-156.3,-78.3,-193.2,-45.6,-41.7,-2297.1,-230.1,12.0,89.4,-986.4,-7178.7,-7790.7,-2718.0,-6.9,-6.3,-59.7,-395.4,-0.9,-132.0,-33.3,-203.1,0,936,0,241,0, 
0.5233,-241.8,-156.6,349.8,-153.0,-80.4,-192.9,-49.5,-44.4,-2297.1,-237.9,15.3,90.0,-1119.6,-7476.6,-7557.3,-2306.1,-6.6,-6.0,-60.6,-401.1,-0.9,-137.7,-37.2,-199.8,0,942,0,242,0, 
0.5267,-242.4,-154.2,429.9,-154.8,-95.1,-192.3,-60.0,-36.6,-2445.3,-227.1,11.1,87.6,-1101.3,-7296.0,-7863.0,-2412.6,-7.2,-5.4,-63.0,-397.5,-0.9,-147.0,-44.1,-198.3,0,948,0,243,0, 
0.5300,-242.7,-150.3,556.5,-148.2,-102.6,-190.2,-66.9,-35.7,-2445.3,-248.7,16.5,93.0,-805.8,-6885.3,-8070.9,-2824.8,-6.6,-5.7,-61.5,-390.6,-0.6,-140.7,-48.0,-204.9,0,954,0,244,0, 
0.5333,-238.8,-147.9,662.4,-143.7,-86.4,-185.7,-53.1,-24.9,-2297.1,-224.4,25.8,98.1,-496.2,-6746.1,-7955.4,-2985.0,-6.9,-5.7,-51.0,-386.4,-0.9,-129.6,-50.1,-211.5,0,960,0,245,0, 
0.5367,-239.1,-149.1,570.9,-140.4,-76.8,-186.9,-52.8,-26.1,-2148.9,-224.1,29.7,106.2,-556.5,-7040.4,-7474.2,-2590.8,-6.9,-6.0,-45.0,-382.2,-0.9,-129.3,-48.0,-193.5,0,966,0,246,0, 
0.5400,-236.1,-146.4,481.5,-133.5,-64.8,-187.2,-39.9,-22.2,-2371.2,-222.3,40.2,115.8,-813.9,-7357.2,-7352.4,-2218.8,-6.9,-6.0,-35.4,-378.9,-0.6,-126.0,-51.6,-194.7,0,972,0,247,0, 
0.5433,-228.3,-137.7,446.4,-123.3,-68.7,-178.2,-51.6,-14.1,-2371.2,-219.6,43.2,122.7,-762.9,-7239.9,-7693.5,-2380.5,-7.2,-5.7,-32.1,-369.3,-1.2,-109.2,-51.0,-188.4,0,978,0,248,0, 
0.5467,-229.8,-133.2,625.2,-119.1,-73.8,-177.6,-51.0,-11.1,-2519.4,-207.9,52.5,127.8,-411.3,-6839.1,-7923.9,-2779.5,-7.2,-5.7,-25.8,-370.5,-0.3,-129.3,-54.9,-182.1,0,984,0,249,0, 
0.5500,-229.8,-127.5,630.0,-114.9,-60.3,-171.6,-58.5,-6.3,-2371.2,-234.9,51.3,127.8,-129.0,-6730.2,-7812.0,-2973.3,-7.2,-5.7,-27.0,-367.8,-0.9,-131.7,-54.0,-186.0,0,990,0,250,0, 
0.5533,-237.0,-140.1,510.6,-112.2,-39.6,-167.7,-48.6,-2.7,-2371.2,-207.6,55.8,133.8,-236.1,-7005.9,-7377.9,-2612.7,-7.5,-6.3,-21.6,-360.6,-0.6,-98.1,-50.1,-171.3,0,996,0,251,0, 
0.5567,-232.2,-128.4,402.6,-109.8,-33.6,-165.3,-32.1,4.2,-2297.1,-220.5,57.6,134.4,-467.7,-7323.0,-7198.5,-2237.4,-6.9,-5.4,-21.0,-357.9,-0.6,-106.5,-47.7,-170.7,0,1002,0,252,0, 
0.5600,-237.9,-132.0,485.4,-108.3,-39.6,-170.4,-36.6,-1.8,-2371.2,-213.6,60.9,136.5,-479.1,-7181.7,-7468.8,-2353.5,-6.9,-5.7,-19.5,-356.1,-0.6,-114.0,-52.2,-179.1,0,1008,0,253,0, 
0.5633,-237.6,-129.9,604.5,-102.0,-51.0,-163.5,-41.1,2.1,-2371.2,-210.6,63.0,138.6,-213.0,-6838.8,-7800.9,-2833.8,-6.6,-6.0,-10.8,-349.8,-0.6,-104.7,-49.8,-176.4,0,1014,0,254,0, 
0.5667,-241.8,-134.1,604.2,-103.8,-30.6,-164.7,-48.3,0.6,-2297.1,-204.6,66.0,141.3,-7.5,-6703.2,-7596.9,-2958.9,-6.9,-6.0,-9.9,-346.2,-0.9,-95.7,-45.0,-175.5,0,1020,0,255,0, 
0.5700,-235.2,-120.0,459.9,-91.5,-17.7,-157.8,-32.1,6.6,-2148.9,-188.7,74.4,153.3,-132.0,-7052.7,-7214.4,-2664.3,-6.9,-5.7,-6.0,-335.4,-0.3,-85.8,-30.9,-156.0,0,1026,0,0,0, 
0.5733,-236.7,-121.8,416.7,-85.5,-9.3,-148.2,-21.6,2.4,-2223.0,-186.0,86.7,162.6,-370.5,-7374.6,-7047.6,-2220.0,-7.2,-5.7,8.1,-329.7,-1.2,-81.9,-23.4,-143.1,0,1032,0,1,0, 
0.5767,-237.9,-126.9,407.7,-88.2,-29.7,-154.2,-40.8,2.1,-2297.1,-186.6,83.4,161.1,-444.9,-7256.7,-7335.3,-2391.0,-6.6,-6.0,2.7,-329.7,-0.9,-75.6,-23.7,-152.1,0,1038,0,2,0, 
0.5800,-245.7,-132.3,583.8,-97.2,-35.7,-157.2,-42.0,-9.6,-2297.1,-183.0,78.9,155.7,-177.9,-6900.0,-7657.2,-2818.8,-6.9,-5.7,2.1,-322.8,-0.9,-74.1,-24.6,-159.3,0,1044,0,3,0, 
0.5833,-253.8,-146.1,592.8,-105.0,-38.1,-158.1,-41.4,-25.2,-2297.1,-187.8,74.1,151.8,-13.2,-6825.0,-7505.4,-2945.4,-6.9,-6.0,-8.4,-325.8,-0.3,-71.7,-21.9,-152.1,0,1050,0,4,0, 
0.5867,-260.4,-147.0,451.5,-116.4,-24.3,-168.3,-46.2,-33.9,-2223.0,-197.7,64.2,138.9,-170.7,-7107.3,-7084.8,-2627.4,-6.6,-5.4,-16.8,-345.0,-0.6,-81.0,-21.9,-167.7,0,1056,0,5,0, 
0.5900,-255.6,-142.5,262.8,-118.5,-30.9,-165.9,-23.7,-35.1,-2223.0,-197.7,53.1,137.1,-469.5,-7456.5,-6953.7,-2294.7,-6.9,-5.7,-20.4,-344.1,-0.6,-82.8,-12.6,-157.2,0,1062,0,6,0, 
0.5933,-258.9,-150.0,299.4,-131.1,-43.5,-168.6,-42.3,-41.4,-2297.1,-198.0,36.3,124.8,-588.9,-7354.2,-7339.2,-2442.9,-6.6,-6.0,-35.1,-357.9,-0.6,-90.6,-13.5,-167.1,0,1068,0,7,0, 
0.5967,-255.9,-162.3,414.0,-141.3,-65.4,-173.1,-53.4,-50.4,-2519.4,-213.6,33.6,115.5,-387.6,-7010.4,-7630.5,-2910.6,-6.6,-6.0,-40.8,-365.4,-0.6,-99.9,-21.0,-171.3,0,1074,0,8,0, 
0.6000,-257.4,-167.1,435.0,-150.0,-61.8,-185.7,-56.7,-60.6,-2445.3,-214.5,23.4,104.4,-254.7,-6937.5,-7545.0,-3042.9,-6.9,-6.3,-53.4,-372.6,-0.9,-97.5,-19.8,-158.1,0,1080,0,9,0, 
0.6033,-258.0,-162.9,305.7,-156.3,-74.1,-190.8,-46.5,-63.9,-2223.0,-227.7,12.6,91.5,-378.9,-7250.1,-7163.4,-2704.8,-6.9,-5.7,-58.2,-387.6,-0.6,-110.7,-22.8,-169.2,0,1086,0,10,0, 
0.6067,-262.2,-168.6,154.5,-158.7,-69.3,-192.9,-39.6,-65.7,-2445.3,-224.7,8.4,87.0,-669.6,-7560.3,-6990.0,-2332.8,-6.9,-6.0,-64.8,-386.1,-0.9,-113.4,-28.2,-171.9,0,1092,0,11,0, 
0.6100,-258.0,-163.8,216.0,-158.1,-82.5,-191.7,-44.7,-60.6,-2445.3,-241.2,8.7,84.0,-726.9,-7436.1,-7260.6,-2472.0,-7.2,-6.0,-61.8,-392.4,-0.3,-127.2,-29.7,-168.3,0,1098,0,12,0, 
0.6133,-249.0,-158.1,327.0,-156.9,-91.2,-191.4,-55.5,-55.2,-2519.4,-235.8,10.2,87.9,-435.6,-7080.6,-7486.5,-2868.6,-7.2,-6.6,-62.1,-388.8,-0.6,-126.9,-32.1,-180.3,0,1104,0,13,0, 
0.6167,-253.5,-174.3,381.0,-153.9,-87.3,-195.0,-62.4,-54.3,-2445.3,-227.1,10.8,87.6,-262.5,-6952.2,-7415.1,-3051.0,-6.3,-6.0,-61.2,-386.1,-0.9,-135.3,-35.7,-180.9,0,1110,0,14,0, 
0.6200,-249.9,-167.7,235.8,-151.5,-72.0,-192.3,-42.9,-52.2,-2371.2,-244.2,5.4,81.6,-425.1,-7287.3,-7109.1,-2710.5,-6.9,-6.3,-68.7,-389.4,-0.9,-126.0,-32.4,-181.8,0,1116,0,15,0, 
0.6233,-247.5,-164.4,117.3,-152.4,-72.3,-193.5,-47.1,-51.0,-2297.1,-240.0,7.8,84.3,-699.0,-7617.0,-6960.0,-2354.7,-6.9,-6.0,-65.4,-387.3,-0.6,-133.5,-30.9,-175.8,0,1122,0,16,0, 
0.6267,-248.1,-164.7,209.4,-158.4,-92.1,-204.6,-51.0,-52.8,-2445.3,-238.2,5.1,82.8,-735.0,-7487.7,-7227.0,-2459.1,-6.3,-5.4,-66.9,-396.9,-1.2,-132.6,-45.0,-181.5,0,1128,0,17,0, 
0.6300,-249.9,-159.3,356.4,-151.5,-81.0,-198.6,-65.7,-48.9,-2371.2,-231.9,16.8,91.2,-475.5,-7144.2,-7500.6,-2955.3,-6.6,-6.0,-57.6,-384.9,-0.9,-128.4,-46.8,-188.7,0,1134,0,18,0, 
0.6333,-242.7,-153.3,379.8,-143.7,-80.1,-192.0,-68.4,-42.9,-2297.1,-227.4,20.1,93.3,-332.7,-7000.2,-7466.1,-3141.3,-6.6,-6.0,-53.4,-382.5,-0.9,-126.3,-45.6,-183.6,0,1140,0,19,0, 
0.6367,-241.5,-159.3,280.2,-147.0,-66.9,-199.5,-58.5,-44.1,-2148.9,-228.3,15.9,91.8,-448.2,-7311.9,-6947.4,-2738.4,-7.2,-6.0,-59.7,-381.6,-0.6,-130.5,-48.3,-175.5,0,1146,0,20,0, 
0.6400,-244.2,-158.4,150.6,-139.8,-51.3,-193.5,-57.0,-39.0,-2223.0,-235.2,19.5,97.8,-747.6,-7556.1,-6848.7,-2376.6,-6.9,-5.7,-48.0,-378.6,-0.9,-122.7,-46.2,-176.1,0,1152,0,21,0, 
0.6433,-243.3,-157.2,182.4,-135.6,-63.6,-193.5,-65.7,-38.7,-2445.3,-227.1,26.7,103.8,-780.9,-7457.7,-7104.3,-2451.3,-6.9,-5.7,-41.1,-371.7,-0.3,-132.9,-51.6,-176.1,0,1158,0,22,0, 
0.6467,-244.5,-151.2,312.0,-126.0,-58.8,-180.6,-49.2,-27.3,-2371.2,-219.6,33.6,108.6,-487.2,-7056.6,-7426.2,-2893.8,-6.6,-6.0,-34.5,-369.6,-0.6,-105.0,-53.7,-174.0,0,1164,0,23,0, 
0.6500,-247.8,-155.1,355.5,-131.7,-57.9,-184.5,-57.0,-32.1,-2371.2,-236.1,27.9,100.2,-321.6,-6961.8,-7361.7,-3098.4,-7.2,-6.0,-42.3,-375.3,-1.2,-121.5,-53.7,-170.4,0,1170,0,24,0, 
0.6533,-244.8,-149.4,248.7,-120.0,-53.4,-182.4,-50.1,-15.6,-2223.0,-221.1,41.7,117.9,-421.5,-7228.2,-7035.6,-2781.6,-6.3,-5.4,-29.7,-354.9,-0.9,-110.7,-46.2,-170.4,0,1176,0,25,0, 
0.6567,-245.7,-144.3,189.6,-120.9,-54.0,-180.0,-38.1,-13.5,-2297.1,-248.1,44.1,117.6,-708.3,-7539.9,-6807.9,-2359.2,-6.9,-6.0,-27.0,-357.3,-0.6,-113.1,-46.2,-172.2,0,1182,0,26,0, 
0.6600,-241.8,-142.2,270.0,-110.7,-54.6,-173.7,-39.0,-6.0,-2519.4,-188.4,53.7,129.6,-700.2,-7373.7,-7054.8,-2480.1,-7.2,-6.0,-21.3,-347.1,-0.9,-106.5,-46.5,-172.8,0,1188,0,27,0, 
0.6633,-244.8,-135.3,340.2,-105.9,-46.8,-165.3,-32.7,-0.6,-2371.2,-207.0,60.9,135.9,-446.7,-7019.1,-7419.0,-2951.4,-7.2,-6.0,-10.5,-346.5,-0.9,-103.5,-44.1,-171.6,0,1194,0,28,0, 
0.6667,-244.5,-140.1,376.5,-105.0,-40.2,-165.9,-35.7,-5.7,-2371.2,-204.9,61.2,137.1,-229.2,-6918.3,-7269.3,-3088.5,-6.9,-6.0,-14.4,-340.2,-0.9,-107.7,-41.4,-163.5,0,1200,0,29,0, 
0.6700,-249.0,-145.5,362.7,-102.6,-14.1,-167.4,-29.7,-4.5,-2223.0,-213.0,61.5,133.5,-315.0,-7198.2,-6804.0,-2704.5,-6.9,-6.0,-14.1,-341.4,-0.9,-96.6,-37.2,-155.4,0,1206,0,30,0, 
0.6733,-249.0,-140.7,320.4,-96.9,-21.3,-155.4,-17.1,4.5,-2297.1,-196.2,63.3,141.0,-570.0,-7501.8,-6781.8,-2343.3,-7.2,-6.0,-10.8,-334.2,-0.9,-92.7,-34.2,-149.4,0,1212,0,31,0, 
0.6767,-243.0,-132.9,280.8,-94.2,-35.7,-159.6,-19.2,6.9,-2297.1,-196.5,67.8,145.8,-643.5,-7374.3,-7120.8,-2467.8,-6.9,-6.0,-8.4,-325.5,-0.6,-85.5,-35.7,-147.0,0,1218,0,32,0, 
0.6800,-246.9,-136.5,422.7,-97.5,-37.2,-157.2,-30.6,4.5,-2371.2,-193.8,67.8,149.7,-361.5,-6950.7,-7482.0,-2943.3,-6.9,-6.0,-6.6,-320.1,-0.6,-88.2,-37.8,-149.7,0,1224,0,33,0, 
0.6833,-244.2,-138.9,461.4,-97.2,-20.1,-153.0,-26.4,4.8,-2371.2,-208.2,65.4,142.5,-158.7,-6854.7,-7316.1,-3105.0,-6.9,-6.3,-14.4,-326.4,-0.9,-81.9,-32.1,-151.8,0,1230,0,34,0, 
0.6867,-247.2,-138.3,270.6,-100.8,-22.8,-155.7,-29.1,-0.3,-2223.0,-186.0,55.8,132.6,-314.7,-7206.9,-7027.2,-2789.4,-6.6,-5.4,-24.3,-335.7,-0.9,-65.4,-26.1,-143.4,0,1236,0,35,0, 
0.6900,-247.2,-132.6,391.8,-105.6,11.4,-156.6,-20.7,-4.5,-2223.0,-202.5,50.7,130.2,-365.7,-7342.2,-6551.1,-2225.7,-6.9,-6.3,-18.0,-338.1,-1.5,-94.5,-31.8,-142.2,0,1242,0,36,0, 
0.6933,-244.2,-137.4,702.0,-117.9,-7.8,-164.1,-25.8,-13.5,-2223.0,-192.0,45.0,124.8,-191.1,-7104.6,-6558.9,-2180.1,-6.9,-6.0,-23.4,-347.7,-0.6,-87.6,-34.2,-160.8,0,1248,0,37,0, 
0.6967,-241.2,-136.5,542.1,-119.7,-25.5,-171.3,-27.3,-19.2,-2371.2,-212.1,45.0,124.2,-151.8,-6901.2,-7229.7,-2908.5,-6.6,-6.0,-23.1,-343.8,-0.9,-90.0,-35.1,-153.9,0,1254,0,38,0, 
0.7000,-245.1,-140.1,575.4,-129.3,-42.6,-171.3,-30.6,-24.0,-2297.1,-200.1,35.7,113.4,-6.9,-6793.2,-7205.1,-3021.0,-6.9,-5.7,-36.3,-357.3,-0.9,-102.3,-33.6,-171.9,0,1260,0,39,0, 
0.7033,-252.6,-154.5,425.4,-141.9,-48.9,-187.5,-35.7,-36.3,-2223.0,-225.3,22.2,93.9,-162.0,-7165.2,-6855.0,-2716.5,-6.6,-6.3,-46.2,-369.6,-0.9,-121.5,-34.2,-165.9,0,1266,0,40,0, 
0.7067,-251.4,-160.8,259.5,-142.8,-61.5,-192.0,-37.8,-39.3,-2371.2,-237.0,9.6,89.1,-469.2,-7482.0,-6732.9,-2397.3,-6.6,-5.7,-62.4,-377.4,-0.9,-133.5,-36.3,-162.9,0,1272,0,41,0, 
0.7100,-250.2,-155.4,361.5,-141.9,-68.7,-192.6,-28.5,-44.4,-2593.5,-259.2,6.3,84.3,-535.2,-7296.3,-7014.9,-2541.6,-7.2,-6.0,-59.7,-384.6,-0.9,-139.8,-41.7,-173.7,0,1278,0,42,0, 
0.7133,-250.2,-157.5,442.2,-144.3,-66.0,-191.4,-46.5,-35.1,-2593.5,-237.6,5.7,88.8,-332.4,-6948.3,-7331.1,-2973.9,-6.9,-6.0,-62.1,-382.5,-0.6,-132.0,-38.1,-169.8,0,1284,0,43,0, 
0.7167,-245.4,-151.5,410.7,-142.8,-68.1,-189.6,-47.1,-36.0,-2445.3,-232.2,8.7,88.2,-144.0,-6861.3,-7261.2,-3164.7,-6.9,-5.4,-58.8,-388.5,-0.9,-130.2,-43.8,-177.3,0,1290,0,44,0, 
0.7200,-243.9,-150.0,222.9,-140.7,-64.5,-191.1,-41.7,-28.5,-2297.1,-239.7,10.5,89.7,-313.5,-7170.9,-6893.4,-2802.9,-6.9,-6.0,-54.3,-387.6,-0.9,-124.2,-42.0,-162.3,0,1296,0,45,0, 
0.7233,-243.3,-143.1,185.1,-135.6,-49.5,-195.3,-26.4,-26.4,-2297.1,-243.0,18.0,92.1,-561.9,-7452.6,-6698.1,-2436.0,-6.9,-5.7,-49.8,-384.9,-0.6,-130.8,-48.6,-174.3,0,1302,0,46,0, 
0.7267,-242.4,-145.2,167.7,-132.3,-58.8,-195.0,-35.7,-17.1,-2445.3,-227.4,20.7,96.6,-663.3,-7326.9,-7075.8,-2547.3,-6.9,-6.3,-45.0,-383.7,-0.3,-120.6,-57.3,-181.8,0,1308,0,47,0, 
0.7300,-237.9,-141.6,363.6,-129.3,-69.3,-192.0,-39.3,-18.6,-2519.4,-223.2,23.1,95.4,-420.3,-6968.1,-7373.4,-3045.3,-7.2,-5.7,-42.3,-383.4,-0.3,-126.0,-57.3,-180.0,0,1314,0,48,0, 
0.7333,-235.2,-138.3,412.5,-126.0,-67.5,-194.1,-30.0,-14.7,-2371.2,-222.0,26.1,94.5,-186.6,-6890.1,-7179.3,-3196.5,-7.2,-6.3,-35.7,-384.3,-0.6,-118.5,-53.7,-180.0,0,1320,0,49,0, 
0.7367,-229.2,-127.2,280.2,-120.3,-43.5,-174.9,-29.1,-7.5,-2297.1,-220.2,29.7,101.4,-308.1,-7179.9,-6880.8,-2881.2,-6.9,-6.0,-42.0,-380.4,-0.9,-130.8,-48.6,-176.4,0,1326,0,50,0, 
0.7400,-234.0,-138.3,115.8,-118.2,-37.8,-183.3,-36.6,-12.3,-2223.0,-211.8,36.6,112.8,-624.0,-7492.5,-6738.6,-2505.0,-6.6,-6.0,-32.7,-364.8,-0.6,-99.0,-43.8,-166.5,0,1332,0,51,0, 
0.7433,-228.3,-128.7,150.3,-116.1,-36.0,-181.2,-40.5,-11.7,-2445.3,-206.4,39.6,117.9,-693.6,-7357.2,-7025.7,-2638.2,-6.9,-5.4,-24.3,-362.1,-0.9,-100.5,-45.6,-168.3,0,1338,0,52,0, 
0.7467,-227.4,-129.0,262.8,-115.2,-43.5,-177.3,-42.0,-11.1,-2519.4,-206.1,42.3,118.2,-506.7,-7009.8,-7414.5,-3123.9,-6.9,-6.0,-24.6,-357.6,-0.9,-97.5,-44.7,-165.3,0,1344,0,53,0, 
0.7500,-226.5,-129.0,373.5,-112.8,-37.5,-173.4,-42.0,-6.0,-2297.1,-201.6,46.2,122.1,-240.0,-6873.0,-7283.4,-3208.8,-6.6,-5.7,-22.8,-347.4,-0.9,-102.3,-34.5,-164.7,0,1350,0,54,0, 
0.7533,-233.4,-135.0,260.7,-114.6,-19.5,-175.5,-36.3,-6.9,-2297.1,-211.5,43.8,119.4,-376.2,-7158.9,-6889.8,-2928.3,-6.9,-5.7,-20.4,-349.5,-0.9,-90.0,-39.6,-155.7,0,1356,0,55,0, 
0.7567,-231.9,-125.1,225.0,-108.3,-12.6,-177.3,-36.3,-6.0,-2148.9,-206.7,49.8,128.1,-599.4,-7442.4,-6718.8,-2535.0,-6.9,-5.7,-20.1,-341.7,-0.6,-98.7,-45.6,-159.0,0,1362,0,56,0, 
0.7600,-231.6,-130.2,160.8,-103.5,-35.1,-173.4,-40.2,-3.6,-2445.3,-197.1,55.8,131.1,-702.0,-7357.2,-7039.2,-2681.4,-6.9,-5.7,-15.6,-335.7,-0.9,-90.3,-38.1,-155.1,0,1368,0,57,0, 
0.7633,-230.4,-124.5,298.2,-101.4,-45.3,-171.6,-42.6,3.9,-2371.2,-198.9,58.2,133.2,-445.2,-6941.7,-7325.7,-3103.2,-6.9,-6.0,-11.4,-330.6,-1.2,-111.6,-42.0,-156.6,0,1374,0,58,0, 
0.7667,-232.2,-126.0,384.3,-98.4,-43.5,-170.4,-53.4,9.0,-2297.1,-202.8,56.4,129.9,-217.8,-6833.1,-7197.0,-3265.5,-6.9,-5.7,-11.1,-330.3,-0.6,-78.3,-42.9,-149.7,0,1380,0,59,0, 
0.7700,-233.7,-130.2,264.0,-96.3,-15.3,-165.9,-33.3,17.4,-2297.1,-193.8,60.0,131.1,-315.9,-7072.8,-6772.5,-2945.7,-7.2,-5.7,-6.9,-327.9,-0.9,-93.3,-41.7,-142.5,0,1386,0,60,0, 
0.7733,-232.2,-127.5,227.4,-100.2,-26.4,-164.1,-33.6,18.0,-2148.9,-192.9,54.6,132.3,-559.5,-7313.7,-6674.4,-2607.9,-6.9,-5.7,-12.9,-321.3,-0.6,-87.9,-39.9,-139.2,0,1392,0,61,0, 
0.7767,-231.3,-120.3,245.7,-98.1,-37.8,-167.4,-36.9,16.8,-2445.3,-190.8,59.1,139.2,-613.2,-7200.9,-6957.3,-2673.6,-6.9,-5.4,-7.2,-319.2,-0.6,-86.1,-48.6,-146.4,0,1398,0,62,0, 
0.7800,-231.6,-127.8,351.3,-99.3,-44.7,-166.2,-45.3,14.4,-2519.4,-191.7,60.3,140.7,-322.2,-6841.8,-7295.4,-3121.5,-6.9,-5.7,-10.2,-317.4,-0.6,-78.3,-47.4,-148.2,0,1404,0,63,0, 
0.7833,-229.5,-123.0,393.9,-97.8,-27.9,-162.9,-48.3,14.7,-2445.3,-196.5,62.7,135.6,-82.8,-6720.3,-7227.6,-3291.6,-6.6,-5.7,-12.6,-321.6,-0.6,-97.5,-44.1,-145.8,0,1410,0,64,0, 
0.7867,-227.1,-121.2,324.6,-102.3,-33.0,-175.2,-45.0,14.7,-2074.8,-189.6,65.4,138.9,-227.1,-7053.6,-6810.3,-3002.7,-7.2,-5.7,-5.4,-317.7,-0.3,-72.6,-51.9,-147.6,0,1416,0,65,0, 
0.7900,-234.0,-128.7,150.0,-108.3,-47.1,-168.0,-42.6,4.8,-2297.1,-192.0,57.6,133.5,-507.0,-7332.3,-6766.2,-2570.4,-6.9,-5.7,-17.4,-322.8,-0.6,-90.9,-53.4,-142.2,0,1422,0,66,0, 
0.7933,-232.8,-120.6,213.9,-113.1,-59.7,-172.5,-42.9,1.2,-2297.1,-206.4,52.5,131.4,-522.0,-7248.6,-7029.6,-2641.8,-6.6,-6.0,-17.1,-328.2,-0.6,-99.9,-60.0,-152.4,0,1428,0,67,0, 
0.7967,-236.4,-126.0,336.6,-116.7,-55.8,-173.1,-53.7,-3.9,-2445.3,-219.3,46.2,120.3,-316.5,-6940.5,-7353.0,-3109.8,-6.9,-5.7,-27.6,-326.4,-0.9,-96.0,-65.4,-159.3,0,1434,0,68,0, 
0.8000,-237.3,-135.0,289.5,-118.2,-56.4,-172.2,-59.4,-8.4,-2223.0,-195.0,42.6,120.9,-205.2,-6895.5,-7317.0,-3337.5,-6.6,-6.0,-36.0,-328.5,-0.6,-101.1,-60.3,-154.2,0,1440,0,69,0, 
0.8033,-237.6,-130.2,150.6,-116.7,-34.5,-174.6,-49.2,-11.4,-2297.1,-216.3,41.4,126.9,-356.1,-7186.5,-6860.4,-2976.0,-6.9,-5.7,-30.9,-328.8,-0.9,-103.5,-63.9,-152.7,0,1446,0,70,0, 
0.8067,-238.5,-130.5,58.5,-123.0,-42.0,-175.5,-43.2,-11.1,-2148.9,-208.2,39.3,119.4,-651.6,-7504.8,-6649.5,-2576.7,-6.3,-5.4,-29.7,-330.3,-0.9,-98.4,-54.3,-144.3,0,1452,0,71,0, 
0.8100,-246.3,-136.2,78.3,-133.8,-58.2,-181.5,-45.6,-20.7,-2445.3,-224.4,25.5,107.1,-815.7,-7452.3,-7018.5,-2725.5,-6.6,-6.3,-45.9,-345.3,-0.6,-119.7,-63.9,-147.0,0,1458,0,72,0, 
0.8133,-237.6,-131.4,196.5,-129.0,-62.7,-174.6,-54.3,-16.5,-2371.2,-216.6,34.8,115.8,-582.3,-7125.6,-7333.5,-3171.3,-6.6,-6.3,-36.3,-336.3,-0.3,-102.3,-53.4,-153.6,0,1464,0,73,0, 
0.8167,-233.1,-123.9,246.6,-132.0,-83.7,-176.1,-57.3,-18.0,-2371.2,-222.3,25.5,103.5,-455.4,-6967.2,-7295.1,-3331.2,-6.9,-5.7,-46.2,-351.3,-0.6,-114.0,-55.8,-155.1,0,1470,0,74,0, 
0.8200,-243.0,-138.0,219.3,-138.9,-76.2,-191.1,-49.8,-24.6,-2148.9,-225.9,17.7,96.6,-601.2,-7257.6,-6867.6,-2972.1,-6.9,-6.0,-48.9,-353.4,-0.9,-108.0,-44.1,-155.4,0,1476,0,75,0, 
0.8233,-241.8,-138.9,105.0,-142.5,-78.0,-194.4,-42.0,-25.5,-2371.2,-229.8,9.3,85.8,-909.6,-7488.3,-6713.7,-2614.5,-6.9,-6.0,-63.6,-363.3,-0.6,-114.0,-45.9,-158.1,0,1482,0,76,0, 
0.8267,-243.6,-143.7,186.3,-146.1,-84.9,-193.8,-57.9,-24.9,-2297.1,-231.3,7.5,84.6,-926.7,-7442.1,-7014.0,-2694.6,-6.6,-6.0,-62.7,-363.0,-0.3,-120.9,-46.2,-157.2,0,1488,0,77,0, 
0.8300,-246.3,-149.1,235.2,-154.5,-109.2,-201.3,-66.0,-27.9,-2445.3,-231.9,0.6,73.8,-680.4,-7039.2,-7335.0,-3149.1,-6.9,-6.0,-70.2,-373.2,-0.9,-122.1,-50.1,-169.5,0,1494,0,78,0, 
0.8333,-247.2,-152.4,270.9,-151.8,-96.3,-194.4,-65.4,-24.9,-2297.1,-227.7,2.4,76.5,-480.3,-6920.7,-7153.2,-3344.1,-6.6,-5.7,-65.1,-364.8,-0.3,-118.2,-44.7,-165.9,0,1500,0,79,0, 
0.8367,-248.7,-156.6,191.7,-154.5,-101.7,-197.4,-61.2,-27.9,-2297.1,-232.5,6.3,83.7,-514.5,-7175.1,-6792.0,-3037.5,-7.2,-6.0,-64.8,-365.7,-1.2,-116.7,-40.2,-159.6,0,1506,0,80,0, 
0.8400,-251.4,-162.3,75.3,-156.9,-99.0,-198.6,-60.6,-25.5,-2297.1,-224.7,3.9,81.9,-733.5,-7411.2,-6716.7,-2644.5,-6.3,-5.7,-67.2,-365.1,-0.6,-114.9,-38.4,-157.2,0,1512,0,81,0, 
0.8433,-248.1,-156.3,108.9,-151.5,-96.6,-198.9,-61.8,-24.0,-2445.3,-225.0,7.8,83.4,-756.3,-7307.4,-7023.6,-2704.8,-7.2,-6.0,-59.4,-365.7,-0.6,-111.3,-42.3,-171.0,0,1518,0,82,0, 
0.8467,-247.5,-148.5,184.5,-148.2,-102.0,-196.2,-71.1,-20.7,-2445.3,-227.4,6.0,82.8,-534.0,-6977.7,-7364.1,-3163.8,-6.3,-6.0,-63.3,-359.7,-0.9,-126.9,-48.6,-174.0,0,1524,0,83,0, 
0.8500,-244.5,-143.1,175.5,-145.5,-91.2,-190.5,-66.3,-23.4,-2297.1,-228.6,11.1,87.0,-279.6,-6835.2,-7252.8,-3354.3,-6.9,-6.3,-57.3,-355.8,-0.9,-126.3,-37.8,-178.5,0,1530,0,84,0, 
0.8533,-242.7,-145.8,130.5,-146.4,-90.9,-198.9,-68.7,-30.3,-2223.0,-223.8,10.5,88.8,-355.2,-7159.2,-6831.9,-3040.8,-6.6,-5.7,-62.7,-352.8,-0.6,-112.8,-36.9,-169.2,0,1536,0,85,0, 
0.8567,-245.7,-148.8,89.4,-141.3,-72.0,-195.0,-64.5,-30.3,-2223.0,-220.5,15.9,91.5,-617.4,-7460.1,-6644.4,-2625.0,-7.2,-5.7,-51.3,-355.2,-0.6,-99.0,-40.2,-173.1,0,1542,0,86,0, 
0.8600,-241.5,-141.0,65.4,-137.7,-85.2,-192.3,-67.8,-27.0,-2519.4,-218.7,21.0,97.2,-699.6,-7421.7,-6984.9,-2719.5,-6.6,-6.0,-44.7,-343.5,-0.6,-118.5,-41.7,-169.5,0,1548,0,87,0, 
0.8633,-248.4,-139.8,164.7,-132.3,-76.5,-184.8,-64.2,-19.8,-2445.3,-216.0,21.0,100.5,-532.8,-7112.4,-7238.1,-3156.3,-6.6,-6.0,-47.4,-345.9,-0.6,-112.5,-53.1,-176.4,0,1554,0,88,0, 
0.8667,-247.5,-137.1,193.2,-125.7,-66.3,-185.7,-77.1,-12.9,-2445.3,-203.7,32.7,107.7,-426.9,-7068.3,-7215.9,-3314.4,-6.9,-6.3,-40.2,-333.3,-0.9,-103.5,-51.6,-183.3,0,1560,0,89,0, 
0.8700,-244.8,-140.1,181.2,-120.0,-49.2,-182.7,-58.8,-7.2,-2223.0,-212.1,35.1,114.0,-576.9,-7388.7,-6812.7,-2893.2,-6.9,-5.7,-39.6,-333.6,-0.9,-90.3,-45.3,-172.5,0,1566,0,90,0, 
0.8733,-243.6,-143.1,-11.1,-117.3,-45.3,-179.4,-52.8,0.3,-2223.0,-208.2,37.2,109.8,-884.1,-7752.0,-6693.6,-2574.0,-7.2,-6.3,-33.9,-330.0,-0.6,-108.0,-43.8,-152.7,0,1572,0,91,0, 
0.8767,-242.4,-137.7,21.3,-113.7,-48.0,-176.4,-60.0,7.2,-2297.1,-220.5,39.0,113.4,-987.6,-7721.1,-6990.9,-2652.0,-6.9,-5.4,-33.3,-333.0,-0.9,-90.9,-48.6,-150.3,0,1578,0,92,0, 
0.8800,-245.1,-151.2,93.9,-112.2,-70.5,-177.3,-62.4,1.2,-2445.3,-197.4,42.3,117.0,-830.1,-7401.9,-7363.2,-3129.9,-6.9,-6.0,-31.2,-323.7,-0.9,-92.1,-51.9,-150.6,0,1584,0,93,0, 
0.8833,-247.5,-150.3,97.2,-114.3,-63.0,-182.7,-62.7,-6.0,-2148.9,-211.8,40.5,117.0,-719.1,-7227.3,-7239.6,-3322.8,-6.6,-5.7,-30.3,-329.1,-0.9,-106.8,-59.7,-155.1,0,1590,0,94,0, 
0.8867,-250.5,-156.6,30.6,-118.2,-53.1,-181.5,-46.5,-9.0,-2223.0,-209.4,35.7,109.8,-892.8,-7592.4,-6791.1,-3010.2,-6.9,-6.3,-36.3,-329.1,-0.9,-101.4,-54.6,-151.8,0,1596,0,95,0, 
0.8900,-252.0,-146.7,-152.4,-123.9,-39.6,-181.2,-39.9,-13.5,-2297.1,-214.2,32.7,107.1,-1203.9,-7913.4,-6732.3,-2603.4,-6.6,-5.4,-41.1,-329.4,-1.2,-103.2,-52.8,-158.1,0,1602,0,96,0, 
0.8933,-250.5,-149.1,-123.9,-124.8,-50.4,-174.3,-59.1,-13.2,-2519.4,-215.1,29.4,107.1,-1260.6,-7811.1,-7073.4,-2759.4,-6.6,-6.3,-42.9,-324.6,-0.6,-104.7,-53.1,-156.6,0,1608,0,97,0, 
0.8967,-242.1,-144.6,-10.2,-119.7,-56.4,-169.2,-66.0,-6.9,-2445.3,-219.3,33.0,110.1,-1088.4,-7460.4,-7408.5,-3216.3,-6.6,-5.7,-37.8,-317.1,-0.3,-99.6,-48.9,-159.3,0,1614,0,98,0, 
0.9000,-242.1,-136.2,76.2,-119.4,-41.4,-166.5,-60.9,-1.5,-2223.0,-218.1,38.7,115.8,-827.4,-7337.7,-7259.7,-3327.6,-6.9,-5.7,-33.0,-318.3,-1.2,-91.2,-56.4,-159.3,0,1620,0,99,0, 
0.9033,-235.2,-126.0,-65.1,-116.7,-34.2,-174.9,-49.2,3.9,-2223.0,-216.0,40.8,122.7,-929.4,-7658.1,-6851.7,-3036.9,-7.2,-6.0,-30.0,-313.5,-1.2,-101.1,-54.3,-152.1,0,1626,0,100,0, 
0.9067,-234.0,-135.9,-172.2,-119.4,-34.5,-170.7,-42.9,-0.3,-2371.2,-209.1,38.7,117.9,-1212.9,-7933.5,-6766.2,-2664.9,-6.9,-6.0,-37.5,-324.9,-0.9,-94.8,-48.9,-147.9,0,1632,0,101,0, 
0.9100,-230.1,-137.7,-148.8,-121.8,-43.5,-170.4,-41.4,1.2,-2445.3,-222.0,33.3,107.1,-1333.5,-7822.8,-7067.4,-2814.6,-6.6,-5.7,-38.7,-328.2,-0.9,-106.8,-49.2,-144.3,0,1638,0,102,0, 
0.9133,-237.6,-138.3,-18.6,-127.8,-51.6,-174.6,-51.6,1.2,-2445.3,-228.0,32.1,105.6,-1067.4,-7501.5,-7467.6,-3274.8,-6.6,-5.7,-47.1,-334.2,-0.9,-117.0,-58.8,-153.3,0,1644,0,103,0, 
0.9167,-242.1,-150.3,-24.6,-136.8,-81.9,-180.0,-55.8,-5.7,-2297.1,-249.0,18.0,96.6,-854.7,-7411.8,-7368.0,-3460.5,-6.9,-5.7,-59.4,-348.3,-1.2,-127.5,-55.2,-165.0,0,1650,0,104,0, 
0.9200,-237.6,-135.9,-58.2,-136.8,-70.2,-179.7,-51.6,-2.4,-2371.2,-228.9,11.1,86.7,-961.2,-7630.8,-6902.7,-3117.9,-6.9,-6.0,-60.0,-350.4,-0.6,-111.3,-48.9,-152.4,0,1656,0,105,0, 
0.9233,-244.2,-157.2,-152.1,-143.1,-66.0,-188.4,-51.6,-6.0,-2148.9,-233.7,8.1,83.7,-1207.8,-7915.8,-6825.9,-2762.1,-7.2,-5.7,-64.2,-353.1,-0.9,-125.1,-57.9,-158.4,0,1662,0,106,0, 
0.9267,-242.4,-151.5,-168.3,-142.5,-75.3,-189.9,-57.9,-4.8,-2519.4,-231.3,7.5,82.2,-1263.6,-7850.4,-7180.2,-2808.6,-6.9,-6.3,-64.2,-362.1,-1.2,-127.2,-57.9,-167.1,0,1668,0,107,0, 
0.9300,-240.9,-161.4,-99.9,-147.6,-101.7,-192.6,-65.1,-4.2,-2445.3,-235.5,2.1,78.0,-1050.3,-7503.3,-7614.0,-3265.5,-6.9,-6.0,-70.2,-358.8,-0.6,-127.2,-60.9,-182.1,0,1674,0,108,0, 
0.9333,-237.3,-158.7,58.5,-150.9,-85.2,-199.2,-66.3,-10.2,-2445.3,-238.5,1.2,74.7,-738.3,-7359.9,-7341.9,-3416.7,-6.6,-5.7,-67.5,-361.8,-0.9,-131.4,-61.5,-181.8,0,1680,0,109,0, 
0.9367,-247.5,-163.8,-346.5,-152.7,-121.5,-199.2,-68.4,-12.3,-2297.1,-238.5,-6.0,68.1,-1015.5,-7831.8,-7362.3,-3290.1,-7.5,-6.0,-76.8,-365.7,-0.6,-137.4,-57.3,-186.0,0,1686,0,110,0, 
0.9400,-240.3,-161.1,-432.3,-146.7,-89.4,-196.5,-65.1,-8.4,-2371.2,-239.7,-4.5,69.3,-1190.1,-8031.6,-7116.9,-2881.8,-6.6,-6.3,-74.4,-373.5,-0.6,-134.4,-54.9,-177.9,0,1692,0,111,0, 
0.9433,-243.6,-163.8,-316.2,-149.1,-94.8,-202.8,-78.3,-11.1,-2371.2,-254.4,-4.5,68.7,-1160.4,-7923.0,-7316.1,-2898.9,-6.6,-6.0,-74.7,-374.4,-0.6,-148.5,-57.9,-177.0,0,1698,0,112,0, 
0.9467,-246.3,-161.7,-147.6,-148.5,-112.2,-198.0,-69.9,-13.2,-2519.4,-244.8,-1.8,71.7,-886.8,-7523.7,-7607.7,-3332.4,-7.2,-6.0,-72.0,-369.9,-0.9,-128.4,-60.3,-176.7,0,1704,0,113,0, 
0.9500,-245.4,-167.7,-85.2,-142.2,-111.6,-200.7,-69.0,-9.6,-2445.3,-241.5,0.6,73.5,-634.2,-7387.8,-7509.9,-3502.5,-6.9,-6.0,-72.3,-360.0,-0.9,-143.1,-60.6,-177.3,0,1710,0,114,0, 
0.9533,-251.4,-166.5,-138.3,-140.7,-85.2,-189.9,-51.9,-5.7,-2223.0,-235.5,6.6,77.7,-694.5,-7718.4,-7096.8,-3111.3,-7.2,-5.7,-67.2,-354.9,-0.9,-121.5,-50.4,-171.6,0,1716,0,115,0, 
0.9567,-251.7,-165.9,-288.6,-140.1,-78.3,-189.3,-50.1,-2.7,-2371.2,-240.0,6.6,80.7,-918.3,-8005.2,-6865.5,-2631.3,-6.9,-6.0,-65.7,-352.8,-0.3,-114.3,-45.9,-162.0,0,1722,0,116,0, 
0.9600,-254.4,-167.4,-267.0,-135.6,-93.6,-189.6,-58.2,-4.8,-2445.3,-230.4,8.4,86.1,-961.8,-7941.6,-7144.2,-2778.0,-6.9,-6.3,-62.4,-349.5,-0.6,-119.7,-44.7,-151.2,0,1728,0,117,0, 
0.9633,-258.6,-163.8,-111.0,-135.9,-99.9,-178.5,-62.7,-5.4,-2371.2,-240.9,5.7,91.8,-750.0,-7558.8,-7528.5,-3217.2,-7.2,-6.0,-61.5,-344.1,-0.6,-116.7,-40.8,-147.9,0,1734,0,118,0, 
0.9667,-254.7,-157.8,-69.0,-128.4,-78.6,-174.6,-65.1,-0.3,-2445.3,-233.7,18.9,99.9,-512.1,-7497.0,-7404.9,-3395.7,-7.5,-6.3,-58.5,-336.9,-0.6,-114.0,-38.7,-141.9,0,1740,0,119,0, 
0.9700,-259.5,-161.7,-152.1,-126.9,-66.9,-173.1,-52.8,-0.6,-2148.9,-233.4,20.4,96.6,-641.4,-7763.1,-7022.7,-3061.5,-7.2,-6.0,-61.8,-332.1,-0.6,-106.5,-36.0,-148.8,0,1746,0,120,0, 
0.9733,-258.9,-158.7,-254.4,-122.7,-60.3,-173.7,-49.2,-1.5,-2371.2,-228.3,26.7,101.7,-936.0,-8135.4,-6936.0,-2662.5,-7.5,-6.0,-48.9,-326.7,-0.6,-110.1,-39.9,-144.3,0,1752,0,121,0, 
0.9767,-254.7,-150.9,-175.5,-122.1,-53.4,-172.2,-55.8,5.4,-2519.4,-224.1,24.6,105.6,-975.9,-7942.5,-7218.0,-2721.3,-6.9,-5.7,-47.1,-324.9,-0.9,-107.7,-44.1,-132.9,0,1758,0,122,0, 
0.9800,-252.0,-153.3,-70.8,-121.2,-94.2,-179.7,-67.8,2.1,-2371.2,-213.6,32.1,109.5,-782.7,-7663.8,-7499.4,-3202.2,-6.6,-5.7,-37.8,-317.4,-0.9,-82.8,-56.4,-138.0,0,1764,0,123,0, 
0.9833,-252.9,-145.5,16.8,-126.9,-91.8,-184.5,-73.2,1.8,-2445.3,-213.0,26.4,103.5,-578.4,-7467.0,-7396.5,-3345.6,-6.6,-6.3,-48.3,-324.0,-0.9,-97.5,-58.5,-141.0,0,1770,0,124,0, 
0.9867,-244.5,-141.9,-94.5,-124.5,-74.4,-171.9,-63.3,10.5,-2223.0,-210.0,27.6,105.9,-762.6,-7848.0,-7053.6,-3013.8,-6.6,-5.7,-47.7,-317.7,-0.6,-96.3,-54.6,-140.7,0,1776,0,125,0, 
0.9900,-248.4,-151.2,-220.5,-132.6,-78.9,-181.5,-67.5,1.5,-2371.2,-218.7,22.2,102.0,-1048.5,-8109.9,-7002.0,-2593.2,-6.9,-5.7,-52.5,-321.9,-0.6,-84.6,-56.1,-135.3,0,1782,0,126,0, 
0.9933,-246.0,-147.0,-192.6,-126.3,-82.5,-178.5,-56.7,-1.5,-2297.1,-205.8,23.4,101.7,-1113.6,-8062.5,-7196.1,-2679.9,-6.6,-5.7,-45.9,-320.7,-0.9,-95.7,-54.0,-137.1,0,1788,0,127,0, 
0.9967,-251.4,-152.1,-115.5,-134.1,-98.4,-183.6,-72.3,-3.6,-2519.4,-222.6,13.8,94.2,-967.5,-7707.9,-7612.2,-3142.5,-6.9,-5.7,-60.9,-328.2,-0.9,-90.9,-57.9,-150.0,0,1794,0,128,0, 
1.0000,-243.3,-144.3,-45.9,-132.9,-94.5,-174.9,-67.8,-1.2,-2148.9,-199.8,14.4,96.0,-755.1,-7582.8,-7507.8,-3268.5,-6.9,-6.0,-56.1,-324.0,-0.9,-95.4,-61.5,-141.0,0,1800,0,129,0, 
1.0033,-246.9,-150.3,-177.0,-140.1,-88.5,-185.4,-70.2,-3.0,-2371.2,-214.5,12.9,94.5,-916.2,-7932.0,-7118.7,-3009.9,-6.9,-6.0,-63.9,-328.5,-0.6,-98.7,-58.8,-153.3,0,1806,0,130,0, 
1.0067,-247.8,-149.7,-252.3,-136.2,-75.0,-181.8,-58.8,0.0,-2223.0,-205.5,8.7,90.6,-1230.0,-8262.9,-6947.4,-2594.7,-6.6,-6.0,-68.4,-327.6,-0.6,-107.1,-50.1,-148.2,0,1812,0,131,0, 
1.0100,-237.0,-140.4,-220.8,-134.1,-93.9,-183.0,-66.0,4.5,-2445.3,-203.7,6.6,85.2,-1380.3,-8227.5,-7258.8,-2701.5,-6.6,-6.0,-67.5,-332.1,-0.6,-96.6,-51.9,-145.5,0,1818,0,132,0, 
1.0133,-241.2,-148.5,-94.2,-141.9,-103.2,-181.5,-68.4,-1.5,-2519.4,-220.5,-4.8,73.5,-1220.7,-7899.0,-7671.6,-3137.4,-6.6,-6.0,-79.5,-341.4,-0.9,-93.0,-50.4,-151.2,0,1824,0,133,0, 
1.0167,-240.6,-152.1,-58.2,-143.7,-90.3,-182.7,-64.2,-5.4,-2371.2,-234.9,-2.7,80.4,-1073.4,-7753.8,-7489.8,-3337.2,-6.9,-6.0,-74.1,-336.6,-0.6,-108.9,-43.5,-147.9,0,1830,0,134,0, 
1.0200,-243.6,-153.0,-159.9,-144.6,-79.2,-184.8,-51.0,-12.0,-2297.1,-228.6,-10.5,81.0,-1284.0,-8068.2,-7208.4,-3025.8,-6.9,-6.0,-86.1,-330.9,-0.9,-98.1,-40.5,-150.0,0,1836,0,135,0, 
1.0233,-241.8,-159.3,-255.0,-145.8,-70.2,-185.7,-44.4,-15.0,-2371.2,-237.9,-12.0,77.7,-1559.7,-8345.1,-6939.3,-2649.0,-7.2,-6.3,-89.4,-338.4,-0.9,-113.1,-39.9,-146.1,0,1842,0,136,0, 
1.0267,-247.8,-169.2,-249.0,-152.1,-85.2,-187.2,-58.5,-22.5,-2297.1,-244.8,-16.5,72.9,-1664.4,-8321.1,-7349.4,-2758.2,-6.9,-6.0,-96.3,-340.8,-0.9,-117.6,-42.0,-152.1,0,1848,0,137,0, 
1.0300,-241.8,-169.2,-114.9,-151.8,-105.0,-183.6,-48.0,-27.0,-2445.3,-245.4,-14.4,69.9,-1451.7,-7992.9,-7669.2,-3211.5,-6.9,-6.0,-92.7,-347.7,-0.6,-118.2,-42.9,-164.1,0,1854,0,138,0, 
1.0333,-245.4,-169.8,-40.8,-153.9,-99.6,-193.8,-56.7,-24.3,-2297.1,-254.1,-21.0,62.1,-1301.7,-7857.9,-7578.6,-3405.3,-6.9,-5.7,-107.4,-346.8,-0.6,-127.5,-43.8,-163.2,0,1860,0,139,0, 
1.0367,-245.7,-166.5,-175.8,-152.4,-91.2,-188.4,-53.7,-22.2,-2445.3,-244.2,-16.2,66.9,-1464.9,-8211.3,-7200.0,-3101.4,-7.2,-6.0,-94.2,-344.4,-0.9,-114.6,-47.7,-160.2,0,1866,0,140,0, 
1.0400,-248.4,-167.1,-278.7,-146.4,-71.4,-183.3,-56.1,-19.2,-2371.2,-243.6,-9.6,71.7,-1770.0,-8571.0,-7034.1,-2704.5,-6.6,-6.0,-91.5,-333.0,-0.9,-112.8,-46.2,-151.2,0,1872,0,141,0, 
1.0433,-244.8,-163.5,-172.8,-143.1,-82.5,-186.3,-63.6,-15.3,-2371.2,-233.7,-8.1,78.3,-1906.5,-8450.7,-7366.8,-2784.0,-7.2,-5.7,-90.6,-324.3,-1.2,-99.6,-52.2,-162.3,0,1878,0,142,0, 
1.0467,-247.2,-162.0,-52.2,-140.4,-99.9,-176.7,-73.8,-9.9,-2519.4,-236.1,-5.4,84.0,-1677.9,-8059.8,-7650.3,-3197.7,-6.9,-5.7,-89.4,-316.5,-0.6,-101.7,-54.3,-169.5,0,1884,0,143,0, 
1.0500,-239.7,-154.2,-104.4,-125.4,-78.0,-170.4,-66.6,-2.7,-2297.1,-219.9,11.7,100.2,-1525.8,-7940.7,-7581.3,-3432.3,-7.2,-6.3,-72.0,-298.5,-0.9,-90.0,-48.0,-164.7,0,1890,0,144,0, 
1.0533,-246.0,-152.1,-205.5,-127.5,-54.6,-171.0,-54.3,-5.7,-2297.1,-231.3,6.6,94.8,-1656.3,-8247.0,-7154.4,-3027.9,-7.2,-6.3,-76.8,-303.6,-0.9,-96.3,-47.1,-163.5,0,1896,0,145,0, 
1.0567,-245.1,-154.8,-325.2,-123.3,-50.4,-174.3,-44.1,-6.0,-2223.0,-220.2,10.5,101.4,-1959.3,-8604.9,-7052.4,-2652.6,-6.6,-6.0,-72.3,-293.4,-0.6,-87.9,-46.2,-154.8,0,1902,0,146,0, 
1.0600,-237.3,-150.0,-300.6,-114.9,-38.1,-160.8,-43.8,7.8,-2445.3,-222.9,18.9,108.6,-1971.6,-8502.3,-7337.7,-2821.5,-6.9,-6.3,-63.9,-289.5,-0.9,-88.2,-39.9,-146.4,0,1908,0,147,0, 
1.0633,-237.0,-145.5,-160.8,-115.2,-61.8,-161.4,-58.5,7.8,-2445.3,-212.7,22.2,108.0,-1824.3,-8174.1,-7663.2,-3269.7,-6.6,-5.7,-63.3,-290.4,-0.9,-64.2,-42.9,-144.3,0,1914,0,148,0, 
1.0667,-233.1,-136.5,-102.0,-113.7,-49.2,-163.8,-58.8,11.7,-2297.1,-206.1,27.9,114.0,-1603.5,-8000.4,-7595.1,-3449.1,-6.9,-6.3,-57.0,-289.2,-1.2,-69.0,-43.5,-144.3,0,1920,0,149,0, 
1.0700,-237.0,-136.5,-198.9,-110.7,-41.4,-159.3,-53.4,5.1,-2148.9,-200.7,28.8,116.4,-1727.4,-8306.7,-7137.9,-3080.7,-6.9,-6.0,-58.5,-284.1,-0.6,-78.6,-45.3,-140.4,0,1926,0,150,0, 
1.0733,-239.4,-141.9,-375.3,-108.9,-18.3,-157.2,-51.3,-0.6,-2297.1,-206.1,27.9,120.9,-1995.3,-8666.7,-7052.1,-2732.1,-6.9,-5.7,-57.6,-274.5,-0.9,-64.2,-35.7,-133.8,0,1932,0,151,0, 
1.0767,-232.8,-128.1,-257.4,-100.2,-24.6,-160.8,-71.7,7.5,-2371.2,-197.7,33.6,120.0,-2031.6,-8472.6,-7321.8,-2789.1,-7.2,-5.7,-45.0,-272.1,-0.9,-73.5,-35.7,-142.5,0,1938,0,152,0, 
1.0800,-232.5,-130.2,-128.1,-95.4,-35.1,-156.0,-66.6,8.7,-2445.3,-188.1,39.0,131.4,-1782.0,-8134.8,-7706.7,-3255.0,-6.9,-6.3,-46.8,-259.5,-1.2,-55.5,-36.6,-134.7,0,1944,0,153,0, 
1.0833,-234.6,-126.9,-55.2,-92.7,-9.6,-150.9,-63.9,9.6,-2297.1,-196.8,36.0,128.1,-1543.5,-7917.0,-7522.8,-3363.6,-6.6,-6.3,-50.7,-261.6,-0.6,-61.2,-37.5,-136.5,0,1950,0,154,0, 
1.0867,-234.3,-132.6,-192.0,-94.5,-23.7,-147.0,-46.5,12.3,-2223.0,-193.8,38.7,131.7,-1636.5,-8269.2,-7202.1,-3082.8,-7.2,-5.7,-54.0,-258.3,-0.9,-54.3,-33.3,-130.2,0,1956,0,155,0, 
1.0900,-231.9,-133.2,-335.4,-91.2,-17.4,-156.3,-57.9,15.6,-2223.0,-217.8,34.2,127.5,-1926.6,-8574.9,-7086.3,-2699.1,-6.6,-5.4,-54.9,-258.6,-1.2,-57.0,-30.3,-133.2,0,1962,0,156,0, 
1.0933,-231.6,-135.6,-347.1,-98.1,-23.1,-152.4,-51.9,16.2,-2297.1,-201.3,25.8,120.6,-1929.6,-8509.2,-7392.9,-2823.3,-6.9,-5.7,-61.5,-263.4,-0.9,-48.3,-36.6,-140.4,0,1968,0,157,0, 
1.0967,-233.7,-141.0,-198.3,-105.9,-38.4,-153.0,-60.9,18.6,-2445.3,-202.5,22.8,114.9,-1664.1,-8070.0,-7677.9,-3273.0,-6.9,-6.0,-63.6,-262.8,-0.9,-65.1,-38.1,-132.9,0,1974,0,158,0, 
1.1000,-238.8,-144.0,-163.5,-116.1,-59.1,-163.8,-62.1,12.9,-2223.0,-200.1,9.3,102.0,-1390.5,-7938.3,-7606.8,-3481.5,-6.9,-6.0,-74.1,-276.0,-0.6,-71.1,-48.9,-141.3,0,1980,0,159,0, 
1.1033,-231.9,-138.0,-246.3,-110.4,-29.1,-160.8,-66.0,20.1,-2371.2,-207.0,11.7,107.4,-1443.6,-8201.4,-7231.5,-3071.1,-6.9,-6.0,-73.8,-267.6,-0.6,-62.4,-39.3,-149.7,0,1986,0,160,0, 
1.1067,-234.3,-139.5,-336.9,-120.9,-53.4,-167.1,-63.6,12.9,-2371.2,-215.7,5.4,96.3,-1675.2,-8531.7,-7110.9,-2733.9,-7.2,-6.0,-78.0,-275.7,-1.2,-77.1,-43.8,-150.3,0,1992,0,161,0, 
1.1100,-234.6,-144.9,-301.2,-122.4,-51.3,-168.6,-69.3,9.9,-2371.2,-216.3,-0.9,94.5,-1695.6,-8398.5,-7397.4,-2846.1,-6.6,-6.3,-87.6,-279.3,-0.9,-69.0,-46.8,-160.2,0,1998,0,162,0, 
1.1133,-235.8,-147.9,-151.8,-129.3,-69.6,-175.5,-75.6,7.5,-2445.3,-211.2,-3.3,93.3,-1428.3,-8032.8,-7738.2,-3263.7,-6.9,-6.3,-90.9,-279.3,-0.6,-78.0,-58.2,-157.5,0,2004,0,163,0, 
1.1167,-235.5,-149.1,-112.5,-131.7,-79.2,-170.1,-65.4,7.8,-2297.1,-218.1,-5.4,91.8,-1219.5,-7939.5,-7657.2,-3437.4,-6.9,-5.7,-97.2,-277.2,-1.2,-73.8,-49.8,-150.3,0,2010,0,164,0, 
1.1200,-241.5,-156.3,-232.2,-140.4,-74.4,-176.1,-68.4,1.2,-2371.2,-228.9,-13.2,82.5,-1324.5,-8217.3,-7278.9,-3115.5,-6.9,-6.0,-103.2,-282.9,-0.9,-85.2,-46.8,-162.9,0,2016,0,165,0, 
1.1233,-245.1,-165.6,-249.0,-148.2,-50.1,-177.9,-66.9,-4.5,-2371.2,-233.7,-24.9,68.7,-1551.3,-8524.2,-7081.2,-2706.0,-6.9,-6.0,-114.6,-295.2,-1.2,-90.3,-42.3,-162.0,0,2022,0,166,0, 
1.1267,-244.2,-161.7,-240.9,-148.5,-73.8,-176.4,-72.6,-6.0,-2593.5,-233.1,-28.5,64.8,-1626.0,-8426.1,-7350.6,-2837.1,-7.5,-5.7,-119.7,-295.5,-0.6,-87.3,-42.6,-159.3,0,2028,0,167,0, 
1.1300,-241.2,-158.1,-178.2,-145.8,-84.3,-180.6,-73.2,-4.8,-2445.3,-242.7,-22.8,73.5,-1401.3,-8090.1,-7774.8,-3336.3,-7.2,-5.4,-109.5,-285.9,-0.6,-83.7,-46.2,-150.3,0,2034,0,168,0, 
1.1333,-249.6,-165.6,-192.3,-148.2,-76.5,-178.8,-69.9,-4.5,-2519.4,-228.9,-27.3,67.8,-1195.8,-7957.5,-7715.4,-3483.9,-6.9,-5.7,-119.7,-290.4,-0.9,-92.1,-42.6,-147.6,0,2040,0,169,0, 
1.1367,-248.4,-163.8,-253.2,-147.3,-55.2,-179.1,-60.3,-3.3,-2297.1,-234.9,-26.4,70.5,-1309.8,-8262.9,-7284.6,-3102.3,-6.9,-6.0,-118.5,-290.7,-0.3,-84.9,-41.7,-150.6,0,2046,0,170,0, 
1.1400,-253.2,-162.9,-374.4,-147.3,-50.1,-175.2,-55.8,-3.6,-2223.0,-233.1,-23.1,71.4,-1594.5,-8589.0,-7168.2,-2693.7,-6.9,-6.0,-114.9,-285.9,-0.6,-101.7,-38.1,-142.2,0,2052,0,171,0, 
1.1433,-254.4,-168.3,-319.5,-148.5,-66.3,-177.9,-64.8,-11.7,-2371.2,-234.9,-28.5,72.0,-1671.9,-8515.2,-7494.3,-2832.6,-6.9,-6.0,-117.6,-284.4,-0.9,-80.4,-46.2,-151.2,0,2058,0,172,0, 
1.1467,-249.9,-164.7,-136.5,-144.0,-79.5,-174.3,-82.8,-3.9,-2445.3,-243.3,-21.9,72.9,-1398.9,-8100.0,-7779.0,-3255.0,-6.9,-6.0,-114.9,-278.7,-0.9,-72.6,-36.9,-143.4,0,2064,0,173,0, 
1.1500,-249.6,-170.4,-82.5,-141.6,-79.2,-170.4,-79.2,2.7,-2371.2,-219.0,-21.0,78.3,-1198.8,-8007.0,-7731.6,-3499.5,-6.9,-6.0,-115.2,-274.2,-0.6,-75.9,-30.9,-142.5,0,2070,0,174,0, 
1.1533,-246.9,-166.2,-185.1,-143.1,-61.2,-171.6,-66.9,6.0,-2371.2,-232.2,-23.4,76.5,-1325.1,-8289.3,-7398.3,-3084.0,-6.6,-5.7,-117.6,-277.2,-0.9,-79.8,-30.0,-129.6,0,2076,0,175,0, 
1.1567,-247.8,-166.2,-252.3,-139.2,-49.5,-166.8,-66.3,7.8,-2148.9,-240.3,-20.4,83.1,-1627.8,-8560.5,-7150.5,-2726.1,-7.2,-6.3,-118.8,-271.8,-0.9,-77.1,-32.7,-125.4,0,2082,0,176,0, 
1.1600,-248.1,-157.2,217.2,-138.3,-25.8,-167.1,-56.7,8.7,-2371.2,-244.5,-16.8,83.7,-1383.6,-8274.3,-6923.4,-2444.4,-7.2,-6.3,-115.5,-263.7,-0.9,-75.0,-33.9,-140.7,0,2088,0,177,0, 
1.1633,-252.0,-168.6,117.3,-136.5,-71.4,-167.7,-86.7,5.4,-2445.3,-224.7,-23.4,79.8,-1323.6,-8060.1,-7591.5,-3145.2,-6.6,-5.7,-125.7,-267.0,-0.9,-72.3,-42.3,-150.9,0,2094,0,178,0, 
1.1667,-252.3,-166.5,93.3,-137.1,-56.7,-167.4,-75.6,5.4,-2297.1,-227.4,-15.3,84.9,-1200.6,-7939.5,-7543.2,-3351.9,-7.2,-6.3,-119.7,-261.6,-0.6,-68.4,-45.3,-149.1,0,2100,0,179,0, 
1.1700,-251.4,-162.6,-105.9,-131.1,-45.3,-164.1,-78.9,3.0,-2297.1,-225.3,-10.2,92.4,-1410.9,-8300.4,-7299.3,-3057.9,-7.2,-6.0,-106.8,-247.5,-0.9,-63.6,-36.6,-136.5,0,2106,0,180,0, 
1.1733,-249.6,-160.2,-252.3,-129.0,-48.9,-160.2,-65.4,0.6,-2445.3,-216.3,-3.6,97.5,-1679.7,-8571.3,-7195.2,-2660.7,-6.9,-6.0,-103.2,-242.7,-0.9,-45.9,-32.4,-134.1,0,2112,0,181,0, 
1.1767,-245.7,-158.1,-235.2,-122.1,-49.2,-147.6,-66.3,7.2,-2445.3,-216.3,3.9,105.9,-1768.2,-8526.0,-7441.2,-2783.1,-6.9,-6.0,-95.7,-229.8,-0.6,-35.7,-34.2,-141.6,0,2118,0,182,0, 
1.1800,-242.7,-148.5,-121.5,-121.5,-42.6,-156.6,-75.3,6.6,-2371.2,-198.9,3.6,106.8,-1570.8,-8194.5,-7751.7,-3202.8,-6.3,-6.3,-97.2,-230.7,-0.9,-30.3,-42.9,-126.9,0,2124,0,183,0, 
1.1833,-243.0,-152.1,-81.0,-117.9,-42.9,-156.9,-80.4,6.3,-2371.2,-211.8,2.4,104.7,-1410.6,-8116.8,-7703.7,-3343.5,-7.2,-5.7,-96.9,-227.4,-0.9,-42.3,-36.0,-126.6,0,2130,0,184,0, 
1.1867,-235.5,-144.6,-256.8,-119.4,-42.9,-152.1,-69.0,6.3,-2223.0,-195.0,0.3,104.4,-1624.8,-8438.4,-7394.1,-3027.0,-6.6,-6.0,-100.5,-228.9,-0.9,-36.9,-37.2,-118.2,0,2136,0,185,0, 
1.1900,-229.2,-139.8,-379.5,-111.9,-34.5,-150.9,-62.1,12.6,-2297.1,-192.9,9.0,114.3,-1914.6,-8724.3,-7161.0,-2616.0,-6.9,-6.0,-90.9,-217.8,-0.9,-24.9,-29.1,-128.1,0,2142,0,186,0, 
1.1933,-225.0,-132.9,-333.6,-109.5,-37.8,-155.4,-64.8,9.9,-2297.1,-188.4,11.7,117.3,-2003.4,-8579.4,-7375.8,-2727.0,-6.9,-6.0,-90.0,-214.8,-0.9,-24.6,-33.9,-124.8,0,2148,0,187,0, 
1.1967,-230.7,-144.0,-190.2,-113.1,-43.2,-155.4,-78.6,15.9,-2371.2,-202.2,-0.3,108.0,-1779.0,-8267.1,-7746.9,-3178.5,-6.9,-5.7,-101.1,-229.8,-0.9,-35.7,-42.6,-131.4,0,2154,0,188,0, 
1.2000,-227.7,-144.3,-75.0,-122.7,-50.1,-156.6,-82.5,7.8,-2371.2,-213.6,-7.2,96.3,-1605.3,-8079.3,-7710.0,-3305.4,-6.9,-6.3,-111.9,-239.7,-0.6,-52.2,-42.3,-130.8,0,2160,0,189,0, 
1.2033,-225.0,-147.6,-162.9,-126.9,-33.0,-159.9,-72.3,8.7,-2223.0,-205.2,-11.1,92.7,-1683.0,-8366.7,-7364.4,-2985.6,-7.5,-6.0,-116.4,-235.8,-0.6,-57.0,-39.9,-136.8,0,2166,0,190,0, 
1.2067,-225.6,-148.5,-235.8,-124.8,-25.8,-158.1,-60.0,9.9,-2445.3,-224.4,-14.7,87.0,-1894.8,-8678.1,-7220.7,-2591.4,-6.9,-6.3,-117.3,-240.3,-0.6,-47.4,-44.4,-132.3,0,2172,0,191,0, 
1.2100,-226.5,-143.4,-267.9,-125.1,-44.4,-156.6,-66.3,11.7,-2445.3,-219.9,-18.3,87.6,-1929.3,-8562.6,-7437.0,-2658.9,-6.9,-6.0,-125.7,-238.2,-0.9,-65.1,-38.7,-142.8,0,2178,0,192,0, 
1.2133,-228.3,-154.8,-92.1,-134.4,-57.6,-166.2,-69.0,3.0,-2593.5,-229.2,-25.8,80.1,-1697.4,-8172.3,-7885.8,-3099.9,-7.2,-6.0,-130.5,-249.6,-0.6,-64.5,-43.8,-149.1,0,2184,0,193,0, 
1.2167,-224.4,-152.4,-87.9,-135.3,-61.8,-163.8,-66.0,6.3,-2371.2,-226.2,-26.7,77.1,-1526.7,-7998.3,-7817.7,-3378.3,-6.9,-6.0,-136.2,-246.0,-0.6,-62.1,-40.8,-141.9,0,2190,0,194,0, 
1.2200,-234.3,-160.8,-107.4,-140.4,-49.5,-160.5,-57.3,-4.2,-2371.2,-231.0,-32.4,71.1,-1504.2,-8244.6,-7400.4,-2979.0,-6.6,-6.0,-143.4,-251.4,-0.9,-72.6,-40.5,-145.2,0,2196,0,195,0, 
1.2233,-235.5,-156.6,-210.3,-137.7,-36.3,-167.4,-53.7,-10.5,-2297.1,-231.9,-35.1,71.4,-1739.7,-8511.9,-7198.2,-2629.2,-7.2,-6.0,-148.8,-249.6,-0.6,-60.9,-33.9,-140.1,0,2202,0,196,0, 
1.2267,-237.6,-164.1,-181.8,-140.7,-52.5,-168.3,-69.0,-9.9,-2445.3,-235.2,-38.7,72.3,-1758.6,-8497.5,-7501.8,-2728.2,-6.6,-6.0,-151.2,-258.3,-0.6,-74.1,-43.2,-137.7,0,2208,0,197,0, 
1.2300,-240.6,-168.6,-127.2,-137.7,-74.7,-171.3,-78.3,-7.5,-2297.1,-246.0,-37.5,72.6,-1536.9,-8097.0,-7854.3,-3174.9,-7.5,-5.7,-142.8,-252.3,-0.6,-72.0,-48.0,-152.7,0,2214,0,198,0, 
1.2333,-240.0,-165.9,-107.7,-136.5,-66.3,-170.4,-75.9,-3.9,-2445.3,-238.8,-36.6,70.5,-1306.2,-7994.7,-7789.2,-3386.4,-6.9,-6.0,-143.7,-253.2,-0.6,-72.0,-55.8,-149.7,0,2220,0,199,0, 
1.2367,-237.0,-172.5,-162.3,-138.0,-57.3,-165.3,-51.0,1.8,-2297.1,-246.6,-39.6,68.7,-1363.8,-8210.1,-7407.3,-3041.7,-7.2,-6.0,-146.1,-250.5,-0.6,-69.9,-46.8,-131.4,0,2226,0,200,0, 
1.2400,-240.6,-174.3,-277.8,-133.5,-38.7,-157.2,-59.7,1.2,-2519.4,-231.3,-33.9,72.3,-1604.4,-8508.3,-7290.6,-2679.3,-6.9,-5.4,-142.5,-245.1,-0.6,-70.8,-43.8,-130.5,0,2232,0,201,0, 
1.2433,-240.3,-163.8,-288.9,-132.9,-60.9,-161.7,-70.5,-1.5,-2371.2,-229.8,-31.8,79.8,-1665.6,-8403.3,-7557.9,-2719.2,-7.2,-6.3,-138.0,-242.4,-0.9,-69.6,-50.4,-143.4,0,2238,0,202,0, 
1.2467,-244.8,-167.4,-122.1,-131.1,-62.4,-156.0,-68.4,-5.1,-2593.5,-234.6,-35.7,75.3,-1406.7,-8026.5,-7878.3,-3149.7,-6.9,-6.0,-143.1,-240.3,-0.6,-63.0,-49.5,-139.8,0,2244,0,203,0, 
1.2500,-242.1,-157.2,-91.5,-126.6,-74.4,-152.4,-61.8,-5.4,-2445.3,-231.0,-33.0,79.2,-1176.3,-7910.7,-7839.9,-3333.6,-6.9,-5.4,-140.4,-232.8,-0.9,-52.8,-41.1,-149.4,0,2250,0,204,0, 
1.2533,-244.2,-168.0,-147.6,-122.7,-36.0,-144.6,-53.1,-4.8,-2223.0,-226.5,-18.3,89.4,-1178.4,-8187.9,-7423.8,-3014.4,-6.9,-5.7,-126.9,-222.3,-0.9,-51.9,-29.4,-127.8,0,2256,0,205,0, 
1.2567,-241.8,-154.2,-295.5,-118.2,-37.2,-146.4,-48.9,-3.0,-2223.0,-222.9,-16.5,95.4,-1473.6,-8441.1,-7248.0,-2655.9,-6.6,-6.0,-129.3,-221.1,-0.9,-39.0,-22.5,-123.6,0,2262,0,206,0, 
1.2600,-240.6,-159.3,-290.4,-116.1,-30.6,-143.1,-50.7,-0.9,-2445.3,-221.1,-17.7,91.5,-1481.1,-8352.0,-7483.8,-2715.9,-6.9,-6.0,-125.7,-222.6,-0.6,-48.0,-19.5,-119.1,0,2268,0,207,0, 
1.2633,-246.0,-162.6,-159.6,-119.4,-63.3,-142.8,-53.4,-8.4,-2445.3,-221.4,-24.9,87.6,-1193.4,-7961.4,-7916.1,-3147.3,-6.9,-6.0,-137.1,-220.8,-0.9,-38.7,-19.5,-115.5,0,2274,0,208,0, 
1.2667,-244.5,-156.9,-114.3,-112.8,-63.0,-147.3,-57.0,-12.0,-2297.1,-204.3,-12.6,99.0,-952.2,-7813.5,-7833.3,-3340.8,-6.6,-5.7,-122.7,-215.1,-0.6,-22.8,-20.1,-119.4,0,2280,0,209,0, 
1.2700,-234.9,-153.0,-161.7,-111.0,-43.5,-143.4,-43.8,-8.4,-2223.0,-209.4,-13.2,101.7,-1022.4,-8048.1,-7401.3,-3012.6,-7.2,-6.3,-125.1,-207.6,-0.6,-19.5,-12.3,-112.8,0,2286,0,210,0, 
1.2733,-238.8,-154.2,-252.0,-112.2,-38.7,-140.7,-45.0,-10.5,-2445.3,-204.9,-16.8,97.8,-1220.7,-8354.4,-7239.6,-2613.6,-6.9,-6.3,-129.9,-211.5,-0.9,-19.5,-10.5,-115.5,0,2292,0,211,0, 
1.2767,-239.7,-150.3,-255.6,-115.5,-47.1,-147.9,-48.6,-14.1,-2519.4,-206.7,-19.2,95.4,-1180.5,-8220.9,-7545.6,-2686.2,-7.2,-6.0,-129.3,-213.6,-0.9,-12.0,-15.6,-108.3,0,2298,0,212,0, 
1.2800,-238.5,-148.2,-167.7,-115.5,-41.1,-147.6,-63.9,-9.3,-2445.3,-196.8,-24.3,86.7,-946.8,-7861.5,-7897.5,-3183.0,-6.9,-6.0,-132.6,-222.3,-0.9,-16.5,-22.5,-121.5,0,2304,0,213,0, 
1.2833,-232.2,-150.9,-150.6,-114.6,-47.7,-150.0,-71.7,-8.4,-2297.1,-201.0,-24.3,90.9,-718.8,-7691.7,-7746.0,-3340.2,-6.9,-5.7,-136.8,-213.9,-1.5,-14.1,-21.6,-121.8,0,2310,0,214,0, 
1.2867,-233.7,-151.5,-151.2,-119.7,-46.5,-151.2,-63.6,-8.4,-2297.1,-212.7,-35.4,78.9,-724.8,-7942.5,-7316.1,-3013.8,-7.2,-6.3,-143.4,-223.5,-1.2,-49.5,-26.4,-120.9,0,2316,0,215,0, 
1.2900,-236.7,-147.0,-299.1,-119.1,-37.8,-153.9,-60.6,-5.7,-2371.2,-214.8,-38.1,79.5,-888.3,-8209.8,-7160.4,-2640.9,-6.9,-6.0,-151.5,-227.4,-0.9,-39.3,-29.7,-125.4,0,2322,0,216,0, 
1.2933,-237.0,-154.5,-288.3,-125.1,-53.1,-161.7,-69.0,-10.2,-2519.4,-218.4,-40.8,72.3,-888.0,-8123.4,-7416.9,-2750.4,-7.2,-5.7,-150.9,-228.3,-0.9,-43.5,-33.9,-136.8,0,2328,0,217,0, 
1.2967,-233.7,-151.8,-151.8,-122.1,-75.9,-161.1,-74.7,-9.3,-2593.5,-235.8,-38.1,70.5,-611.7,-7750.2,-7790.1,-3201.6,-6.9,-6.0,-145.5,-231.3,-0.9,-46.2,-36.6,-140.7,0,2334,0,218,0, 
1.3000,-241.5,-157.8,-42.0,-129.9,-75.0,-165.6,-84.0,-13.8,-2519.4,-224.1,-48.9,61.5,-371.4,-7570.2,-7697.4,-3453.3,-7.2,-5.4,-159.0,-238.2,-0.9,-66.6,-43.2,-146.4,0,2340,0,219,0, 
1.3033,-246.0,-159.3,-177.9,-132.6,-69.6,-163.2,-77.1,-15.3,-2223.0,-236.7,-52.2,61.8,-406.8,-7820.4,-7304.7,-3075.6,-7.2,-5.7,-159.9,-246.3,-0.9,-66.0,-44.4,-129.9,0,2346,0,220,0, 
1.3067,-247.5,-163.8,-273.0,-135.9,-63.0,-164.1,-65.7,-10.2,-2519.4,-254.1,-55.2,59.7,-651.3,-8077.5,-7140.0,-2656.8,-6.9,-6.3,-163.2,-249.3,-1.2,-66.0,-41.7,-132.6,0,2352,0,221,0, 
1.3100,-251.7,-170.1,-251.1,-142.8,-59.4,-168.0,-68.1,-12.9,-2371.2,-253.8,-66.9,51.3,-698.1,-7943.1,-7422.3,-2766.9,-6.9,-6.3,-176.7,-251.1,-0.6,-72.9,-41.1,-143.4,0,2358,0,222,0, 
1.3133,-253.8,-167.7,-144.6,-139.2,-66.3,-156.6,-69.6,-12.9,-2519.4,-249.9,-61.5,50.4,-441.6,-7599.6,-7806.0,-3168.6,-6.9,-5.7,-173.1,-251.7,-0.9,-83.4,-40.5,-140.7,0,2364,0,223,0, 
1.3167,-255.3,-169.2,-143.7,-142.8,-67.5,-171.9,-70.8,-15.9,-2371.2,-250.2,-66.9,45.0,-280.2,-7509.0,-7803.9,-3410.1,-7.2,-6.0,-175.8,-254.1,-0.6,-71.4,-40.5,-143.1,0,2370,0,224,0, 
1.3200,-257.7,-177.6,-225.3,-142.5,-53.4,-158.1,-50.1,-16.5,-2445.3,-255.3,-66.3,54.0,-362.7,-7769.1,-7438.5,-3019.5,-6.9,-6.0,-178.8,-241.5,-0.6,-68.4,-33.9,-131.4,0,2376,0,225,0, 
1.3233,-258.6,-180.0,-388.2,-146.4,-68.7,-166.5,-52.2,-17.7,-2371.2,-249.6,-64.2,58.5,-644.1,-8096.1,-7241.4,-2694.6,-6.6,-5.4,-177.3,-239.1,-0.9,-61.2,-39.3,-135.0,0,2382,0,226,0, 
1.3267,-260.1,-173.4,-289.5,-146.1,-61.5,-165.9,-57.6,-12.6,-2519.4,-258.3,-65.1,56.1,-680.4,-7984.5,-7405.8,-2710.8,-7.5,-6.0,-176.1,-245.1,-0.9,-66.0,-42.9,-140.7,0,2388,0,227,0, 
1.3300,-255.6,-169.2,-271.2,-146.4,-77.1,-164.7,-63.0,-6.3,-2371.2,-249.9,-65.4,53.4,-539.4,-7654.5,-7829.4,-3233.4,-6.9,-6.0,-175.8,-242.1,-0.6,-68.7,-38.4,-132.6,0,2394,0,228,0, 
1.3333,-260.1,-179.4,-181.2,-141.3,-56.7,-164.7,-60.9,-6.9,-2445.3,-255.0,-69.0,47.7,-331.8,-7514.7,-7785.9,-3423.6,-7.2,-6.0,-179.1,-243.0,-0.3,-67.2,-37.5,-143.4,0,2400,0,229,0, 
1.3367,-258.6,-172.8,-230.7,-140.7,-56.4,-163.8,-60.0,-2.7,-2148.9,-252.9,-63.9,54.0,-500.4,-7821.0,-7334.7,-3047.4,-6.6,-5.7,-172.5,-239.1,-0.9,-57.9,-31.2,-135.0,0,2406,0,230,0, 
1.3400,-260.4,-166.8,-327.9,-136.5,-42.9,-161.7,-49.5,0.0,-2297.1,-237.3,-55.8,60.9,-822.3,-8125.8,-7134.0,-2662.8,-7.2,-6.3,-168.0,-237.9,-0.9,-57.9,-29.1,-129.0,0,2412,0,231,0, 
1.3433,-257.1,-163.5,-283.8,-126.3,-63.9,-158.7,-48.6,4.8,-2519.4,-228.3,-45.6,74.1,-936.3,-8044.8,-7392.0,-2741.7,-6.9,-6.0,-156.0,-226.2,-0.9,-43.5,-31.2,-118.5,0,2418,0,232,0, 
1.3467,-259.5,-159.6,-159.0,-122.7,-73.5,-151.8,-54.3,0.9,-2371.2,-225.9,-43.8,72.9,-728.1,-7741.2,-7769.4,-3203.4,-6.9,-6.0,-160.2,-218.4,-0.9,-39.0,-35.4,-123.0,0,2424,0,233,0, 
1.3500,-259.5,-159.9,-103.8,-125.4,-66.9,-152.1,-53.4,0.3,-2297.1,-229.8,-44.1,71.1,-572.1,-7533.6,-7739.4,-3364.5,-6.9,-6.0,-158.1,-215.4,-0.9,-45.6,-21.9,-109.8,0,2430,0,234,0, 
1.3533,-255.3,-156.6,-141.3,-123.6,-47.1,-153.9,-49.2,-0.9,-2148.9,-224.4,-45.0,71.1,-711.0,-7795.8,-7326.6,-3053.4,-7.2,-6.0,-159.6,-216.3,-0.6,-28.2,-24.0,-114.9,0,2436,0,235,0, 
1.3567,-261.0,-171.0,-296.4,-131.4,-43.2,-154.2,-51.3,-9.0,-2223.0,-225.9,-49.5,68.7,-1051.5,-8145.9,-7169.1,-2684.7,-6.9,-5.7,-161.4,-219.6,-0.9,-43.2,-17.1,-115.8,0,2442,0,236,0, 
1.3600,-262.2,-171.9,-321.3,-133.5,-50.4,-155.4,-61.2,-11.7,-2445.3,-227.7,-51.6,69.3,-1142.1,-7999.8,-7485.0,-2733.0,-6.9,-6.0,-163.8,-219.6,-0.6,-36.3,-19.8,-116.7,0,2448,0,237,0, 
1.3633,-262.2,-171.6,-180.0,-142.2,-63.9,-159.6,-69.0,-16.5,-2519.4,-237.6,-53.7,65.7,-909.6,-7662.3,-7792.8,-3170.4,-7.2,-6.0,-166.2,-216.0,-0.9,-49.5,-15.9,-121.8,0,2454,0,238,0, 
1.3667,-260.4,-169.8,-66.9,-141.3,-54.6,-160.2,-72.9,-13.5,-2297.1,-223.8,-56.7,60.6,-717.9,-7528.5,-7666.5,-3369.3,-6.9,-6.0,-171.9,-225.3,-0.9,-33.0,-16.2,-122.7,0,2460,0,239,0, 
1.3700,-257.1,-168.0,-105.0,-138.6,-36.3,-153.9,-54.6,-12.6,-2371.2,-229.2,-59.7,59.1,-811.2,-7763.4,-7230.6,-3045.3,-6.9,-6.0,-176.7,-226.5,-0.9,-36.9,-6.9,-123.9,0,2466,0,240,0, 
1.3733,-248.1,-158.7,-211.8,-135.9,-39.3,-150.3,-44.1,-3.6,-2371.2,-228.3,-57.9,60.0,-1042.5,-8069.1,-7134.9,-2693.7,-6.6,-6.3,-171.3,-223.2,-0.6,-33.6,-4.8,-112.5,0,2472,0,241,0, 
1.3767,-243.3,-156.3,-197.7,-133.8,-39.3,-157.2,-49.8,-0.9,-2593.5,-220.8,-55.2,66.3,-1110.0,-8008.5,-7446.3,-2806.2,-6.6,-5.7,-163.8,-216.6,-0.9,-25.2,-5.1,-114.6,0,2478,0,242,0, 
1.3800,-240.6,-150.9,-88.5,-135.3,-46.5,-150.9,-58.5,6.3,-2519.4,-222.3,-60.9,59.4,-906.9,-7632.9,-7736.1,-3329.4,-6.9,-6.0,-171.3,-219.6,-0.6,-30.0,-12.0,-121.2,0,2484,0,243,0, 
1.3833,-249.3,-163.2,-18.3,-141.6,-53.1,-156.6,-56.1,-2.4,-2445.3,-226.2,-65.4,51.3,-697.5,-7442.7,-7658.4,-3440.1,-6.9,-5.7,-180.6,-224.4,-0.9,-37.2,-16.5,-124.8,0,2490,0,244,0, 
1.3867,-246.6,-149.7,-46.2,-136.5,-54.9,-153.9,-53.7,-1.5,-2371.2,-227.7,-60.0,54.9,-787.5,-7687.8,-7276.8,-3078.3,-6.9,-6.0,-174.3,-222.0,-0.6,-36.3,-16.8,-116.1,0,2496,0,245,0, 
1.3900,-254.7,-166.8,-268.8,-146.1,-51.9,-160.5,-49.8,-3.6,-2371.2,-224.1,-73.8,46.5,-1079.7,-8001.6,-7136.1,-2729.1,-6.9,-5.7,-185.4,-229.5,-0.9,-36.9,-20.1,-123.6,0,2502,0,246,0, 
1.3933,-252.9,-170.4,-194.1,-146.7,-62.7,-162.0,-52.8,-6.6,-2445.3,-231.0,-75.0,46.8,-1140.6,-7957.8,-7445.7,-2771.7,-6.9,-6.0,-188.7,-232.2,-0.9,-57.0,-23.1,-139.2,0,2508,0,247,0, 
1.3967,-256.8,-174.6,-115.8,-151.2,-85.5,-163.2,-70.8,-15.0,-2667.6,-237.9,-81.6,36.9,-932.7,-7583.4,-7846.2,-3270.3,-6.6,-5.7,-192.6,-241.5,-0.6,-50.1,-33.3,-137.1,0,2514,0,248,0, 
1.4000,-255.3,-170.7,-46.2,-152.4,-74.4,-160.5,-69.9,-12.3,-2371.2,-246.6,-81.6,38.4,-674.4,-7463.1,-7655.4,-3475.5,-7.2,-6.3,-192.3,-239.7,-0.6,-46.8,-36.0,-143.4,0,2520,0,249,0, 
1.4033,-256.5,-174.9,-132.3,-148.5,-48.9,-153.3,-58.8,-5.7,-2371.2,-242.1,-74.4,46.5,-747.6,-7729.2,-7288.8,-3135.0,-6.9,-5.7,-186.0,-231.9,-0.3,-61.2,-39.9,-138.3,0,2526,0,250,0, 
1.4067,-253.2,-163.8,-216.6,-144.6,-45.3,-154.2,-44.1,3.6,-2297.1,-245.4,-72.6,46.8,-985.5,-7978.2,-7102.2,-2755.2,-7.2,-6.0,-182.1,-235.8,-0.9,-53.4,-40.2,-135.3,0,2532,0,251,0, 
1.4100,-257.4,-168.9,-225.0,-144.6,-72.3,-156.6,-52.2,2.4,-2593.5,-242.7,-67.2,48.9,-1109.7,-7889.1,-7493.7,-2832.6,-7.2,-6.3,-180.3,-233.1,-0.9,-59.4,-49.2,-132.0,0,2538,0,252,0, 
1.4133,-253.5,-167.1,-105.6,-140.4,-66.6,-154.2,-63.0,3.0,-2519.4,-245.1,-68.4,52.8,-873.6,-7536.9,-7804.2,-3265.8,-6.9,-6.0,-186.6,-235.2,-0.9,-55.5,-57.0,-146.1,0,2544,0,253,0, 
1.4167,-258.3,-173.7,24.6,-138.0,-59.4,-156.6,-71.4,-0.3,-2371.2,-261.9,-73.2,49.5,-665.1,-7392.3,-7666.5,-3483.9,-6.9,-6.0,-189.0,-236.7,-0.6,-59.7,-57.6,-145.2,0,2550,0,254,0, 
1.4200,-259.5,-175.8,-329.1,-136.8,-61.2,-155.1,-62.4,-3.3,-2297.1,-252.9,-72.9,48.0,-907.8,-7787.4,-7581.6,-3308.7,-6.9,-5.7,-192.3,-240.0,-0.9,-49.8,-55.5,-146.4,0,2556,0,255,0, 
1.4233,-257.4,-176.4,-578.1,-131.1,-51.9,-149.4,-56.1,0.0,-2371.2,-244.2,-62.1,58.2,-1285.8,-8109.6,-7538.4,-2933.1,-6.6,-6.0,-180.3,-229.8,-0.3,-51.0,-48.3,-141.9,0,2562,0,0,0, 
1.4267,-260.7,-177.3,-488.4,-135.9,-58.2,-160.8,-60.3,-3.0,-2519.4,-260.7,-71.4,44.7,-1252.5,-7936.2,-7623.6,-2904.6,-7.2,-5.7,-184.2,-243.0,-0.9,-62.4,-52.2,-151.2,0,2568,0,1,0, 
1.4300,-259.2,-178.5,-318.9,-132.6,-70.2,-151.5,-60.3,-3.0,-2519.4,-247.2,-67.8,52.2,-1031.7,-7574.7,-7897.8,-3253.5,-6.9,-6.3,-183.9,-236.4,-0.9,-53.7,-48.3,-153.9,0,2574,0,2,0, 
1.4333,-257.7,-173.4,-217.2,-121.5,-42.3,-138.9,-61.8,9.6,-2148.9,-242.4,-56.4,62.4,-812.4,-7422.6,-7743.0,-3463.8,-7.2,-6.0,-173.4,-228.3,-0.9,-42.6,-36.0,-132.9,0,2580,0,3,0, 
1.4367,-258.9,-174.6,-247.5,-118.5,-21.9,-149.7,-49.8,7.8,-2297.1,-235.8,-51.6,68.4,-903.3,-7674.6,-7341.6,-3124.2,-6.9,-6.0,-170.4,-222.9,-1.2,-45.9,-30.9,-126.3,0,2586,0,4,0, 
1.4400,-262.2,-172.2,-384.3,-123.0,-27.9,-142.5,-40.8,7.5,-2297.1,-244.5,-57.0,62.1,-1170.9,-7977.9,-7121.1,-2707.2,-7.2,-5.7,-176.4,-234.0,-1.2,-51.0,-25.2,-114.0,0,2592,0,5,0, 
1.4433,-258.9,-165.9,-365.4,-124.5,-42.3,-145.8,-44.1,5.1,-2445.3,-242.4,-58.2,58.5,-1282.2,-7901.7,-7480.8,-2856.9,-6.6,-6.0,-176.7,-231.6,-1.2,-46.8,-24.0,-117.3,0,2598,0,6,0, 
1.4467,-256.2,-170.7,-270.3,-128.4,-48.3,-144.0,-51.0,7.5,-2445.3,-239.1,-58.5,60.9,-1068.6,-7536.3,-7828.2,-3254.1,-6.9,-6.3,-168.6,-227.1,-0.9,-44.1,-19.2,-114.3,0,2604,0,7,0, 
1.4500,-259.8,-178.2,-230.1,-134.7,-54.9,-150.3,-59.4,-0.6,-2519.4,-247.8,-65.7,49.8,-915.6,-7406.4,-7830.9,-3427.5,-6.6,-6.0,-177.9,-232.5,-0.6,-52.2,-27.0,-122.4,0,2610,0,8,0, 
1.4533,-253.8,-173.1,-225.9,-132.9,-41.7,-147.0,-39.9,-2.4,-2297.1,-234.0,-68.1,47.1,-965.4,-7668.9,-7345.5,-3084.0,-6.9,-6.0,-180.6,-228.0,-0.9,-43.8,-10.5,-117.9,0,2616,0,9,0, 
1.4567,-254.1,-176.7,-353.7,-134.4,-31.2,-149.7,-46.5,-9.0,-2445.3,-234.9,-69.0,50.1,-1266.3,-8026.5,-7185.3,-2740.2,-6.9,-5.7,-183.3,-229.2,-0.6,-33.0,-12.0,-113.7,0,2622,0,10,0, 
1.4600,-251.1,-168.9,-315.6,-136.8,-44.1,-152.1,-54.0,-14.4,-2445.3,-227.4,-66.0,54.6,-1324.2,-7888.2,-7437.9,-2760.9,-6.9,-6.0,-177.6,-222.9,-0.9,-43.8,-15.0,-129.6,0,2628,0,11,0, 
1.4633,-252.3,-174.9,-231.9,-145.2,-50.7,-153.0,-65.7,-19.8,-2519.4,-232.2,-64.8,56.1,-1156.2,-7519.2,-7825.2,-3205.5,-6.9,-6.3,-182.7,-221.4,-0.9,-28.5,-17.4,-126.3,0,2634,0,12,0, 
1.4667,-246.3,-168.9,-187.2,-141.9,-53.1,-148.2,-63.0,-19.2,-2371.2,-232.2,-64.8,53.7,-928.2,-7378.8,-7670.4,-3394.5,-7.2,-6.0,-180.3,-217.2,-0.9,-33.6,-12.6,-124.2,0,2640,0,13,0, 
1.4700,-246.0,-169.2,-209.7,-147.0,-58.2,-153.0,-61.8,-19.8,-2297.1,-230.7,-70.2,49.5,-1044.0,-7691.7,-7236.6,-3102.0,-7.2,-6.0,-185.1,-225.3,-0.9,-36.9,-10.8,-128.4,0,2646,0,14,0, 
1.4733,-246.3,-165.9,-269.4,-149.7,-54.3,-163.2,-48.3,-26.1,-2371.2,-237.6,-72.9,45.0,-1293.6,-7982.1,-7012.5,-2731.5,-6.9,-6.0,-184.2,-225.6,-1.2,-39.6,-18.0,-133.8,0,2652,0,15,0, 
1.4767,-250.8,-168.0,-312.6,-153.0,-72.9,-155.4,-56.1,-24.0,-2445.3,-243.3,-76.5,42.3,-1446.6,-7913.7,-7399.2,-2801.7,-6.9,-5.7,-190.5,-232.5,-0.9,-42.0,-19.2,-134.4,0,2658,0,16,0, 
1.4800,-247.8,-162.9,-134.7,-149.7,-58.8,-159.6,-62.7,-15.3,-2445.3,-238.5,-79.2,42.3,-1223.7,-7572.9,-7704.3,-3199.2,-6.6,-6.0,-190.5,-231.3,-1.2,-42.6,-24.6,-134.4,0,2664,0,17,0, 
1.4833,-245.7,-158.4,-137.1,-148.8,-60.3,-151.5,-55.5,-8.7,-2445.3,-237.6,-74.4,46.8,-1067.4,-7436.7,-7692.6,-3427.8,-6.9,-6.0,-188.1,-227.1,-0.9,-38.1,-20.4,-141.0,0,2670,0,18,0, 
1.4867,-248.1,-165.9,-209.4,-144.9,-44.7,-145.8,-46.2,-6.6,-2223.0,-238.5,-72.9,47.4,-1160.1,-7683.0,-7294.8,-3062.1,-6.6,-6.0,-187.8,-220.5,-1.2,-43.8,-15.9,-132.3,0,2676,0,19,0, 
1.4900,-245.7,-162.3,-335.4,-142.8,-55.2,-143.7,-43.5,-5.7,-2371.2,-234.0,-71.4,51.3,-1484.1,-8037.0,-7122.0,-2698.8,-6.6,-6.0,-184.5,-219.9,-0.6,-48.3,-15.6,-128.7,0,2682,0,20,0, 
1.4933,-243.0,-157.2,-267.3,-136.2,-47.7,-145.2,-53.7,0.0,-2593.5,-242.4,-63.0,58.5,-1617.9,-7977.6,-7434.6,-2744.1,-6.9,-5.7,-174.0,-216.9,-0.6,-46.8,-22.5,-136.5,0,2688,0,21,0, 
1.4967,-242.4,-157.5,-160.2,-135.9,-61.8,-144.0,-53.1,1.2,-2593.5,-228.6,-58.8,57.6,-1473.0,-7626.3,-7786.2,-3145.2,-6.6,-6.3,-168.9,-215.7,0.0,-40.5,-29.7,-136.2,0,2694,0,22,0, 
1.5000,-243.6,-154.8,-43.5,-138.9,-57.3,-144.0,-52.8,-1.5,-2445.3,-241.8,-63.0,50.7,-1281.0,-7471.5,-7623.3,-3310.8,-6.6,-5.7,-172.8,-219.9,-0.6,-48.9,-32.4,-143.7,0,2700,0,23,0, 
1.5033,-237.3,-154.5,-194.4,-129.3,-28.5,-140.1,-46.8,-0.9,-2371.2,-227.1,-58.5,60.0,-1438.5,-7803.3,-7296.0,-3037.8,-7.2,-5.7,-175.2,-210.6,-0.9,-54.3,-27.0,-144.9,0,2706,0,24,0, 
1.5067,-238.5,-157.2,-201.3,-126.3,-17.4,-136.2,-41.1,1.8,-2445.3,-243.3,-57.0,62.1,-1714.8,-8103.3,-7085.7,-2656.8,-6.6,-6.0,-163.8,-210.9,-0.6,-37.8,-31.2,-133.2,0,2712,0,25,0, 
1.5100,-240.9,-149.4,-174.0,-129.0,-45.6,-142.2,-54.6,2.1,-2445.3,-237.3,-55.2,67.5,-1843.8,-8051.7,-7401.9,-2709.6,-7.2,-5.7,-163.5,-201.0,-0.9,-41.1,-43.2,-134.7,0,2718,0,26,0, 
1.5133,-243.3,-146.4,-73.8,-129.9,-49.2,-144.0,-57.9,6.6,-2593.5,-253.5,-62.7,53.4,-1629.0,-7691.4,-7712.7,-3155.4,-6.6,-6.0,-174.3,-211.5,-0.6,-45.0,-47.1,-141.9,0,2724,0,27,0, 
1.5167,-249.0,-167.1,-78.9,-127.5,-51.9,-141.0,-54.0,5.1,-2445.3,-232.5,-57.0,57.0,-1488.0,-7597.5,-7629.3,-3322.2,-6.9,-6.3,-169.8,-204.6,-1.2,-38.7,-49.8,-136.5,0,2730,0,28,0, 
1.5200,-248.4,-154.5,-11.1,-129.3,-34.5,-145.5,-58.2,7.8,-2223.0,-250.5,-58.5,60.3,-1574.7,-7856.7,-7194.6,-3010.5,-6.6,-6.0,-168.9,-204.0,-0.3,-48.9,-51.3,-137.1,0,2736,0,29,0, 
1.5233,-252.3,-162.3,-109.2,-130.2,-36.0,-150.9,-52.8,2.7,-2445.3,-246.9,-57.3,61.2,-1854.6,-8138.1,-7054.2,-2649.9,-7.2,-6.0,-171.3,-204.9,-0.9,-44.1,-50.1,-142.2,0,2742,0,30,0, 
1.5267,-254.1,-162.6,-16.5,-124.8,-33.3,-141.0,-57.6,3.9,-2445.3,-240.0,-54.9,65.4,-1922.7,-8028.0,-7377.6,-2688.9,-6.3,-5.7,-169.2,-201.3,-0.3,-46.8,-51.3,-138.6,0,2748,0,31,0, 
1.5300,-251.1,-154.5,2.4,-117.6,-48.9,-140.1,-60.9,8.7,-2519.4,-234.6,-41.7,76.5,-1725.0,-7710.0,-7793.7,-3148.5,-6.9,-6.0,-156.3,-194.4,-0.9,-36.0,-44.4,-130.5,0,2754,0,32,0, 
1.5333,-252.0,-150.0,56.7,-109.5,-27.6,-138.3,-57.3,12.3,-2297.1,-225.9,-37.5,83.7,-1545.0,-7507.5,-7673.4,-3299.7,-6.9,-6.0,-153.3,-185.4,-0.6,-26.7,-36.0,-120.9,0,2760,0,33,0, 
1.5367,-252.3,-150.3,-36.9,-111.6,-4.5,-133.2,-45.6,12.0,-2371.2,-234.0,-36.3,82.5,-1589.4,-7776.6,-7248.3,-2965.8,-6.6,-6.0,-149.4,-179.1,-0.6,-19.8,-23.1,-123.6,0,2766,0,34,0, 
1.5400,-254.7,-151.5,-101.7,-112.8,-21.6,-131.1,-35.4,7.2,-2445.3,-217.8,-36.9,83.4,-1850.7,-8036.4,-7062.6,-2538.9,-6.9,-6.0,-150.9,-179.1,-0.6,-15.0,-16.8,-107.7,0,2772,0,35,0, 
1.5433,-253.5,-146.1,-110.7,-114.3,-28.2,-124.8,-44.4,2.4,-2445.3,-216.9,-36.3,86.7,-1930.8,-7956.3,-7355.1,-2683.5,-7.2,-6.3,-149.7,-177.0,-0.9,-22.8,-12.3,-105.9,0,2778,0,36,0, 
1.5467,-251.7,-148.2,20.7,-117.6,-27.6,-131.4,-56.4,-1.5,-2371.2,-222.0,-36.9,84.9,-1704.3,-7626.0,-7690.8,-3126.9,-6.9,-6.3,-150.6,-182.4,-0.6,-18.3,-11.7,-109.8,0,2784,0,37,0, 
1.5500,-255.0,-156.6,15.3,-125.1,-36.0,-137.4,-50.4,-9.3,-2371.2,-230.1,-46.5,75.3,-1496.1,-7539.0,-7671.6,-3332.1,-6.6,-5.7,-159.0,-190.5,-0.6,-14.4,-15.0,-113.1,0,2790,0,38,0, 
1.5533,-248.7,-159.3,-60.0,-133.5,-39.6,-137.1,-41.7,-13.2,-2371.2,-222.0,-53.4,67.8,-1577.4,-7717.8,-7204.8,-2957.7,-7.2,-6.0,-163.5,-194.4,-0.9,-24.6,-6.3,-108.3,0,2796,0,39,0, 
1.5567,-250.5,-161.1,-52.5,-144.9,-44.1,-147.0,-31.2,-18.0,-2445.3,-234.3,-58.2,65.4,-1776.3,-7989.6,-6981.9,-2598.9,-6.6,-6.0,-169.8,-196.5,-0.6,-25.2,-10.5,-113.7,0,2802,0,40,0, 
1.5600,-247.8,-162.3,-111.6,-154.5,-66.9,-146.4,-44.1,-16.5,-2519.4,-236.4,-72.9,51.9,-1833.6,-7936.8,-7341.9,-2692.2,-7.2,-5.7,-185.7,-206.4,-0.9,-27.9,-13.2,-111.3,0,2808,0,41,0, 
1.5633,-248.1,-160.8,-21.6,-154.8,-75.0,-150.9,-58.5,-23.4,-2445.3,-238.5,-78.3,42.0,-1578.0,-7619.1,-7720.8,-3168.9,-7.2,-5.7,-190.8,-222.6,-0.9,-39.6,-16.2,-129.3,0,2814,0,42,0, 
1.5667,-251.4,-164.7,5.4,-157.5,-79.2,-154.2,-51.6,-26.1,-2371.2,-247.8,-80.7,36.0,-1320.0,-7503.3,-7586.7,-3334.2,-7.5,-5.7,-199.5,-226.2,-0.9,-40.2,-17.4,-139.5,0,2820,0,43,0, 
1.5700,-246.9,-158.1,23.4,-154.2,-60.9,-157.8,-51.3,-24.0,-2297.1,-246.9,-76.5,42.0,-1369.8,-7722.3,-7120.5,-2983.2,-6.9,-5.7,-187.5,-225.9,-0.6,-51.6,-20.7,-132.3,0,2826,0,44,0, 
1.5733,-247.8,-160.2,-131.4,-153.0,-56.7,-151.5,-48.6,-21.0,-2371.2,-256.5,-78.3,41.4,-1678.2,-7998.3,-7004.7,-2581.8,-6.6,-6.0,-190.8,-223.5,-0.6,-49.2,-21.3,-143.4,0,2832,0,45,0, 
1.5767,-242.7,-168.0,-152.1,-144.6,-61.5,-149.4,-55.5,-15.0,-2519.4,-244.2,-68.7,47.1,-1720.2,-7910.1,-7368.9,-2678.7,-6.9,-5.7,-185.1,-216.0,-0.6,-44.4,-29.7,-132.9,0,2838,0,46,0, 
1.5800,-243.6,-162.3,-1.5,-147.6,-72.0,-159.9,-63.9,-9.9,-2519.4,-242.1,-69.6,47.7,-1472.1,-7582.5,-7627.8,-3114.0,-6.9,-6.0,-182.1,-213.9,-0.9,-45.9,-43.8,-144.9,0,2844,0,47,0, 
1.5833,-243.9,-166.2,12.6,-148.2,-80.4,-153.0,-67.5,-9.6,-2371.2,-258.3,-75.0,44.4,-1324.8,-7515.6,-7649.7,-3322.8,-6.9,-5.7,-187.5,-219.6,-0.9,-51.3,-44.7,-148.5,0,2850,0,48,0, 
1.5867,-243.9,-171.9,-30.6,-147.0,-57.6,-154.5,-61.8,-10.5,-2223.0,-257.4,-69.6,49.2,-1381.5,-7739.1,-7204.8,-3022.2,-6.9,-6.0,-180.3,-214.2,-1.2,-54.3,-50.1,-141.3,0,2856,0,49,0, 
1.5900,-247.5,-174.9,-142.2,-148.5,-51.0,-158.4,-67.5,-14.1,-2297.1,-264.3,-77.1,39.9,-1619.7,-8029.2,-7026.6,-2619.0,-6.9,-6.0,-188.4,-224.4,-0.6,-67.8,-50.7,-141.9,0,2862,0,50,0, 
1.5933,-248.1,-179.4,-161.4,-148.8,-70.8,-163.8,-76.8,-13.2,-2445.3,-255.9,-75.0,42.9,-1695.3,-7975.2,-7299.9,-2654.4,-6.9,-6.3,-184.2,-225.6,-0.9,-55.8,-59.4,-143.7,0,2868,0,51,0, 
1.5967,-255.0,-175.2,-47.4,-155.1,-73.5,-165.0,-81.3,-16.5,-2519.4,-270.3,-85.2,36.0,-1500.9,-7647.0,-7709.4,-3075.9,-6.6,-5.7,-198.3,-230.7,-0.9,-70.2,-64.5,-148.5,0,2874,0,52,0, 
1.6000,-258.9,-183.6,-16.2,-154.5,-82.5,-162.0,-79.8,-18.0,-2445.3,-255.0,-78.3,41.1,-1251.0,-7509.9,-7579.5,-3265.5,-6.6,-5.7,-189.3,-222.0,-0.9,-62.7,-60.6,-154.8,0,2880,0,53,0, 
1.6033,-262.2,-181.8,-91.2,-156.6,-75.3,-159.6,-70.2,-22.5,-2297.1,-256.8,-77.4,44.1,-1311.9,-7761.0,-7178.7,-3000.3,-6.9,-6.0,-192.0,-217.2,-0.6,-50.7,-57.9,-138.6,0,2886,0,54,0, 
1.6067,-261.3,-184.5,-222.9,-158.4,-71.1,-160.2,-51.9,-20.7,-2445.3,-266.7,-83.4,40.2,-1609.2,-8047.5,-7008.3,-2632.5,-6.9,-6.0,-197.7,-217.2,-0.6,-59.7,-50.4,-139.2,0,2892,0,55,0, 
1.6100,-266.1,-186.3,-173.4,-153.6,-64.5,-156.3,-50.7,-15.3,-2445.3,-267.3,-79.2,41.1,-1705.2,-7962.3,-7313.4,-2659.5,-7.2,-5.7,-191.4,-216.3,-0.9,-60.9,-60.6,-144.6,0,2898,0,56,0, 
1.6133,-263.7,-176.1,-130.5,-153.0,-70.8,-156.0,-72.0,-10.8,-2519.4,-264.3,-75.3,46.2,-1514.4,-7662.3,-7713.6,-3152.7,-6.9,-5.7,-188.1,-210.9,-0.6,-55.8,-61.5,-147.0,0,2904,0,57,0, 
1.6167,-265.2,-171.3,2.4,-144.0,-58.8,-154.5,-74.7,-8.7,-2371.2,-257.4,-65.1,56.4,-1290.3,-7477.5,-7593.9,-3366.0,-7.2,-5.4,-176.4,-204.9,-0.9,-51.9,-62.4,-150.3,0,2910,0,58,0, 
1.6200,-264.6,-171.9,-29.7,-137.7,-41.4,-152.1,-58.5,-1.8,-2371.2,-237.9,-57.0,63.9,-1350.3,-7755.6,-7206.9,-3019.5,-6.6,-6.0,-175.2,-200.1,-0.6,-40.2,-55.2,-135.0,0,2916,0,59,0, 
1.6233,-266.4,-171.0,-141.9,-129.9,-38.4,-150.9,-54.0,3.0,-2371.2,-239.7,-52.2,64.8,-1641.6,-8055.9,-6984.6,-2599.8,-6.9,-5.7,-169.8,-191.7,-0.6,-34.2,-54.6,-123.3,0,2922,0,60,0, 
1.6267,-265.2,-165.9,-122.1,-129.0,-45.0,-139.2,-47.4,10.2,-2593.5,-234.6,-50.7,66.6,-1710.9,-7975.8,-7264.2,-2641.5,-7.2,-6.0,-168.9,-194.1,-0.9,-41.7,-51.0,-124.5,0,2928,0,61,0, 
1.6300,-270.3,-171.3,-16.2,-128.4,-54.3,-145.8,-57.0,2.4,-2371.2,-236.4,-48.0,70.8,-1518.3,-7635.0,-7614.3,-3135.9,-6.6,-6.3,-163.5,-190.2,-0.6,-33.3,-49.8,-112.5,0,2934,0,62,0, 
1.6333,-266.4,-168.6,25.2,-123.3,-60.0,-143.4,-50.4,3.9,-2371.2,-233.1,-43.5,77.1,-1311.0,-7478.1,-7531.5,-3270.0,-7.2,-5.7,-157.2,-183.0,-0.9,-34.2,-46.5,-107.7,0,2940,0,63,0, 
1.6367,-264.6,-161.7,-79.8,-120.3,-48.0,-139.5,-57.0,2.4,-2371.2,-241.5,-45.0,69.9,-1406.4,-7788.9,-7177.2,-3026.4,-7.2,-5.7,-158.1,-189.0,-0.6,-48.0,-37.5,-100.5,0,2946,0,64,0, 
1.6400,-265.5,-170.1,-207.9,-120.9,-43.2,-141.9,-41.7,-5.4,-2297.1,-237.0,-48.3,72.3,-1664.1,-8101.5,-7016.7,-2623.5,-6.6,-6.0,-160.5,-185.7,-0.6,-31.5,-29.4,-102.0,0,2952,0,65,0, 
1.6433,-258.3,-168.9,-165.3,-121.8,-48.3,-143.4,-42.6,-6.0,-2371.2,-227.1,-45.3,75.9,-1738.8,-8012.7,-7299.6,-2700.9,-7.2,-5.7,-159.6,-183.0,-0.6,-26.1,-25.5,-99.9,0,2958,0,66,0, 
1.6467,-256.8,-162.9,-48.9,-129.6,-62.4,-146.7,-53.7,-11.4,-2519.4,-241.8,-56.7,63.3,-1568.4,-7633.5,-7581.3,-3098.1,-6.9,-5.7,-174.0,-193.5,-0.6,-37.5,-34.5,-112.2,0,2964,0,67,0, 
1.6500,-255.3,-170.7,-28.2,-135.3,-51.9,-149.7,-57.9,-22.5,-2371.2,-240.6,-62.1,52.8,-1385.1,-7544.7,-7619.1,-3339.6,-7.2,-6.0,-175.8,-207.3,-0.6,-50.1,-33.0,-115.8,0,2970,0,68,0, 
1.6533,-260.4,-173.7,-48.0,-147.3,-48.9,-156.9,-60.6,-31.2,-2371.2,-255.0,-76.8,38.4,-1466.1,-7791.3,-7132.8,-2964.3,-6.9,-6.0,-185.4,-219.9,-0.9,-62.1,-38.1,-140.4,0,2976,0,69,0, 
1.6567,-257.4,-176.1,-193.2,-150.6,-60.0,-163.8,-59.7,-32.1,-2445.3,-250.8,-79.8,39.3,-1731.3,-8132.4,-7002.3,-2583.0,-6.9,-6.0,-190.8,-217.2,-0.9,-53.1,-35.4,-130.5,0,2982,0,70,0, 
1.6600,-251.7,-179.1,-172.8,-156.9,-87.9,-167.4,-61.5,-40.2,-2445.3,-257.1,-81.9,28.8,-1785.9,-7982.4,-7276.2,-2682.9,-6.9,-6.0,-191.4,-222.3,-0.6,-60.9,-40.2,-133.2,0,2988,0,71,0, 
1.6633,-244.8,-167.4,-51.3,-150.0,-84.3,-162.9,-72.6,-30.9,-2519.4,-250.5,-77.1,39.9,-1566.3,-7667.7,-7695.9,-3171.6,-7.2,-6.0,-185.4,-209.1,-0.9,-45.0,-43.5,-139.5,0,2994,0,72,0, 
1.6667,-250.8,-174.3,-47.7,-163.8,-104.1,-162.6,-77.4,-35.4,-2297.1,-267.0,-85.2,27.9,-1387.5,-7485.0,-7606.2,-3366.9,-7.2,-6.3,-195.6,-222.3,-1.2,-60.6,-40.8,-140.7,0,3000,0,73,0, 
1.6700,-248.1,-170.4,-78.0,-158.7,-71.4,-162.6,-63.3,-30.6,-2297.1,-266.4,-87.3,28.2,-1376.4,-7702.8,-7239.3,-3028.5,-6.9,-6.3,-201.6,-221.1,-0.6,-60.0,-36.0,-132.6,0,3006,0,74,0, 
1.6733,-251.4,-171.9,-180.3,-156.3,-80.1,-171.3,-55.8,-30.6,-2371.2,-246.3,-78.6,36.6,-1599.6,-8003.1,-6987.9,-2632.2,-6.6,-6.0,-192.3,-214.2,-0.3,-71.7,-36.3,-135.3,0,3012,0,75,0, 
1.6767,-249.0,-168.9,-94.2,-154.5,-77.7,-159.3,-52.5,-26.7,-2519.4,-252.0,-78.0,36.9,-1655.1,-7958.1,-7314.3,-2692.8,-7.2,-5.4,-188.7,-215.7,-0.9,-54.0,-38.4,-135.6,0,3018,0,76,0, 
1.6800,-245.4,-161.7,-35.1,-153.9,-79.2,-160.8,-73.5,-24.9,-2519.4,-255.6,-74.7,35.4,-1384.5,-7607.7,-7726.8,-3153.6,-6.9,-6.0,-185.1,-219.6,-0.9,-66.0,-42.0,-141.6,0,3024,0,77,0, 
1.6833,-245.7,-159.0,60.3,-147.0,-72.6,-158.7,-75.3,-17.4,-2371.2,-253.8,-70.2,38.1,-1209.3,-7440.3,-7631.1,-3340.5,-6.3,-6.0,-178.5,-217.2,-1.2,-62.7,-49.5,-152.7,0,3030,0,78,0, 
1.6867,-248.4,-168.6,-51.9,-143.7,-71.1,-160.8,-72.6,-20.1,-2297.1,-248.4,-69.0,43.5,-1254.6,-7660.5,-7229.1,-3034.2,-7.2,-5.7,-184.2,-211.8,-0.6,-58.2,-50.4,-140.7,0,3036,0,79,0, 
1.6900,-247.8,-168.0,-123.9,-134.4,-48.6,-152.7,-58.8,-14.4,-2445.3,-254.1,-67.2,47.7,-1518.9,-7956.6,-7066.5,-2646.3,-6.6,-5.7,-180.6,-205.8,-0.9,-58.2,-51.0,-128.4,0,3042,0,80,0, 
1.6933,-244.5,-159.3,-159.6,-129.9,-68.7,-156.0,-70.8,-13.5,-2519.4,-257.1,-62.1,48.0,-1588.8,-7950.0,-7366.8,-2773.5,-6.9,-6.0,-173.1,-200.7,-0.9,-54.3,-54.9,-125.7,0,3048,0,81,0, 
1.6967,-240.9,-166.2,-50.7,-126.3,-57.9,-150.3,-74.7,-14.7,-2445.3,-250.8,-64.2,49.5,-1307.7,-7541.1,-7732.5,-3162.0,-7.2,-6.0,-178.2,-195.0,-0.9,-50.4,-62.1,-123.0,0,3054,0,82,0, 
1.7000,-244.5,-163.8,-11.1,-125.1,-50.7,-150.0,-75.0,-15.6,-2519.4,-258.6,-64.2,50.4,-1048.5,-7361.4,-7623.6,-3406.2,-6.6,-5.7,-180.6,-196.8,-0.6,-45.9,-59.1,-129.0,0,3060,0,83,0, 
1.7033,-244.2,-166.8,-58.5,-122.1,-30.6,-147.9,-69.3,-15.0,-2297.1,-251.4,-59.7,58.8,-1075.5,-7624.8,-7241.7,-3040.8,-6.9,-6.3,-174.9,-184.2,-0.9,-48.0,-59.1,-130.5,0,3066,0,84,0, 
1.7067,-241.8,-156.9,-195.9,-118.2,-39.6,-144.6,-61.2,-12.9,-2445.3,-244.5,-54.6,63.6,-1321.8,-7957.2,-7033.5,-2682.9,-6.6,-6.0,-168.9,-177.0,-0.9,-38.1,-53.1,-121.5,0,3072,0,85,0, 
1.7100,-241.5,-156.0,-102.0,-112.5,-25.2,-138.6,-63.3,-8.7,-2371.2,-251.7,-49.2,67.5,-1370.1,-7877.1,-7333.8,-2668.5,-6.9,-6.0,-165.3,-172.5,-0.6,-46.2,-50.7,-113.4,0,3078,0,86,0, 
1.7133,-242.7,-154.8,-22.5,-107.1,-33.6,-137.7,-67.8,-6.9,-2593.5,-239.4,-38.4,77.1,-1143.6,-7493.4,-7587.9,-3117.3,-6.6,-5.7,-151.2,-169.5,-0.9,-44.4,-51.0,-111.6,0,3084,0,87,0, 
1.7167,-244.2,-155.1,-50.7,-101.1,-32.4,-135.6,-65.4,-5.1,-2371.2,-236.7,-36.3,79.8,-896.1,-7356.0,-7598.7,-3366.3,-7.2,-5.7,-149.7,-157.5,-0.6,-29.4,-50.1,-117.6,0,3090,0,88,0, 
1.7200,-245.7,-149.7,36.0,-99.9,-2.1,-123.0,-33.0,-1.2,-2297.1,-236.4,-31.8,85.2,-867.9,-7493.4,-6930.3,-2847.0,-6.6,-6.3,-150.6,-155.1,-0.9,-27.3,-30.3,-95.7,0,3096,0,89,0, 
1.7233,-238.5,-144.6,225.6,-92.1,43.5,-120.6,-27.3,4.2,-2297.1,-222.9,-23.4,94.2,-935.4,-7706.1,-6382.5,-2322.0,-7.2,-6.0,-140.1,-146.7,-0.6,-12.6,-18.0,-87.3,0,3102,0,90,0, 
1.7267,-240.6,-146.4,49.8,-90.3,0.3,-120.6,-36.6,-2.1,-2445.3,-219.6,-17.1,97.2,-1122.0,-7776.3,-7046.1,-2586.6,-6.9,-5.7,-137.7,-141.0,-0.6,-5.4,-20.1,-96.9,0,3108,0,91,0, 
1.7300,-245.4,-146.4,112.2,-91.2,-9.6,-119.1,-47.1,-2.7,-2371.2,-213.9,-18.9,95.1,-924.0,-7443.3,-7469.4,-3090.9,-6.9,-6.0,-140.4,-148.5,-0.9,-13.8,-22.8,-99.6,0,3114,0,92,0, 
1.7333,-248.7,-152.1,102.6,-98.4,-34.5,-125.4,-49.8,-3.3,-2445.3,-220.8,-25.5,93.3,-721.2,-7309.5,-7554.9,-3308.7,-6.9,-6.0,-142.2,-157.5,-0.9,-11.7,-28.8,-106.2,0,3120,0,93,0, 
1.7367,-246.0,-150.6,13.8,-98.1,-16.8,-125.4,-37.2,-4.8,-2297.1,-218.4,-32.4,83.7,-799.8,-7523.4,-7070.1,-2979.3,-7.5,-6.3,-145.8,-155.1,-0.9,-9.3,-23.1,-102.6,0,3126,0,94,0, 
1.7400,-243.9,-149.4,-112.8,-104.1,-19.2,-126.3,-44.4,-3.6,-2371.2,-224.7,-36.9,81.3,-1078.8,-7819.8,-7017.0,-2616.6,-6.6,-6.0,-147.3,-163.2,-1.2,-21.6,-24.0,-96.3,0,3132,0,95,0, 
1.7433,-243.9,-151.5,-102.9,-108.9,-36.6,-129.9,-41.1,-6.6,-2371.2,-218.7,-37.5,78.9,-1125.3,-7715.7,-7245.6,-2715.9,-6.9,-6.0,-150.0,-165.0,-0.9,-21.6,-28.5,-98.4,0,3138,0,96,0, 
1.7467,-244.5,-152.7,77.7,-112.2,-42.6,-136.8,-51.0,-7.8,-2445.3,-229.2,-37.5,79.8,-875.1,-7368.0,-7629.0,-3169.5,-7.2,-6.0,-151.2,-165.6,-0.6,-19.5,-34.8,-104.4,0,3144,0,97,0, 
1.7500,-243.3,-155.7,114.9,-118.8,-57.0,-137.4,-53.7,-4.8,-2519.4,-229.2,-51.0,58.5,-652.5,-7253.4,-7516.2,-3380.7,-6.6,-5.7,-165.0,-178.8,-0.9,-29.4,-41.4,-120.3,0,3150,0,98,0, 
1.7533,-242.4,-153.6,-97.5,-125.7,-63.0,-140.1,-52.5,-8.7,-2297.1,-226.2,-52.5,54.3,-762.0,-7538.1,-7199.1,-3088.5,-6.9,-6.0,-166.5,-183.3,-0.9,-27.6,-37.5,-127.8,0,3156,0,99,0, 
1.7567,-237.0,-151.8,-199.2,-126.3,-51.3,-142.2,-47.1,-6.6,-2297.1,-225.0,-49.2,60.9,-974.7,-7825.5,-7004.4,-2660.1,-7.2,-6.3,-156.3,-188.7,-0.6,-36.9,-32.7,-121.2,0,3162,0,100,0, 
1.7600,-237.9,-149.4,-125.1,-135.9,-65.7,-157.8,-59.1,-13.5,-2593.5,-231.6,-57.6,55.2,-1009.8,-7713.6,-7218.0,-2676.0,-6.9,-5.7,-168.0,-193.8,-0.9,-46.8,-42.3,-129.3,0,3168,0,101,0, 
1.7633,-242.7,-158.4,-69.6,-136.5,-86.1,-159.9,-64.5,-20.1,-2371.2,-234.0,-63.9,45.3,-743.4,-7355.7,-7598.1,-3114.0,-6.9,-6.0,-172.5,-205.5,-1.2,-53.7,-47.4,-129.6,0,3174,0,102,0, 
1.7667,-238.5,-147.9,31.2,-131.1,-80.1,-158.4,-57.9,-16.8,-2297.1,-239.7,-62.1,48.6,-516.9,-7108.2,-7480.2,-3316.8,-6.6,-6.0,-171.3,-201.0,-0.6,-53.4,-50.7,-121.8,0,3180,0,103,0, 
1.7700,-240.9,-158.4,-77.1,-134.1,-72.9,-163.5,-61.2,-26.4,-2148.9,-245.1,-58.5,50.1,-600.0,-7368.6,-7134.9,-3064.2,-6.6,-5.7,-167.4,-196.5,-0.9,-48.6,-49.2,-141.6,0,3186,0,104,0, 
1.7733,-243.6,-153.0,-133.8,-134.4,-57.6,-161.7,-49.5,-24.6,-2371.2,-249.9,-59.1,51.6,-817.8,-7648.8,-6935.1,-2691.9,-6.9,-5.4,-164.7,-192.3,-0.6,-53.4,-46.5,-129.6,0,3192,0,105,0, 
1.7767,-247.2,-158.7,-92.1,-132.0,-60.0,-162.3,-59.4,-18.6,-2445.3,-251.1,-57.9,53.1,-827.7,-7553.1,-7207.8,-2759.1,-6.9,-6.3,-168.9,-190.8,-0.9,-51.3,-42.0,-125.4,0,3198,0,106,0, 
1.7800,-248.4,-162.3,0.3,-129.3,-70.2,-156.6,-54.3,-19.2,-2371.2,-256.5,-58.2,57.0,-583.8,-7202.7,-7575.6,-3199.5,-6.6,-5.7,-170.7,-184.8,-0.3,-40.2,-50.4,-129.6,0,3204,0,107,0, 
1.7833,-246.6,-160.8,49.2,-125.4,-57.9,-152.7,-68.1,-16.5,-2445.3,-243.6,-48.9,65.4,-353.4,-7052.1,-7544.7,-3373.8,-6.6,-6.0,-167.7,-180.0,-0.9,-32.1,-41.4,-124.5,0,3210,0,108,0, 
1.7867,-246.9,-166.2,-15.3,-128.7,-44.4,-147.6,-47.4,-17.7,-2223.0,-250.2,-53.4,60.3,-402.6,-7277.7,-7037.7,-3064.5,-6.6,-5.7,-167.1,-183.6,-0.6,-35.7,-36.0,-118.8,0,3216,0,109,0, 
1.7900,-247.2,-167.7,-178.8,-121.2,-43.5,-144.6,-42.6,-13.5,-2371.2,-244.8,-49.2,66.3,-639.0,-7533.0,-6985.8,-2718.3,-6.9,-6.0,-158.1,-180.0,-0.9,-35.1,-30.0,-115.8,0,3222,0,110,0, 
1.7933,-252.3,-171.9,-118.2,-123.9,-52.8,-141.0,-42.6,-10.5,-2519.4,-243.0,-49.2,65.1,-668.1,-7494.3,-7274.1,-2772.9,-7.2,-6.0,-157.8,-181.2,-0.9,-34.8,-35.4,-109.5,0,3228,0,111,0, 
1.7967,-249.0,-166.8,12.3,-124.2,-65.7,-141.9,-50.1,-13.5,-2519.4,-244.2,-49.8,62.1,-386.1,-7035.3,-7614.3,-3171.9,-6.6,-5.4,-161.1,-187.2,-0.9,-33.0,-32.4,-108.9,0,3234,0,112,0, 
1.8000,-251.7,-174.9,65.4,-128.7,-66.3,-146.7,-54.9,-16.5,-2371.2,-257.7,-57.3,56.7,-172.8,-6961.8,-7604.7,-3435.6,-6.9,-6.3,-169.8,-185.7,-0.6,-33.0,-41.1,-118.8,0,3240,0,113,0, 
1.8033,-251.7,-172.2,-12.0,-127.5,-43.2,-142.5,-59.1,-12.0,-2223.0,-268.5,-60.3,47.4,-280.5,-7195.2,-7208.7,-3109.2,-6.9,-6.0,-165.6,-200.1,-0.9,-46.8,-33.0,-113.4,0,3246,0,114,0, 
1.8067,-252.0,-166.2,-146.4,-128.4,-42.9,-146.7,-43.5,-9.9,-2223.0,-246.6,-59.4,52.2,-509.1,-7508.4,-7023.0,-2714.4,-6.9,-5.7,-171.0,-194.4,-0.9,-36.3,-33.9,-108.6,0,3252,0,115,0, 
1.8100,-249.0,-168.3,-214.5,-122.7,-57.6,-141.0,-47.7,-8.7,-2445.3,-240.9,-58.8,59.1,-614.7,-7420.5,-7326.0,-2790.0,-6.9,-5.7,-169.5,-195.3,-0.9,-36.9,-29.1,-116.7,0,3258,0,116,0, 
1.8133,-243.3,-159.9,-82.5,-111.6,-53.7,-135.6,-50.1,-5.7,-2519.4,-239.1,-43.8,70.2,-410.1,-7097.4,-7662.9,-3234.3,-6.6,-6.3,-150.9,-183.6,-0.6,-23.4,-35.4,-117.9,0,3264,0,117,0, 
1.8167,-244.5,-163.2,0.6,-109.5,-38.7,-131.4,-53.4,-8.7,-2371.2,-246.6,-40.8,73.2,-180.9,-6897.6,-7570.5,-3431.7,-6.6,-5.7,-151.2,-178.5,-0.6,-22.8,-33.0,-111.0,0,3270,0,118,0, 
1.8200,-241.8,-150.9,-75.9,-106.2,-40.8,-131.4,-43.5,-3.0,-2223.0,-234.0,-40.5,75.0,-239.1,-7148.7,-7209.6,-3078.0,-7.2,-6.0,-149.4,-176.1,-0.9,-29.4,-28.5,-111.0,0,3276,0,119,0, 
1.8233,-243.9,-160.5,-144.9,-102.3,-32.7,-132.3,-34.2,-3.0,-2148.9,-229.5,-39.6,75.0,-513.0,-7454.4,-6978.0,-2703.0,-6.9,-6.0,-144.9,-176.4,-0.6,-36.3,-29.7,-106.5,0,3282,0,120,0, 
1.8267,-243.6,-158.7,-146.4,-105.6,-35.1,-131.4,-35.7,-5.4,-2371.2,-228.3,-42.6,76.2,-617.7,-7418.7,-7350.9,-2740.5,-7.2,-6.0,-150.9,-174.9,-1.2,-24.3,-23.7,-104.1,0,3288,0,121,0, 
1.8300,-244.5,-159.9,-7.8,-109.8,-45.9,-136.5,-47.1,-1.5,-2519.4,-235.5,-42.6,67.2,-339.0,-6979.8,-7649.1,-3164.7,-6.6,-5.7,-152.1,-179.4,-0.9,-27.3,-31.2,-111.0,0,3294,0,122,0, 
1.8333,-250.2,-162.0,-3.0,-115.5,-59.7,-135.3,-55.5,-8.4,-2445.3,-233.1,-45.0,65.4,-107.1,-6869.7,-7686.3,-3419.4,-7.2,-6.0,-150.0,-191.7,-0.6,-25.2,-34.2,-119.7,0,3300,0,123,0, 
1.8367,-241.8,-158.4,-78.6,-114.3,-56.1,-140.1,-57.3,-7.8,-2371.2,-244.5,-48.6,61.2,-187.2,-7122.0,-7323.6,-3093.0,-6.6,-6.3,-155.1,-192.6,-0.9,-35.4,-28.5,-107.7,0,3306,0,124,0, 
1.8400,-245.1,-168.9,-218.7,-125.1,-48.0,-143.7,-46.2,-15.6,-2297.1,-246.6,-58.8,55.2,-475.8,-7416.9,-7067.4,-2729.4,-6.6,-6.0,-163.5,-196.5,-0.6,-32.7,-30.9,-115.5,0,3312,0,125,0, 
1.8433,-249.6,-166.8,-201.0,-129.3,-87.3,-152.1,-60.6,-24.3,-2371.2,-237.6,-55.8,54.3,-558.9,-7363.5,-7280.1,-2742.6,-7.2,-5.7,-154.5,-196.5,-1.2,-41.7,-45.9,-124.5,0,3318,0,126,0, 
1.8467,-246.6,-160.5,-103.5,-129.0,-90.9,-150.6,-61.2,-24.0,-2445.3,-248.4,-54.3,52.8,-408.3,-7016.4,-7651.2,-3194.7,-6.9,-6.0,-156.0,-202.2,-0.6,-45.9,-56.7,-133.8,0,3324,0,127,0, 
1.8500,-244.5,-164.7,14.1,-135.6,-90.3,-154.8,-65.1,-22.8,-2519.4,-243.6,-61.5,42.6,-221.1,-6909.9,-7644.9,-3407.4,-6.6,-6.0,-163.8,-207.3,-0.6,-57.3,-55.2,-142.8,0,3330,0,128,0, 
1.8533,-243.0,-161.4,-120.0,-140.4,-85.5,-166.5,-66.6,-20.7,-2223.0,-246.3,-72.9,38.7,-327.0,-7206.0,-7257.9,-3127.2,-6.9,-5.7,-170.7,-213.6,-0.6,-61.5,-53.1,-133.2,0,3336,0,129,0, 
1.8567,-236.4,-159.3,-223.2,-137.4,-88.8,-161.4,-63.9,-16.2,-2371.2,-249.0,-64.8,35.7,-631.8,-7506.9,-7092.6,-2736.9,-7.2,-6.3,-166.2,-213.9,-1.2,-48.6,-44.1,-135.6,0,3342,0,130,0, 
1.8600,-240.3,-161.7,-238.5,-141.6,-99.9,-167.7,-67.5,-21.6,-2371.2,-261.9,-68.7,30.3,-736.2,-7484.4,-7438.5,-2809.5,-6.6,-5.7,-171.0,-222.0,-0.6,-58.5,-51.0,-143.4,0,3348,0,131,0, 
1.8633,-238.5,-165.6,-124.5,-140.4,-107.7,-160.8,-69.6,-20.4,-2445.3,-251.4,-69.0,35.4,-591.0,-7156.2,-7703.4,-3264.3,-6.9,-6.3,-169.8,-222.6,-0.9,-64.5,-48.0,-139.5,0,3354,0,132,0, 
1.8667,-239.4,-163.8,-119.4,-143.7,-108.0,-164.4,-64.8,-20.7,-2371.2,-262.5,-72.6,36.3,-422.1,-7049.4,-7667.7,-3462.6,-6.6,-6.0,-177.3,-216.6,-0.6,-63.6,-47.7,-141.9,0,3360,0,133,0, 
1.8700,-246.6,-169.8,-193.5,-144.3,-83.1,-168.0,-53.4,-23.4,-2297.1,-258.3,-70.5,37.8,-541.2,-7331.7,-7276.2,-3135.3,-6.9,-6.0,-173.1,-216.0,-0.6,-64.8,-45.6,-142.2,0,3366,0,134,0, 
1.8733,-245.4,-165.0,-249.9,-141.9,-72.6,-165.0,-49.5,-28.5,-2445.3,-253.8,-72.6,38.1,-857.1,-7642.2,-6982.8,-2641.2,-6.6,-6.0,-175.8,-219.6,-0.6,-65.4,-40.2,-129.9,0,3372,0,135,0, 
1.8767,-241.5,-160.2,-256.2,-138.6,-86.7,-159.6,-46.5,-22.8,-2445.3,-257.1,-63.6,45.3,-1005.6,-7570.8,-7319.4,-2773.5,-6.6,-5.4,-169.5,-215.7,-0.9,-49.2,-39.9,-128.1,0,3378,0,136,0, 
1.8800,-243.9,-168.6,-131.4,-142.8,-77.4,-160.2,-56.4,-27.0,-2519.4,-252.0,-66.9,44.1,-893.4,-7240.5,-7704.6,-3219.0,-7.2,-6.0,-172.2,-213.3,-0.9,-62.4,-44.7,-129.6,0,3384,0,137,0, 
1.8833,-243.9,-168.3,-95.1,-137.7,-73.8,-154.2,-53.1,-27.0,-2519.4,-259.5,-66.6,37.5,-697.8,-7077.6,-7601.4,-3369.6,-6.6,-5.7,-170.1,-224.7,-1.2,-58.8,-38.1,-124.5,0,3390,0,138,0, 
1.8867,-251.4,-178.2,-202.2,-134.7,-78.0,-152.1,-48.9,-26.7,-2223.0,-258.3,-67.5,45.3,-834.6,-7428.3,-7279.8,-3120.9,-7.2,-5.7,-171.9,-211.5,-1.2,-48.0,-41.1,-117.0,0,3396,0,139,0, 
1.8900,-250.8,-174.0,-243.6,-133.5,-73.5,-147.6,-52.5,-20.7,-2445.3,-258.6,-58.2,51.9,-1136.7,-7725.0,-7048.2,-2683.5,-6.9,-5.7,-167.1,-211.5,-0.6,-49.2,-42.0,-126.6,0,3402,0,140,0, 
1.8933,-248.4,-165.3,-242.1,-129.6,-73.8,-151.5,-52.5,-18.3,-2371.2,-255.6,-51.9,54.3,-1196.7,-7662.9,-7331.7,-2748.0,-6.6,-5.7,-158.7,-207.6,-1.2,-68.7,-45.6,-121.2,0,3408,0,141,0, 
1.8967,-250.2,-168.6,-173.7,-126.3,-81.9,-146.4,-62.4,-10.2,-2371.2,-260.1,-51.0,56.4,-1056.9,-7362.9,-7683.9,-3183.3,-6.9,-6.0,-158.1,-207.3,-0.9,-46.8,-50.1,-120.9,0,3414,0,142,0, 
1.9000,-246.3,-169.5,-126.6,-132.0,-87.9,-153.0,-54.9,-12.6,-2371.2,-260.4,-57.0,53.7,-901.2,-7272.0,-7626.0,-3437.4,-6.6,-5.4,-163.5,-209.7,-0.6,-46.5,-61.5,-128.1,0,3420,0,143,0, 
1.9033,-250.5,-169.8,-153.3,-128.7,-65.1,-141.9,-44.4,-7.5,-2445.3,-254.7,-48.9,60.3,-968.7,-7508.7,-7208.7,-3124.8,-6.9,-6.0,-154.8,-199.8,-0.6,-38.4,-53.1,-121.2,0,3426,0,144,0, 
1.9067,-248.1,-168.3,-207.0,-130.8,-45.0,-145.2,-42.3,-6.3,-2223.0,-246.6,-46.8,61.5,-1246.8,-7829.7,-6996.0,-2669.1,-6.9,-6.0,-154.8,-196.5,-0.6,-39.3,-54.9,-107.7,0,3432,0,145,0, 
1.9100,-249.9,-171.0,-578.1,-130.5,-82.5,-142.8,-64.8,-1.5,-2519.4,-246.6,-50.7,53.1,-1630.8,-7953.6,-7653.3,-3002.1,-6.9,-5.7,-155.7,-203.7,-0.6,-47.1,-56.1,-117.6,0,3438,0,146,0, 
1.9133,-245.1,-164.1,-435.3,-124.5,-76.2,-139.8,-58.2,2.7,-2371.2,-240.9,-48.0,57.6,-1383.0,-7586.7,-7898.4,-3332.7,-6.9,-5.7,-154.2,-192.0,-0.6,-33.3,-48.9,-108.6,0,3444,0,147,0, 
1.9167,-246.0,-161.4,-317.4,-115.8,-56.7,-135.0,-59.7,2.7,-2371.2,-243.0,-33.0,78.9,-1191.6,-7424.7,-7661.1,-3499.8,-6.9,-5.7,-137.4,-176.4,-0.3,-31.2,-44.7,-103.8,0,3450,0,148,0, 
1.9200,-248.7,-157.2,-308.1,-113.1,-25.5,-133.2,-46.8,-4.2,-2223.0,-225.3,-22.2,89.7,-1308.6,-7698.9,-7183.5,-3125.4,-6.9,-6.0,-125.4,-170.1,-0.6,-17.7,-41.1,-123.9,0,3456,0,149,0, 
1.9233,-243.6,-157.5,-362.4,-114.6,-24.6,-136.8,-45.6,-0.3,-2371.2,-227.7,-25.2,87.0,-1660.5,-8027.7,-7076.4,-2699.1,-6.9,-5.7,-134.1,-178.2,-0.6,-21.3,-38.7,-118.2,0,3462,0,150,0, 
1.9267,-246.6,-159.0,-305.7,-113.4,-38.7,-133.5,-48.6,-5.1,-2445.3,-215.7,-32.1,80.4,-1761.9,-8013.6,-7418.4,-2759.7,-7.2,-6.3,-135.3,-182.4,-0.6,-17.7,-38.4,-118.8,0,3468,0,151,0, 
1.9300,-248.7,-159.9,-199.5,-118.2,-51.3,-137.4,-58.5,-8.7,-2445.3,-226.8,-38.1,71.7,-1547.4,-7635.9,-7776.3,-3208.8,-6.6,-5.7,-142.2,-184.5,-0.9,-27.3,-36.0,-125.4,0,3474,0,152,0, 
1.9333,-251.4,-164.4,-106.5,-122.1,-45.3,-143.1,-60.9,-11.1,-2297.1,-228.3,-41.4,69.6,-1375.5,-7529.4,-7700.4,-3399.0,-7.2,-5.7,-152.1,-183.6,-0.9,-39.6,-39.0,-118.5,0,3480,0,153,0, 
1.9367,-249.9,-165.3,-200.4,-126.9,-40.2,-140.1,-61.5,-10.8,-2223.0,-232.2,-45.9,66.3,-1449.9,-7835.4,-7269.3,-3150.6,-7.2,-6.3,-149.4,-189.0,-1.2,-28.8,-33.0,-107.1,0,3486,0,154,0, 
1.9400,-251.4,-162.9,-290.7,-132.0,-45.0,-142.5,-46.5,-10.2,-2371.2,-233.1,-51.3,59.4,-1744.2,-8127.3,-7077.3,-2733.9,-6.9,-6.0,-148.5,-189.0,-0.9,-38.1,-31.5,-111.6,0,3492,0,155,0, 
1.9433,-248.1,-160.8,-306.3,-134.4,-57.3,-148.5,-56.1,-12.3,-2445.3,-235.2,-59.7,49.5,-1815.0,-8050.2,-7422.3,-2772.6,-7.2,-6.0,-159.0,-198.9,-1.2,-38.1,-42.0,-119.4,0,3498,0,156,0, 
1.9467,-252.9,-162.0,-208.5,-137.1,-70.5,-152.7,-62.7,-20.7,-2593.5,-245.1,-62.7,44.7,-1624.5,-7696.5,-7718.1,-3264.3,-6.9,-5.4,-159.0,-200.1,-1.2,-49.2,-50.4,-125.1,0,3504,0,157,0, 
1.9500,-254.4,-166.2,-126.3,-144.6,-86.4,-162.6,-68.1,-28.5,-2519.4,-230.1,-61.5,46.5,-1389.3,-7579.5,-7650.6,-3447.0,-6.9,-5.7,-162.0,-198.3,-0.9,-41.1,-47.4,-138.3,0,3510,0,158,0, 
1.9533,-253.5,-164.4,-200.1,-151.2,-78.3,-167.4,-69.0,-37.2,-2297.1,-247.5,-65.4,40.2,-1482.6,-7801.2,-7272.0,-3225.0,-7.2,-6.0,-162.6,-210.0,-0.9,-53.4,-52.8,-148.8,0,3516,0,159,0, 
1.9567,-256.5,-171.9,-300.9,-161.7,-75.9,-168.3,-61.2,-40.5,-2445.3,-244.8,-78.6,30.9,-1720.2,-8118.9,-7093.8,-2845.5,-7.2,-6.0,-176.7,-216.9,-0.9,-51.6,-52.5,-145.5,0,3522,0,160,0, 
1.9600,-249.0,-165.6,-297.0,-161.1,-92.7,-169.2,-57.9,-36.0,-2519.4,-264.6,-81.0,26.7,-1758.3,-8013.9,-7440.0,-2913.3,-6.9,-6.0,-177.9,-222.3,-0.6,-54.9,-48.6,-154.8,0,3528,0,161,0, 
1.9633,-252.6,-166.5,-188.7,-166.8,-105.3,-170.4,-74.7,-36.0,-2445.3,-258.3,-83.7,21.6,-1546.2,-7662.6,-7766.7,-3372.3,-6.9,-6.0,-179.4,-222.6,-0.9,-53.7,-52.5,-147.0,0,3534,0,162,0, 
1.9667,-247.5,-170.1,-146.7,-166.2,-103.8,-168.6,-64.2,-29.7,-2445.3,-265.8,-85.5,22.2,-1307.7,-7532.7,-7731.9,-3565.8,-6.9,-5.7,-185.7,-226.8,-1.2,-63.3,-56.1,-151.8,0,3540,0,163,0, 
1.9700,-253.5,-177.3,-236.4,-172.5,-75.3,-167.4,-63.3,-35.7,-2297.1,-260.1,-90.6,24.0,-1343.4,-7792.8,-7266.3,-3283.5,-6.9,-6.0,-194.1,-226.5,-1.2,-60.9,-50.4,-139.5,0,3546,0,164,0, 
1.9733,-252.0,-177.3,-293.7,-170.4,-70.2,-161.1,-53.7,-32.4,-2445.3,-266.1,-91.2,23.7,-1565.4,-8095.2,-6990.3,-2874.0,-6.6,-5.7,-190.2,-223.2,-0.9,-78.0,-46.8,-156.3,0,3552,0,165,0, 
1.9767,-251.7,-176.4,-269.4,-177.9,-95.1,-173.4,-64.5,-36.3,-2445.3,-268.8,-98.7,12.6,-1577.4,-8086.5,-7404.0,-2956.2,-7.2,-6.0,-195.9,-236.1,-0.9,-75.3,-49.8,-147.0,0,3558,0,166,0, 
1.9800,-248.1,-169.5,-206.7,-173.7,-102.9,-170.1,-68.7,-28.5,-2519.4,-270.3,-91.5,17.1,-1327.5,-7731.9,-7848.0,-3370.2,-6.9,-5.7,-196.5,-228.9,-0.6,-72.9,-54.0,-157.2,0,3564,0,167,0, 
1.9833,-250.2,-167.4,-152.7,-171.9,-79.5,-162.9,-59.1,-30.3,-2371.2,-270.0,-84.3,24.9,-1126.2,-7583.7,-7731.9,-3576.0,-6.9,-5.4,-190.2,-226.8,-0.6,-72.3,-51.6,-143.4,0,3570,0,168,0, 
1.9867,-259.2,-185.1,-263.1,-166.5,-81.3,-168.0,-63.0,-30.3,-2371.2,-271.2,-78.9,30.6,-1203.6,-7836.0,-7403.1,-3305.1,-6.9,-5.7,-177.0,-220.8,-0.9,-70.8,-52.8,-147.6,0,3576,0,169,0, 
1.9900,-249.3,-172.2,-319.5,-155.1,-58.2,-163.2,-51.6,-25.8,-2445.3,-265.5,-70.8,37.2,-1393.8,-8146.8,-7127.1,-2835.0,-6.9,-6.3,-171.3,-214.5,-0.6,-64.5,-52.2,-130.8,0,3582,0,170,0, 
1.9933,-249.0,-163.8,-337.8,-150.6,-66.0,-164.7,-59.1,-18.3,-2519.4,-260.4,-63.6,43.2,-1465.2,-8130.6,-7495.5,-2948.4,-6.6,-6.0,-162.6,-209.4,0.0,-62.4,-56.1,-135.9,0,3588,0,171,0, 
1.9967,-252.0,-162.9,-220.8,-142.8,-69.0,-157.2,-69.0,-7.5,-2519.4,-258.9,-59.7,46.2,-1203.9,-7771.8,-7812.0,-3426.6,-6.9,-5.7,-156.6,-205.8,-1.2,-61.2,-60.3,-132.6,0,3594,0,172,0, 
2.0000,-250.8,-153.9,-149.7,-137.4,-70.2,-150.3,-59.1,3.6,-2445.3,-252.9,-55.2,49.2,-949.8,-7591.2,-7740.6,-3576.6,-7.2,-6.0,-153.6,-201.9,-0.6,-54.0,-52.8,-136.2,0,3600,0,173,0, 
2.0033,-245.1,-148.8,-188.4,-133.2,-49.8,-147.0,-46.2,1.5,-2297.1,-248.1,-52.8,52.5,-953.4,-7828.5,-7322.4,-3303.6,-6.6,-5.4,-156.6,-198.3,-0.9,-50.7,-49.5,-128.7,0,3606,0,174,0, 
2.0067,-249.3,-151.8,-281.4,-127.5,-20.7,-144.6,-39.9,3.3,-2297.1,-250.5,-48.6,59.4,-1128.9,-8074.5,-7080.3,-2846.7,-6.9,-5.4,-146.1,-189.3,-0.9,-48.6,-45.6,-117.6,0,3612,0,175,0, 
2.0100,-246.0,-144.9,-276.3,-119.4,-28.2,-143.4,-48.6,5.4,-2445.3,-240.9,-37.5,72.3,-1170.3,-8080.8,-7466.4,-2936.7,-7.2,-5.7,-145.8,-180.0,-0.9,-45.6,-46.5,-113.1,0,3618,0,176,0, 
2.0133,-241.8,-141.9,-124.2,-109.5,-30.0,-128.4,-52.2,15.6,-2445.3,-218.1,-22.2,84.6,-922.2,-7679.1,-7801.5,-3365.1,-7.2,-6.0,-123.9,-171.3,-0.9,-39.3,-44.7,-111.3,0,3624,0,177,0, 
2.0167,-245.7,-144.0,-49.5,-113.7,-28.2,-136.2,-57.0,13.5,-2223.0,-243.6,-22.2,79.5,-628.8,-7479.9,-7744.8,-3553.2,-6.6,-6.0,-127.8,-171.3,0.0,-36.3,-44.7,-109.5,0,3630,0,178,0, 
2.0200,-242.7,-145.2,-216.3,-109.2,-26.7,-131.4,-43.2,15.6,-2223.0,-219.3,-21.3,87.6,-649.5,-7778.1,-7374.0,-3230.1,-7.2,-6.0,-119.4,-164.7,-0.9,-21.0,-37.2,-97.8,0,3636,0,179,0, 
2.0233,-247.5,-140.4,-324.0,-116.4,-17.4,-137.1,-41.1,6.0,-2297.1,-226.5,-29.7,82.5,-880.2,-8029.8,-7122.9,-2801.4,-6.9,-5.7,-129.9,-170.4,-0.6,-34.2,-36.6,-112.8,0,3642,0,180,0, 
2.0267,-244.5,-138.6,-316.5,-114.0,-39.9,-134.1,-58.2,6.9,-2445.3,-224.7,-26.4,83.7,-939.6,-7989.6,-7438.8,-2929.8,-7.2,-6.0,-127.5,-171.0,-1.2,-30.9,-31.2,-115.8,0,3648,0,181,0, 
2.0300,-250.5,-150.9,-228.3,-121.8,-54.3,-140.7,-60.6,-4.2,-2445.3,-235.2,-34.8,70.8,-713.1,-7604.7,-7746.3,-3282.9,-6.6,-5.4,-145.8,-186.9,-1.2,-33.6,-31.8,-122.4,0,3654,0,182,0, 
2.0333,-249.6,-146.7,-168.6,-125.4,-61.8,-145.8,-59.4,-9.6,-2297.1,-234.9,-42.9,62.1,-431.7,-7440.6,-7698.0,-3526.8,-6.9,-6.0,-144.6,-195.9,-0.6,-38.1,-27.0,-125.4,0,3660,0,183,0, 
2.0367,-251.7,-158.1,-240.9,-129.9,-38.1,-151.8,-53.4,-15.0,-2297.1,-241.2,-49.5,57.6,-464.4,-7707.9,-7308.9,-3201.0,-6.9,-5.7,-151.5,-193.5,-0.6,-49.5,-35.4,-125.7,0,3666,0,184,0, 
2.0400,-248.7,-164.7,-376.2,-141.9,-64.8,-160.8,-56.4,-18.6,-2371.2,-246.6,-55.2,49.2,-724.8,-8028.0,-7098.6,-2843.7,-6.9,-5.7,-153.3,-203.7,-0.6,-53.1,-41.7,-130.5,0,3672,0,185,0, 
2.0433,-250.2,-169.2,-376.8,-148.8,-68.4,-167.1,-66.6,-23.1,-2371.2,-254.1,-65.4,42.0,-752.1,-7989.0,-7392.0,-2918.1,-6.6,-6.3,-165.6,-210.3,-0.9,-56.1,-50.1,-133.8,0,3678,0,186,0, 
2.0467,-251.4,-166.2,-215.1,-156.6,-90.3,-175.5,-77.7,-29.1,-2445.3,-262.2,-71.1,33.6,-512.4,-7658.7,-7722.3,-3323.1,-6.9,-6.0,-170.1,-220.5,-0.6,-63.0,-53.7,-147.9,0,3684,0,187,0, 
2.0500,-252.3,-173.7,-160.8,-162.3,-78.6,-175.2,-73.2,-34.5,-2297.1,-253.8,-77.7,28.5,-361.2,-7536.0,-7664.1,-3541.2,-6.6,-5.7,-178.2,-222.3,-0.3,-61.8,-47.7,-147.6,0,3690,0,188,0, 
2.0533,-246.6,-166.2,-259.5,-164.7,-82.5,-171.6,-74.1,-28.5,-2371.2,-267.9,-80.4,26.4,-482.7,-7824.6,-7256.1,-3276.0,-6.9,-6.0,-177.0,-225.0,-0.6,-68.7,-48.6,-143.7,0,3696,0,189,0, 
2.0567,-245.4,-171.9,-344.4,-165.6,-74.1,-182.7,-74.4,-28.5,-2371.2,-263.1,-79.8,27.3,-754.5,-8130.6,-7096.5,-2858.7,-7.2,-5.7,-176.4,-227.7,-0.9,-71.1,-54.6,-144.0,0,3702,0,190,0, 
2.0600,-249.0,-176.7,-327.3,-165.6,-83.7,-183.6,-77.1,-27.3,-2445.3,-256.5,-81.3,25.8,-827.1,-8044.2,-7287.0,-2872.8,-6.9,-6.0,-177.0,-228.9,-0.6,-70.5,-56.1,-149.7,0,3708,0,191,0, 
2.0633,-244.5,-171.3,-250.2,-162.6,-99.6,-177.3,-73.2,-25.2,-2593.5,-257.1,-81.6,23.7,-647.1,-7722.6,-7674.0,-3312.9,-6.9,-5.7,-177.9,-229.2,-1.2,-72.0,-65.7,-151.8,0,3714,0,192,0, 
2.0667,-243.3,-170.1,-158.1,-165.0,-96.9,-176.1,-85.5,-21.3,-2445.3,-264.9,-78.3,23.7,-422.1,-7575.6,-7636.2,-3438.9,-7.2,-6.3,-173.4,-226.2,-1.5,-83.7,-66.3,-147.9,0,3720,0,193,0, 
2.0700,-244.5,-165.9,-237.6,-155.1,-78.6,-165.6,-79.2,-14.4,-2371.2,-262.8,-72.6,28.2,-610.8,-7880.4,-7302.0,-3176.1,-6.9,-5.7,-169.2,-223.2,-0.9,-59.4,-59.1,-143.4,0,3726,0,194,0, 
2.0733,-245.4,-162.6,-321.6,-164.7,-84.0,-173.4,-74.7,-11.7,-2445.3,-277.5,-81.3,18.6,-884.1,-8198.1,-7097.1,-2736.9,-6.9,-5.7,-175.5,-234.6,-1.2,-93.3,-67.5,-161.4,0,3732,0,195,0, 
2.0767,-249.9,-180.3,-293.7,-160.8,-84.6,-176.1,-85.2,-9.3,-2519.4,-271.2,-79.8,26.4,-998.4,-8157.9,-7407.0,-2871.9,-7.2,-5.7,-177.3,-232.2,-1.2,-74.1,-69.9,-149.1,0,3738,0,196,0, 
2.0800,-247.2,-168.6,-276.6,-156.6,-102.0,-175.2,-92.4,-8.1,-2593.5,-279.9,-80.4,23.7,-840.6,-7853.1,-7844.1,-3346.8,-6.9,-5.7,-181.8,-232.2,-0.3,-77.1,-75.0,-147.9,0,3744,0,197,0, 
2.0833,-243.6,-168.3,-128.4,-147.0,-99.3,-166.5,-75.6,-1.5,-2371.2,-265.8,-73.5,32.7,-632.4,-7693.8,-7700.1,-3507.0,-7.2,-5.7,-162.0,-225.6,-1.5,-69.9,-75.0,-148.5,0,3750,0,198,0, 
2.0867,-247.2,-169.2,-245.7,-146.1,-74.7,-169.8,-84.0,-0.9,-2371.2,-276.6,-70.8,29.7,-773.7,-7993.5,-7298.4,-3211.5,-6.9,-5.7,-161.7,-221.1,-0.9,-84.0,-73.2,-142.5,0,3756,0,199,0, 
2.0900,-244.8,-170.7,-294.9,-141.9,-60.9,-166.2,-76.2,6.9,-2445.3,-273.6,-66.0,35.7,-1068.3,-8274.0,-7102.2,-2811.9,-6.9,-6.0,-158.7,-219.6,-0.9,-84.3,-70.5,-135.0,0,3762,0,200,0, 
2.0933,-252.6,-176.1,-304.5,-139.2,-75.3,-163.8,-85.5,7.8,-2519.4,-279.6,-67.2,39.0,-1177.5,-8291.7,-7419.6,-2879.7,-6.9,-6.0,-162.3,-208.8,-0.9,-78.6,-73.2,-142.5,0,3768,0,201,0, 
2.0967,-246.6,-165.0,-174.0,-129.6,-73.8,-153.0,-84.0,13.8,-2371.2,-265.8,-56.1,48.0,-992.7,-7880.7,-7716.6,-3240.9,-6.9,-6.0,-152.4,-209.4,-0.6,-66.3,-69.9,-132.6,0,3774,0,202,0, 
2.1000,-243.3,-158.4,-180.3,-123.0,-78.6,-153.9,-72.9,16.2,-2297.1,-267.3,-49.2,54.6,-784.8,-7750.5,-7671.3,-3500.4,-6.9,-6.3,-143.1,-195.9,-0.6,-60.3,-67.8,-118.2,0,3780,0,203,0, 
2.1033,-243.9,-153.3,-223.5,-114.9,-44.4,-143.1,-80.1,24.3,-2371.2,-248.7,-39.6,66.3,-880.8,-8008.5,-7332.6,-3272.7,-6.9,-5.7,-140.1,-189.9,-0.6,-48.0,-65.7,-110.4,0,3786,0,204,0, 
2.1067,-245.7,-151.2,-289.5,-111.3,-38.1,-140.7,-71.7,25.8,-2297.1,-246.0,-35.1,71.1,-1090.5,-8308.8,-7063.5,-2830.8,-6.9,-5.7,-129.3,-181.2,-0.3,-55.2,-58.5,-102.3,0,3792,0,205,0, 
2.1100,-243.0,-149.7,-264.3,-97.8,-29.1,-129.0,-68.1,34.2,-2519.4,-230.1,-19.2,87.6,-1160.4,-8228.7,-7344.0,-2862.6,-6.9,-6.0,-117.9,-162.9,-1.2,-37.5,-56.4,-85.2,0,3798,0,206,0, 
2.1133,-237.0,-129.6,-192.0,-85.8,-41.4,-125.4,-64.5,39.3,-2445.3,-229.5,-5.1,100.8,-1015.8,-7934.1,-7794.3,-3346.8,-6.9,-5.7,-100.8,-152.7,-0.9,-27.9,-57.9,-93.0,0,3804,0,207,0, 
2.1167,-250.5,-159.9,-66.9,-95.7,-36.3,-132.6,-77.7,24.3,-2371.2,-227.7,-18.6,92.7,-769.8,-7760.4,-7678.2,-3544.5,-6.6,-6.0,-117.3,-159.9,-1.2,-29.1,-58.2,-101.7,0,3810,0,208,0, 
2.1200,-251.7,-155.1,-165.0,-96.0,-35.7,-131.7,-72.6,19.5,-2297.1,-237.0,-19.8,89.7,-851.7,-7998.9,-7283.1,-3220.5,-7.2,-6.3,-118.5,-161.7,-0.6,-27.6,-57.0,-98.7,0,3816,0,209,0, 
2.1233,-251.1,-161.1,-288.6,-99.6,-23.4,-126.6,-52.8,16.5,-2371.2,-226.8,-14.1,89.1,-1080.6,-8276.7,-7119.9,-2847.9,-6.6,-6.0,-112.5,-164.1,-0.9,-25.5,-49.8,-111.6,0,3822,0,210,0, 
2.1267,-253.5,-157.5,-286.8,-108.9,-41.4,-129.9,-59.4,6.9,-2445.3,-240.0,-20.4,84.3,-1171.8,-8183.1,-7395.0,-2880.9,-6.9,-6.3,-120.9,-166.5,-0.9,-29.1,-49.5,-112.2,0,3828,0,211,0, 
2.1300,-251.7,-157.2,-151.2,-108.6,-50.7,-123.0,-60.9,13.8,-2445.3,-232.8,-23.4,87.3,-914.4,-7782.0,-7762.8,-3346.2,-6.9,-6.0,-124.5,-168.6,-0.3,-24.3,-38.4,-98.4,0,3834,0,212,0, 
2.1333,-251.7,-156.0,-117.0,-114.3,-53.1,-131.4,-67.8,2.4,-2371.2,-238.8,-27.6,79.5,-635.7,-7654.8,-7643.4,-3571.2,-6.9,-5.4,-128.4,-173.1,-0.9,-33.3,-39.9,-104.4,0,3840,0,213,0, 
2.1367,-255.3,-156.6,-152.1,-120.9,-42.6,-131.4,-56.4,-2.7,-2297.1,-230.1,-36.0,72.9,-648.3,-7852.8,-7203.9,-3300.3,-6.6,-5.7,-134.7,-178.2,-0.9,-32.4,-31.2,-102.6,0,3846,0,214,0, 
2.1400,-250.2,-156.0,-232.8,-126.0,-34.8,-132.0,-51.6,-4.2,-2297.1,-246.0,-42.0,63.3,-871.2,-8155.5,-7008.9,-2824.8,-6.9,-5.7,-137.7,-187.5,-0.6,-43.2,-26.1,-95.4,0,3852,0,215,0, 
2.1433,-253.8,-161.4,-205.8,-138.6,-68.7,-155.4,-54.3,-17.1,-2519.4,-253.5,-53.7,50.1,-888.0,-8137.5,-7327.2,-2886.9,-7.2,-6.0,-151.2,-201.0,-0.9,-37.8,-34.2,-113.7,0,3858,0,216,0, 
2.1467,-256.2,-168.0,-134.7,-142.8,-77.1,-150.3,-72.0,-22.2,-2519.4,-255.6,-61.5,48.3,-611.4,-7764.3,-7697.7,-3291.3,-7.2,-6.0,-155.7,-204.3,-0.9,-52.8,-45.3,-132.0,0,3864,0,217,0, 
2.1500,-253.8,-168.6,-87.3,-148.5,-62.1,-163.2,-80.7,-29.4,-2445.3,-266.7,-65.4,46.2,-393.3,-7578.6,-7699.5,-3573.9,-6.6,-6.0,-161.4,-204.3,-0.9,-53.1,-47.7,-126.9,0,3870,0,218,0, 
2.1533,-253.5,-174.3,-161.7,-149.7,-65.1,-155.4,-72.6,-26.1,-2371.2,-261.0,-62.4,48.9,-390.0,-7764.6,-7166.1,-3253.5,-6.9,-5.7,-155.4,-202.5,-0.6,-60.3,-44.1,-131.7,0,3876,0,219,0, 
2.1567,-255.9,-175.2,-279.9,-153.3,-61.2,-166.5,-68.7,-33.0,-2297.1,-276.0,-68.4,37.8,-567.0,-8052.6,-7001.1,-2899.8,-6.9,-5.4,-165.9,-211.8,-0.9,-63.3,-45.9,-134.4,0,3882,0,220,0, 
2.1600,-252.9,-176.7,-254.1,-153.9,-76.8,-167.7,-74.1,-27.9,-2445.3,-267.3,-68.4,34.2,-617.7,-7995.9,-7241.4,-2870.1,-6.9,-6.0,-161.1,-217.5,-0.6,-67.2,-53.7,-149.7,0,3888,0,221,0, 
2.1633,-249.9,-171.0,-168.0,-152.7,-84.6,-169.8,-81.9,-24.9,-2519.4,-275.4,-72.0,29.1,-313.8,-7629.0,-7634.4,-3391.8,-6.9,-5.7,-163.5,-222.9,-0.9,-67.2,-65.4,-147.9,0,3894,0,222,0, 
2.1667,-251.7,-167.4,-156.0,-156.3,-93.9,-171.9,-86.1,-24.9,-2445.3,-270.6,-75.0,26.1,-62.4,-7459.8,-7588.5,-3586.5,-6.9,-5.7,-166.5,-226.5,-0.9,-78.0,-63.6,-158.1,0,3900,0,223,0, 
2.1700,-249.0,-171.6,-260.1,-153.0,-70.2,-168.9,-71.7,-21.9,-2445.3,-271.2,-71.1,33.3,-103.5,-7654.5,-7297.2,-3289.2,-7.2,-5.7,-160.5,-217.8,-1.2,-66.3,-58.8,-150.6,0,3906,0,224,0, 
2.1733,-256.2,-175.5,78.3,-159.6,-35.4,-171.0,-49.5,-26.1,-2445.3,-286.8,-79.2,27.9,-16.2,-7803.6,-6536.1,-2497.2,-6.9,-6.3,-181.8,-224.4,-0.9,-83.7,-62.4,-148.5,0,3912,0,225,0, 
2.1767,-251.4,-166.2,-15.3,-151.2,-46.2,-162.9,-58.8,-14.7,-2593.5,-279.6,-75.6,33.9,-199.5,-7852.8,-7037.7,-2745.6,-6.6,-5.4,-167.4,-216.6,-0.9,-76.2,-61.8,-139.8,0,3918,0,226,0, 
2.1800,-249.3,-171.0,-13.5,-148.2,-72.9,-168.0,-75.9,-10.2,-2445.3,-276.9,-66.3,42.9,33.3,-7551.0,-7495.8,-3243.3,-6.9,-6.0,-153.9,-207.9,-0.6,-61.2,-66.9,-147.0,0,3924,0,227,0, 
2.1833,-250.5,-166.8,-31.5,-141.3,-63.0,-162.3,-70.2,-7.5,-2297.1,-270.0,-54.6,47.7,204.9,-7363.5,-7550.7,-3485.4,-6.9,-6.0,-146.7,-207.0,-0.6,-66.9,-70.2,-145.2,0,3930,0,228,0, 
2.1867,-248.1,-172.5,-135.9,-142.5,-49.5,-159.3,-66.0,-9.0,-2223.0,-263.1,-55.8,43.2,103.8,-7628.1,-7152.9,-3234.6,-6.9,-6.0,-147.9,-211.2,-0.9,-69.3,-68.7,-151.2,0,3936,0,229,0, 
2.1900,-246.6,-175.5,-230.7,-134.7,-41.1,-155.7,-59.7,-1.5,-2371.2,-259.2,-48.6,51.3,-158.7,-7934.4,-7031.7,-2787.0,-6.9,-6.0,-142.8,-199.5,-0.9,-73.8,-66.9,-140.4,0,3942,0,230,0, 
2.1933,-247.8,-165.6,-250.5,-132.0,-58.8,-160.8,-65.7,-2.7,-2445.3,-259.5,-44.1,55.8,-238.8,-7902.9,-7390.2,-2844.6,-6.9,-5.7,-141.0,-195.9,-1.2,-63.0,-78.9,-142.5,0,3948,0,231,0, 
2.1967,-245.4,-165.0,-126.3,-122.4,-46.2,-154.2,-74.7,-0.6,-2445.3,-259.5,-37.5,63.6,-29.7,-7516.8,-7749.0,-3228.6,-7.2,-6.0,-132.6,-188.7,-0.3,-67.5,-82.2,-138.6,0,3954,0,232,0, 
2.2000,-245.4,-160.2,-50.7,-120.9,-45.6,-151.8,-69.3,2.1,-2297.1,-261.9,-34.5,67.8,142.5,-7354.8,-7687.8,-3439.5,-6.9,-6.0,-129.3,-186.9,-0.6,-72.0,-82.8,-143.7,0,3960,0,233,0, 
2.2033,-249.6,-162.0,-148.2,-117.9,-36.3,-152.1,-70.5,8.7,-2297.1,-261.3,-33.9,65.4,57.9,-7650.9,-7304.7,-3215.4,-6.9,-6.0,-129.9,-191.1,-1.2,-72.3,-83.1,-145.5,0,3966,0,234,0, 
2.2067,-246.9,-156.9,-294.0,-109.5,-30.9,-149.1,-63.3,19.2,-2371.2,-251.4,-23.4,77.1,-214.2,-7923.3,-7118.7,-2734.5,-6.6,-5.7,-119.4,-182.4,-1.2,-47.7,-75.9,-127.5,0,3972,0,235,0, 
2.2100,-249.9,-157.5,-269.4,-108.3,-34.5,-148.5,-66.9,23.1,-2519.4,-250.2,-21.0,76.5,-332.4,-7833.9,-7305.6,-2738.1,-6.9,-6.3,-109.8,-180.6,-0.6,-50.4,-80.4,-129.0,0,3978,0,236,0, 
2.2133,-255.3,-162.9,-213.6,-107.1,-47.4,-149.1,-67.5,15.0,-2445.3,-249.0,-18.9,79.8,-121.8,-7485.3,-7662.9,-3273.3,-6.9,-5.7,-111.9,-180.3,-0.9,-52.8,-79.8,-132.3,0,3984,0,237,0, 
2.2167,-260.4,-159.3,-143.1,-111.3,-42.3,-144.3,-73.5,18.6,-2371.2,-252.0,-20.7,84.0,43.5,-7341.0,-7579.5,-3493.8,-6.6,-5.7,-114.3,-174.3,-0.6,-50.4,-79.5,-139.2,0,3990,0,238,0, 
