Time,P3,C3,F3,Fz,F4,C4,P4,Cz,CM,A1,Fp1,Fp2,T3,T5,O1,O2,X3,X2,F7,F8,X1,A2,T6,T4,Trigger,Time_Offset,ADC_Status,ADC_Sequence,Event,Comments
0.0033,450.6,-1167.0,268.8,-96.6,111.0,-135.3,22.5,144.0,-8373.3,876.6,-3139.2,-3054.9,-1021.2,-183.6,-6213.9,333.6,-6.9,-5.7,3466.5,437.7,-1.2,228.9,570.0,-666.6,0,6,0,5,0, 
0.0067,453.9,-1176.9,262.8,-106.8,104.7,-168.6,19.2,153.3,-1778.4,855.6,-476.4,-722.7,-670.8,114.3,481.5,331.2,-7.2,-6.3,3463.5,433.5,-0.6,198.3,568.5,-672.3,0,12,0,6,0, 
0.0100,444.0,-1192.5,245.7,-120.0,85.5,-190.5,34.2,151.2,889.2,840.9,1957.5,1515.6,-736.2,354.9,3486.3,397.5,-6.9,-6.0,3458.4,409.5,-0.6,200.4,600.0,-707.4,0,18,0,7,0, 
0.0133,421.8,-1194.3,266.1,-90.0,127.2,-134.4,43.8,166.2,-4001.4,854.7,885.0,646.8,-855.3,257.1,-1258.5,330.0,-6.6,-6.0,3459.6,461.1,-0.9,226.8,619.2,-654.9,0,24,0,8,0, 
0.0167,434.4,-1178.1,262.2,-96.6,114.0,-172.2,5.7,143.1,-9633.0,856.8,-2228.4,-2233.5,-1154.1,-7.5,-7241.4,336.6,-6.9,-5.7,3439.8,443.1,-0.9,254.1,489.0,-735.0,0,30,0,9,0, 
0.0200,444.9,-1154.7,261.9,-96.6,112.2,-172.5,8.4,142.5,-8521.5,841.2,-2930.7,-3083.7,-1051.8,-216.6,-6212.4,350.1,-6.9,-5.7,3400.8,442.2,-0.6,258.0,525.3,-728.4,0,36,0,10,0, 
0.0233,449.7,-1182.6,255.0,-104.4,110.1,-162.9,11.1,156.0,-1778.4,843.3,-200.1,-766.8,-787.8,159.6,453.9,348.6,-7.2,-5.7,3414.6,433.5,-0.6,234.6,525.6,-707.1,0,42,0,11,0, 
0.0267,451.5,-1163.1,282.6,-86.7,123.9,-141.9,24.6,180.9,1111.5,873.9,2247.0,1573.8,-741.9,417.3,3543.9,326.7,-7.2,-5.7,3458.4,451.5,-1.2,255.6,546.0,-668.4,0,48,0,12,0, 
0.0300,426.9,-1221.0,241.8,-105.0,115.8,-126.3,38.7,156.0,-3853.2,840.9,1096.5,651.6,-1009.2,336.0,-1199.4,347.4,-6.9,-5.4,3411.9,444.3,-0.6,261.0,581.1,-607.5,0,54,0,13,0, 
0.0333,450.3,-1162.5,272.7,-90.3,111.9,-141.6,23.7,147.3,-9707.1,882.3,-1984.2,-2064.3,-1051.8,4.5,-7203.3,342.3,-7.2,-6.0,3433.8,441.3,-0.6,250.2,529.5,-672.6,0,60,0,14,0, 
0.0367,439.8,-1188.9,252.3,-102.6,101.7,-150.3,26.4,137.1,-8373.3,828.0,-2885.4,-3019.2,-934.2,-163.2,-6182.7,363.0,-7.2,-5.4,3406.2,443.4,-0.6,231.6,598.2,-701.1,0,66,0,15,0, 
0.0400,449.1,-1188.0,256.2,-98.1,110.7,-150.9,21.9,158.1,-1778.4,832.5,-247.8,-824.4,-746.7,153.0,437.1,335.1,-6.9,-5.7,3410.4,454.2,-0.3,224.1,556.8,-667.8,0,72,0,16,0, 
0.0433,453.0,-1192.2,245.7,-106.5,104.7,-153.0,26.7,167.4,963.3,837.3,2183.4,1503.3,-761.4,434.4,3483.3,327.9,-6.9,-5.7,3408.6,439.2,-0.6,192.0,606.3,-696.6,0,78,0,17,0, 
0.0467,438.9,-1162.2,249.6,-115.2,90.3,-141.6,41.4,152.4,-3853.2,848.4,1082.4,757.5,-1000.5,255.3,-1282.5,390.0,-7.5,-6.0,3405.0,421.8,-0.6,184.8,597.6,-687.3,0,84,0,18,0, 
0.0500,450.0,-1143.6,261.3,-100.8,101.4,-123.6,32.1,147.6,-9855.3,835.8,-2001.6,-2052.3,-1237.2,-88.8,-7328.4,314.7,-7.2,-5.7,3396.3,426.3,-0.6,204.6,537.3,-684.3,0,90,0,19,0, 
0.0533,427.8,-1179.6,264.9,-90.9,120.3,-173.4,20.1,148.5,-8595.6,862.5,-2839.8,-2909.4,-1068.3,-194.4,-6313.2,342.3,-7.2,-6.0,3411.6,464.1,-0.9,271.2,552.6,-731.7,0,96,0,20,0, 
0.0567,428.7,-1200.6,262.2,-97.5,118.8,-157.5,10.2,161.4,-1852.5,863.4,-125.1,-516.9,-754.5,123.9,338.4,348.6,-7.2,-6.0,3409.2,457.8,-0.6,255.9,524.7,-724.2,0,102,0,21,0, 
0.0600,430.2,-1217.1,248.4,-106.5,105.0,-157.2,27.3,165.3,963.3,833.7,2294.4,1745.1,-714.0,441.0,3433.8,360.9,-6.9,-6.0,3403.5,448.8,-0.6,253.5,579.3,-685.2,0,108,0,22,0, 
0.0633,445.2,-1179.0,262.2,-99.3,102.6,-169.2,24.6,166.2,-3927.3,881.1,1248.0,828.9,-997.5,371.1,-1299.3,346.5,-6.9,-5.7,3408.0,446.7,-0.6,240.0,561.3,-720.3,0,114,0,23,0, 
0.0667,463.8,-1166.4,254.1,-104.7,98.1,-176.7,12.9,148.2,-9707.1,857.7,-1905.9,-1959.0,-1033.5,7.8,-7311.9,335.7,-6.9,-6.3,3386.7,433.2,-1.2,244.2,516.9,-723.6,0,120,0,24,0, 
0.0700,447.6,-1158.6,272.4,-91.5,115.5,-154.2,19.2,151.2,-8447.4,883.8,-2683.8,-2820.6,-970.5,-161.1,-6263.7,322.5,-6.9,-6.0,3403.8,448.2,-0.9,257.4,532.2,-668.1,0,126,0,25,0, 
0.0733,433.2,-1170.3,269.7,-97.2,108.3,-156.3,20.4,157.2,-1852.5,851.4,-54.3,-634.5,-716.1,86.7,300.6,350.4,-7.2,-5.7,3411.6,420.0,-0.6,216.9,559.5,-682.2,0,132,0,26,0, 
0.0767,433.5,-1188.0,268.8,-96.9,103.8,-146.1,25.5,171.3,815.1,858.9,2402.7,1724.1,-692.4,402.6,3382.5,346.8,-7.2,-5.7,3408.0,433.8,-0.9,228.3,560.7,-680.1,0,138,0,27,0, 
0.0800,439.2,-1198.5,240.3,-117.3,93.9,-117.9,41.7,151.8,-4001.4,818.4,1321.2,842.4,-952.2,332.1,-1339.2,354.0,-6.9,-6.0,3350.4,431.1,-0.9,208.5,600.0,-690.9,0,144,0,28,0, 
0.0833,446.4,-1190.1,237.3,-122.1,83.7,-190.2,23.4,127.2,-9707.1,813.0,-1840.5,-1970.4,-1167.6,-46.2,-7366.5,371.4,-6.9,-5.7,3327.3,444.0,-0.6,242.4,638.4,-760.8,0,150,0,29,0, 
0.0867,429.6,-1171.2,265.5,-95.4,117.0,-139.8,25.8,145.5,-8447.4,866.7,-2715.0,-2904.9,-1022.4,-218.4,-6370.5,356.4,-7.2,-5.4,3366.9,473.7,-1.2,264.9,525.6,-620.7,0,156,0,30,0, 
0.0900,433.8,-1176.6,268.2,-102.3,105.0,-146.1,33.3,155.1,-2074.8,860.1,-43.8,-627.6,-801.9,62.1,179.4,350.7,-6.6,-6.0,3385.5,446.1,-0.9,246.9,561.0,-652.5,0,162,0,31,0, 
0.0933,424.8,-1188.6,272.7,-89.7,115.5,-140.4,31.2,170.4,963.3,876.6,2295.0,1675.5,-804.9,385.5,3314.1,346.2,-6.9,-6.0,3392.1,449.7,-0.6,265.5,573.3,-668.1,0,168,0,32,0, 
0.0967,434.4,-1172.1,266.4,-96.0,102.3,-161.7,18.3,160.5,-4075.5,864.3,1235.1,859.5,-958.5,364.5,-1401.9,344.7,-6.6,-5.7,3383.4,440.4,-0.6,252.3,534.6,-722.4,0,174,0,33,0, 
0.1000,435.0,-1169.7,261.6,-96.9,104.7,-135.6,32.4,147.3,-9781.2,879.9,-1943.1,-2010.0,-1175.1,-6.0,-7412.4,352.2,-6.6,-5.7,3381.0,435.9,-0.6,248.1,554.4,-657.9,0,180,0,34,0, 
0.1033,458.7,-1153.8,263.1,-102.9,98.7,-162.6,17.4,145.2,-8669.7,863.7,-2771.7,-2928.9,-1019.4,-123.0,-6423.9,351.0,-7.2,-6.0,3372.0,431.7,-0.6,230.1,572.7,-731.1,0,186,0,35,0, 
0.1067,464.1,-1151.7,262.5,-101.4,105.6,-170.4,20.1,160.5,-2074.8,841.2,-259.5,-684.0,-732.9,136.8,176.1,335.1,-6.6,-5.7,3370.5,437.1,-1.2,225.0,552.9,-707.1,0,192,0,36,0, 
0.1100,472.2,-1125.0,286.2,-88.2,113.7,-164.4,15.6,180.6,815.1,880.2,2166.6,1581.3,-657.3,394.5,3322.2,316.5,-6.9,-5.7,3398.1,435.6,-0.6,240.0,529.8,-723.3,0,198,0,37,0, 
0.1133,445.8,-1144.5,261.3,-100.8,107.1,-151.2,30.6,165.3,-4149.6,846.0,1086.9,735.6,-1021.5,259.8,-1443.0,329.7,-7.2,-5.7,3346.2,434.7,-0.9,219.3,567.6,-646.2,0,204,0,38,0, 
0.1167,442.2,-1143.6,271.8,-96.6,104.7,-164.1,16.2,147.9,-9781.2,869.7,-2039.4,-2120.1,-1044.9,-25.8,-7405.5,355.8,-7.5,-6.3,3363.0,435.3,-0.6,254.4,538.8,-716.4,0,210,0,39,0, 
0.1200,427.8,-1206.3,257.4,-102.9,106.2,-170.1,23.1,135.3,-8669.7,865.2,-2789.7,-2961.0,-976.8,-160.2,-6427.8,358.2,-6.6,-5.7,3364.2,439.8,-0.9,256.8,550.5,-752.1,0,216,0,40,0, 
0.1233,434.4,-1207.5,244.8,-111.3,96.3,-159.9,21.9,147.0,-2000.7,845.1,-232.2,-647.4,-805.2,138.9,138.9,357.0,-6.9,-5.7,3355.8,435.9,-0.9,244.2,576.0,-752.1,0,222,0,41,0, 
0.1267,445.2,-1180.2,256.2,-112.8,96.6,-162.9,22.2,159.9,666.9,843.0,2190.6,1650.9,-776.4,438.6,3246.3,343.2,-7.2,-6.0,3365.4,438.0,-0.6,249.0,593.4,-739.5,0,228,0,42,0, 
0.1300,432.6,-1206.6,239.1,-118.2,92.1,-135.9,34.8,143.7,-4075.5,865.8,1096.5,853.5,-908.7,345.3,-1505.4,372.3,-7.2,-5.7,3335.1,438.9,-0.6,255.0,582.9,-769.2,0,234,0,43,0, 
0.1333,442.8,-1184.7,255.3,-107.4,97.2,-156.9,32.4,133.2,-9929.4,882.6,-2010.3,-2088.3,-1076.4,-18.6,-7495.2,354.3,-6.9,-5.7,3338.7,455.7,-0.9,251.1,591.6,-673.2,0,240,0,44,0, 
0.1367,442.2,-1190.4,256.2,-104.1,102.0,-149.7,33.3,136.5,-8743.8,871.8,-2939.4,-3051.9,-958.5,-149.7,-6510.3,327.6,-7.2,-6.3,3336.0,445.5,-0.6,239.7,610.2,-639.3,0,246,0,45,0, 
0.1400,470.4,-1124.7,279.9,-93.6,101.7,-147.0,33.3,163.5,-1926.6,892.2,-354.6,-740.1,-619.8,71.7,131.1,328.5,-6.6,-5.4,3369.9,447.6,-0.9,245.7,553.5,-666.6,0,252,0,46,0, 
0.1433,457.5,-1164.9,252.6,-106.8,95.7,-164.1,18.6,164.1,741.0,869.1,2066.7,1641.0,-691.5,392.7,3240.3,346.2,-6.6,-5.7,3348.6,444.9,-1.2,228.0,516.9,-698.1,0,258,0,47,0, 
0.1467,448.2,-1137.3,270.9,-87.0,115.5,-143.7,29.4,166.2,-4223.7,904.5,872.4,903.9,-1033.8,279.9,-1550.7,353.1,-6.9,-5.7,3363.6,458.4,-0.6,260.4,515.4,-653.1,0,264,0,48,0, 
0.1500,445.5,-1135.2,261.6,-97.5,109.2,-130.5,35.4,146.4,-10003.5,867.0,-2191.2,-1867.5,-1202.7,-36.0,-7570.5,344.4,-6.6,-5.7,3348.6,441.9,-0.6,269.1,571.5,-667.8,0,270,0,49,0, 
0.1533,438.0,-1161.3,247.2,-105.0,102.6,-131.1,40.8,135.9,-8743.8,860.4,-2997.0,-2757.3,-1010.7,-198.0,-6605.4,357.3,-7.2,-5.7,3333.6,441.6,-0.6,262.8,606.9,-632.4,0,276,0,50,0, 
0.1567,436.8,-1191.6,242.4,-103.2,107.1,-163.2,36.6,149.4,-2148.9,840.9,-338.7,-474.0,-765.6,75.0,15.0,352.2,-6.9,-6.0,3349.5,469.2,-0.9,258.3,608.4,-654.3,0,282,0,51,0, 
0.1600,430.8,-1172.7,262.2,-82.5,132.6,-125.7,49.5,177.0,666.9,861.9,2127.0,1862.4,-752.1,362.4,3137.7,354.6,-6.9,-6.0,3369.9,481.5,-0.6,304.5,605.1,-674.7,0,288,0,52,0, 
0.1633,441.6,-1157.7,264.3,-79.5,126.0,-145.2,32.1,171.0,-4149.6,863.1,996.0,1008.6,-892.2,337.5,-1550.4,342.0,-6.6,-6.0,3360.3,461.1,-0.9,264.9,532.8,-715.8,0,294,0,53,0, 
0.1667,447.0,-1181.7,246.0,-91.2,109.2,-148.5,30.0,149.1,-10003.5,851.7,-2058.0,-1887.3,-1160.4,-12.6,-7556.7,343.8,-6.9,-5.4,3333.0,470.1,-0.9,245.1,549.6,-722.1,0,300,0,54,0, 
0.1700,443.1,-1164.0,261.0,-88.2,107.1,-153.9,33.9,148.8,-8743.8,853.8,-2895.3,-2803.5,-904.8,-182.4,-6610.5,333.3,-6.9,-5.4,3344.4,460.2,-0.6,237.9,545.1,-774.9,0,306,0,55,0, 
0.1733,427.8,-1194.9,244.5,-94.2,118.8,-143.4,31.2,158.1,-2148.9,854.1,-246.0,-528.3,-862.8,75.6,15.6,325.2,-7.2,-6.0,3337.2,462.3,-0.9,249.9,582.3,-702.3,0,312,0,56,0, 
0.1767,439.5,-1174.8,257.4,-87.6,117.0,-145.5,30.0,174.6,815.1,874.5,2272.2,1775.1,-694.5,370.8,3170.7,327.0,-6.9,-6.0,3369.9,456.9,-1.2,277.2,575.1,-694.5,0,318,0,57,0, 
0.1800,444.3,-1186.5,248.4,-85.8,113.7,-164.4,21.9,165.0,-4001.4,887.7,1181.1,996.6,-932.4,351.3,-1521.3,332.1,-6.9,-6.0,3344.7,459.6,-0.3,277.5,523.5,-743.1,0,324,0,58,0, 
0.1833,448.8,-1173.3,250.8,-91.2,111.6,-157.5,31.8,150.9,-9929.4,886.8,-2018.1,-1747.2,-1106.4,-15.3,-7515.9,338.4,-6.9,-6.0,3326.7,456.0,-1.2,261.6,561.3,-732.0,0,330,0,59,0, 
0.1867,447.6,-1167.3,250.5,-96.0,111.0,-162.3,26.4,142.8,-8817.9,881.1,-2873.7,-2618.7,-1056.9,-141.6,-6627.6,357.3,-6.9,-6.0,3333.0,450.6,-0.6,240.0,551.7,-723.6,0,336,0,60,0, 
0.1900,446.4,-1171.2,232.5,-111.0,93.0,-175.8,17.4,150.3,-2074.8,852.0,-386.4,-361.5,-760.5,117.6,10.5,356.7,-6.9,-5.7,3307.5,434.4,-0.9,209.7,540.3,-724.8,0,342,0,61,0, 
0.1933,444.0,-1175.1,234.9,-113.4,91.8,-171.3,28.2,156.9,889.2,842.1,2229.0,1994.1,-775.2,451.2,3147.6,349.5,-6.9,-5.7,3314.1,423.9,-0.6,213.6,592.2,-722.1,0,348,0,62,0, 
0.1967,456.6,-1144.5,244.8,-98.7,100.2,-146.1,28.5,159.9,-4001.4,859.5,1111.2,1236.0,-978.3,345.9,-1580.1,339.0,-7.2,-5.7,3318.9,439.2,-0.6,235.5,525.9,-663.3,0,354,0,63,0, 
0.2000,450.3,-1167.9,228.0,-108.9,90.3,-159.9,25.8,130.8,-9855.3,869.7,-2041.5,-1543.5,-1119.9,-10.5,-7563.6,340.5,-6.9,-6.0,3291.9,427.2,-0.9,234.3,567.0,-737.7,0,360,0,64,0, 
0.2033,450.9,-1167.3,227.4,-108.0,91.8,-165.3,13.2,127.2,-8817.9,848.7,-2814.6,-2397.6,-960.6,-152.1,-6668.7,340.8,-7.2,-5.4,3287.1,428.4,-0.9,232.2,522.9,-721.2,0,366,0,65,0, 
0.2067,451.5,-1164.6,246.6,-92.7,110.4,-140.7,31.5,151.5,-2148.9,880.8,518.1,431.7,-689.7,102.0,-49.2,316.5,-6.9,-6.0,3319.5,450.9,-0.6,252.0,592.8,-669.0,0,372,0,66,0, 
0.2100,461.7,-1138.5,247.8,-99.3,98.7,-133.5,39.9,161.4,741.0,875.4,2592.9,2459.7,-566.7,385.8,3151.2,365.7,-7.2,-5.7,3309.6,424.8,-0.9,199.8,586.2,-680.1,0,378,0,67,0, 
0.2133,429.6,-1165.2,246.6,-95.7,106.2,-103.2,45.0,156.9,-4149.6,885.9,1486.5,1608.9,-923.7,252.6,-1591.2,347.7,-7.2,-5.4,3298.2,421.2,-0.9,231.6,564.0,-662.7,0,384,0,68,0, 
0.2167,432.3,-1155.3,237.6,-91.8,114.0,-143.7,43.5,144.9,-10077.6,855.3,-1730.4,-1279.2,-1348.2,-44.1,-7647.3,357.6,-6.6,-6.0,3264.0,455.1,-0.9,271.5,577.5,-581.4,0,390,0,69,0, 
0.2200,447.0,-1134.6,249.0,-89.1,111.9,-144.0,32.7,147.6,-8817.9,841.5,-2534.7,-2225.7,-1074.0,-152.1,-6693.0,364.5,-7.2,-5.7,3281.4,432.3,-1.2,244.8,576.3,-696.6,0,396,0,70,0, 
0.2233,451.5,-1143.3,243.3,-88.8,105.6,-151.8,32.4,163.2,-2223.0,888.0,60.3,-11.7,-911.4,83.1,0.3,348.3,-6.3,-5.7,3293.7,444.0,-0.9,265.2,572.4,-759.0,0,402,0,71,0, 
0.2267,453.3,-1151.1,245.4,-93.0,99.0,-150.6,27.6,168.9,815.1,864.6,2403.9,2241.0,-677.4,409.2,3129.3,345.9,-7.2,-5.7,3300.3,448.5,-0.6,273.6,556.8,-709.2,0,408,0,72,0, 
0.2300,443.7,-1193.7,230.4,-100.8,97.2,-150.0,36.3,154.8,-4001.4,877.5,1347.9,1386.9,-863.1,357.0,-1542.6,349.8,-6.9,-5.7,3295.8,437.1,-0.6,257.7,571.8,-736.5,0,414,0,73,0, 
0.2333,439.2,-1184.1,238.8,-96.3,96.9,-154.5,23.4,137.1,-9929.4,905.4,-1882.2,-1589.7,-1056.9,-12.9,-7585.8,355.5,-6.6,-5.7,3294.0,438.6,-0.6,283.8,542.1,-737.7,0,420,0,74,0, 
0.2367,453.9,-1158.0,238.5,-97.8,99.3,-166.2,22.5,138.9,-8743.8,888.6,-2786.7,-2508.0,-1054.5,-144.3,-6650.4,349.5,-7.2,-6.0,3292.2,436.8,-0.6,276.3,569.4,-748.2,0,426,0,75,0, 
0.2400,444.3,-1169.7,240.6,-94.8,105.6,-138.3,36.6,154.8,-2223.0,879.0,-664.5,-585.3,-725.7,131.4,3.3,348.9,-6.9,-5.7,3322.5,445.8,-0.6,243.3,581.7,-713.7,0,432,0,76,0, 
0.2433,441.0,-1164.6,244.5,-88.5,106.2,-119.4,41.4,169.5,666.9,887.7,1823.7,1729.2,-673.2,444.9,3113.1,337.5,-7.2,-6.0,3329.4,450.6,-1.2,276.3,540.9,-612.9,0,438,0,77,0, 
0.2467,445.2,-1184.4,211.2,-116.1,75.9,-126.0,41.7,143.7,-4075.5,851.4,716.1,937.2,-928.8,384.6,-1568.7,351.9,-7.2,-5.7,3267.9,414.6,-0.6,226.2,606.9,-747.3,0,444,0,78,0, 
0.2500,450.6,-1158.0,227.1,-98.7,94.2,-140.7,30.9,136.2,-10003.5,861.3,-2367.0,-1957.5,-1023.3,-0.9,-7626.3,351.6,-7.5,-6.0,3277.5,445.8,-0.9,278.4,561.3,-728.1,0,450,0,79,0, 
0.2533,462.9,-1155.0,214.8,-112.8,82.8,-155.1,35.1,125.7,-8966.1,836.4,-3146.4,-2859.3,-941.7,-163.2,-6705.0,390.3,-6.6,-6.0,3259.8,427.8,-0.9,237.0,605.7,-732.9,0,456,0,80,0, 
0.2567,443.1,-1144.8,234.6,-104.1,93.6,-145.2,34.5,148.2,-2074.8,855.6,-471.6,-527.7,-777.9,85.5,-51.0,393.0,-6.9,-5.4,3291.0,424.2,-0.6,258.9,567.0,-730.2,0,462,0,81,0, 
0.2600,429.9,-1185.0,211.8,-115.8,82.8,-138.0,46.5,153.0,741.0,835.2,1877.4,1785.3,-779.7,393.3,3077.4,375.6,-6.9,-5.7,3278.4,417.6,-0.9,225.0,626.7,-662.4,0,468,0,82,0, 
0.2633,442.8,-1135.8,244.5,-83.7,111.3,-119.4,39.6,167.7,-4149.6,889.8,840.0,1076.4,-1019.1,303.6,-1594.8,319.8,-6.6,-5.7,3293.1,468.0,-0.6,283.5,550.2,-653.7,0,474,0,83,0, 
0.2667,437.1,-1132.5,246.0,-75.6,113.4,-120.0,40.8,156.6,-10003.5,874.8,-2222.7,-1602.6,-1145.4,-21.9,-7634.4,321.9,-6.9,-6.0,3281.1,473.4,-0.9,300.9,547.2,-678.9,0,480,0,84,0, 
0.2700,465.9,-1127.1,241.8,-89.1,94.2,-142.5,27.6,145.5,-8892.0,840.9,-3153.3,-2501.4,-992.1,-127.8,-6704.7,329.7,-6.9,-5.7,3283.5,440.1,-0.6,254.1,545.1,-722.7,0,486,0,85,0, 
0.2733,448.2,-1170.0,234.3,-93.6,97.5,-158.1,24.6,155.4,-2148.9,873.0,-464.1,-168.3,-723.6,98.7,-92.7,340.2,-6.6,-5.7,3292.2,429.0,-1.2,254.1,566.7,-798.3,0,492,0,86,0, 
0.2767,437.7,-1175.1,235.5,-90.0,105.6,-116.1,45.9,169.5,592.8,869.7,2048.7,2073.6,-810.9,369.0,3033.9,376.2,-7.2,-6.0,3296.1,442.2,-0.3,244.8,607.2,-672.0,0,498,0,87,0, 
0.2800,447.6,-1156.2,224.1,-96.0,102.3,-114.9,48.6,158.7,-4149.6,854.4,999.9,1257.6,-801.0,254.1,-1603.2,345.9,-6.6,-6.0,3252.3,447.0,-0.9,252.9,580.2,-672.6,0,504,0,88,0, 
0.2833,440.7,-1176.3,204.9,-109.2,92.1,-94.8,53.7,134.4,-10225.8,826.8,-2167.2,-1628.4,-1151.7,-63.9,-7728.9,351.9,-6.3,-6.0,3211.5,414.0,-0.6,249.6,589.2,-708.6,0,510,0,89,0, 
0.2867,454.8,-1149.6,226.2,-100.8,82.8,-177.0,18.3,134.7,-8743.8,891.3,-3001.8,-2506.5,-1020.6,-133.5,-6738.0,351.9,-6.9,-6.0,3252.3,436.5,-0.3,247.8,551.7,-766.5,0,516,0,90,0, 
0.2900,441.9,-1153.8,236.4,-96.3,84.3,-145.8,34.5,153.9,-2297.1,838.5,-346.8,-266.4,-789.0,122.1,-125.7,387.3,-6.9,-6.3,3278.1,426.9,-0.3,217.8,574.2,-701.1,0,522,0,91,0, 
0.2933,436.8,-1161.9,239.4,-77.1,98.7,-129.9,38.7,181.8,666.9,908.7,2080.5,2029.5,-827.1,393.0,3015.6,317.1,-6.9,-5.7,3299.4,445.2,-0.9,248.1,535.5,-690.9,0,528,0,92,0, 
0.2967,448.2,-1168.8,235.5,-78.9,101.7,-155.4,36.6,172.5,-4149.6,906.0,1021.2,1255.5,-863.1,367.2,-1593.9,334.2,-7.2,-5.7,3293.1,454.2,-0.9,268.5,564.3,-747.9,0,534,0,93,0, 
0.3000,450.0,-1182.0,210.9,-106.2,85.8,-171.6,23.7,140.4,-10151.7,858.9,-2142.9,-1608.0,-1030.8,15.9,-7703.4,350.4,-6.9,-6.0,3232.5,445.5,-0.3,273.9,553.8,-760.2,0,540,0,94,0, 
0.3033,449.4,-1158.6,223.2,-96.3,95.4,-148.8,33.6,143.1,-8892.0,884.7,-2991.0,-2560.8,-954.6,-130.8,-6801.9,349.2,-7.2,-6.0,3240.0,450.0,-0.9,267.6,546.9,-699.0,0,546,0,95,0, 
0.3067,474.0,-1125.6,229.8,-95.7,85.8,-154.2,29.1,163.5,-2297.1,876.3,-351.9,-289.8,-708.6,114.0,-217.8,347.1,-7.2,-6.0,3262.8,443.7,-0.9,253.8,575.1,-707.7,0,552,0,96,0, 
0.3100,456.9,-1124.1,228.9,-102.6,76.2,-149.4,39.9,171.0,592.8,858.0,2052.9,1889.4,-799.8,368.1,2937.6,362.7,-7.2,-5.7,3256.2,442.8,-0.9,273.6,620.7,-768.6,0,558,0,97,0, 
0.3133,457.2,-1149.9,221.7,-101.1,81.6,-146.1,37.8,163.2,-4297.8,869.7,974.7,962.1,-839.7,278.1,-1734.3,347.1,-6.9,-6.6,3230.1,435.6,-0.9,249.0,587.1,-721.5,0,564,0,98,0, 
0.3167,442.8,-1173.6,211.2,-104.7,84.0,-145.5,37.5,141.0,-10225.8,851.4,-2140.8,-1930.8,-1110.9,-34.5,-7844.1,357.3,-6.6,-5.7,3207.0,438.3,-0.6,245.1,554.1,-711.9,0,570,0,99,0, 
0.3200,430.8,-1184.1,218.7,-103.8,84.0,-141.6,37.5,135.9,-9040.2,866.1,-3025.5,-2900.7,-1036.5,-176.4,-6912.9,350.1,-6.9,-6.0,3225.0,438.9,-0.9,244.2,561.0,-696.3,0,576,0,100,0, 
0.3233,429.0,-1180.8,208.2,-117.0,63.3,-158.1,30.6,140.1,-2371.2,857.7,-471.3,-644.4,-772.5,117.0,-294.0,378.3,-7.2,-5.7,3219.3,418.2,-1.2,222.9,585.9,-768.3,0,582,0,101,0, 
0.3267,439.5,-1177.2,207.9,-115.8,64.5,-126.6,44.1,153.6,592.8,862.8,2008.8,1691.7,-685.2,399.0,2937.0,372.3,-6.9,-6.0,3231.9,412.8,-0.6,228.3,602.7,-770.4,0,588,0,102,0, 
0.3300,450.0,-1154.7,221.1,-104.1,84.3,-123.6,44.7,155.4,-4297.8,880.5,855.9,839.1,-903.0,305.7,-1797.6,339.6,-6.9,-6.0,3224.7,448.8,-0.9,281.7,582.9,-720.6,0,594,0,103,0, 
0.3333,447.6,-1157.1,225.3,-105.0,87.0,-157.5,32.1,138.3,-10374.0,856.2,-2331.9,-2048.7,-1123.2,-39.9,-7881.3,318.9,-6.9,-6.3,3206.1,457.2,-0.9,257.7,534.9,-687.3,0,600,0,104,0, 
0.3367,442.8,-1166.1,213.3,-111.0,90.0,-133.8,24.6,135.3,-8966.1,854.7,-3244.5,-3074.4,-1081.2,-171.0,-6983.7,342.3,-6.9,-5.7,3192.6,435.6,-0.9,267.9,544.8,-695.4,0,606,0,105,0, 
0.3400,461.7,-1146.0,205.8,-122.4,78.6,-144.3,23.4,148.8,-2519.4,838.5,-747.9,-894.9,-788.7,91.2,-431.4,340.5,-6.9,-5.7,3175.5,437.4,-0.3,226.2,532.5,-675.6,0,612,0,106,0, 
0.3433,442.2,-1177.5,174.3,-141.6,57.9,-146.1,37.5,151.5,370.5,800.4,1817.7,1486.2,-722.7,396.3,2867.7,369.9,-6.9,-5.7,3134.4,407.4,-0.9,214.8,605.7,-704.4,0,618,0,107,0, 
0.3467,444.9,-1160.7,207.3,-126.6,66.9,-123.9,44.7,149.4,-4371.9,861.3,683.4,554.4,-1024.8,328.2,-1794.9,375.0,-6.9,-6.0,3183.9,412.8,-0.9,211.5,568.8,-611.1,0,624,0,108,0, 
0.3500,466.2,-1138.8,229.8,-102.3,78.9,-143.7,23.1,145.8,-10151.7,894.6,-2411.4,-2266.5,-981.0,5.1,-7811.1,332.1,-7.2,-6.0,3215.1,449.4,-0.6,266.4,542.1,-789.9,0,630,0,109,0, 
0.3533,452.7,-1170.0,231.9,-97.2,86.7,-112.8,52.5,146.4,-8892.0,874.5,-3256.2,-3211.5,-930.6,-144.6,-6887.1,356.7,-7.2,-6.0,3223.5,460.5,-0.6,268.5,593.1,-745.5,0,636,0,110,0, 
0.3567,463.8,-1133.4,241.2,-101.7,79.5,-145.5,36.0,162.6,-2445.3,925.2,-670.8,-944.1,-717.6,70.5,-276.6,336.9,-7.2,-5.7,3243.6,441.3,-1.2,255.6,546.3,-778.8,0,642,0,111,0, 
0.3600,463.8,-1128.9,238.5,-102.9,71.7,-158.7,24.9,175.5,815.1,880.2,1771.5,1412.1,-813.3,437.1,3019.2,334.2,-6.9,-6.0,3226.5,448.8,-0.9,253.8,548.4,-795.9,0,648,0,112,0, 
0.3633,445.2,-1139.1,247.2,-96.6,81.6,-134.7,42.6,163.8,-4223.7,879.0,765.9,667.5,-927.6,284.7,-1672.5,348.6,-7.2,-6.0,3242.1,444.6,-0.9,248.1,585.6,-769.8,0,654,0,113,0, 
0.3667,429.3,-1164.6,237.9,-103.5,81.6,-112.8,50.7,143.7,-10151.7,870.3,-2473.5,-2220.9,-1107.0,-24.9,-7722.3,365.1,-6.6,-5.7,3217.2,437.4,-0.9,249.0,609.6,-735.0,0,660,0,114,0, 
0.3700,438.6,-1152.9,233.4,-111.6,73.8,-148.5,37.8,139.5,-8892.0,854.4,-3275.7,-3115.8,-961.8,-159.3,-6820.8,362.1,-6.9,-6.0,3195.3,423.6,-0.6,254.1,579.6,-675.0,0,666,0,115,0, 
0.3733,462.0,-1169.7,230.1,-102.9,83.1,-137.1,31.8,160.8,-2371.2,846.3,-668.7,-855.6,-678.3,165.3,-210.6,322.5,-6.9,-6.3,3199.5,432.9,-0.9,243.0,538.2,-674.1,0,672,0,116,0, 
0.3767,444.0,-1178.7,237.6,-100.8,83.7,-141.3,35.4,168.6,666.9,878.7,1806.6,1523.7,-651.3,406.2,3065.1,335.4,-6.9,-5.7,3226.2,432.6,-0.6,273.3,567.9,-663.9,0,678,0,117,0, 
0.3800,454.5,-1147.8,237.6,-105.6,69.6,-152.1,29.7,161.7,-4149.6,880.8,685.8,640.2,-939.6,358.8,-1651.8,345.3,-6.9,-6.0,3206.7,405.3,-1.2,226.8,531.0,-717.6,0,684,0,118,0, 
0.3833,451.8,-1137.0,232.8,-108.9,60.9,-153.0,38.7,146.1,-10077.6,863.4,-2366.1,-2212.5,-1153.5,-5.1,-7711.8,333.9,-6.9,-5.4,3183.9,393.6,-0.6,241.2,581.1,-705.0,0,690,0,119,0, 
0.3867,448.2,-1175.4,213.0,-128.7,53.7,-144.3,47.7,133.2,-8817.9,817.8,-3231.0,-3128.7,-1066.2,-129.0,-6860.7,358.5,-6.9,-5.7,3149.4,393.0,-0.6,222.9,612.3,-692.7,0,696,0,120,0, 
0.3900,468.6,-1143.0,239.7,-112.5,60.9,-162.9,32.7,158.7,-2445.3,853.8,-562.5,-885.6,-781.2,86.7,-260.7,343.8,-6.9,-5.7,3193.8,415.8,-0.9,216.6,580.8,-738.9,0,702,0,121,0, 
0.3933,479.1,-1127.1,254.7,-106.2,76.8,-135.0,37.8,176.1,592.8,863.7,1843.5,1401.0,-671.4,407.7,3014.1,343.5,-7.2,-5.7,3212.1,403.5,-0.9,195.3,582.6,-741.6,0,708,0,122,0, 
0.3967,445.8,-1161.6,247.8,-107.4,80.7,-138.6,55.2,163.8,-4371.9,861.6,689.7,486.3,-978.0,285.0,-1732.8,336.6,-6.6,-6.3,3201.9,401.4,-0.3,215.7,602.7,-803.1,0,714,0,123,0, 
0.4000,459.6,-1152.9,263.1,-93.6,81.3,-175.2,23.4,154.5,-10151.7,882.3,-2529.9,-2345.4,-1005.9,36.6,-7779.3,330.6,-6.9,-5.7,3201.3,430.8,-0.9,253.5,521.4,-729.6,0,720,0,124,0, 
0.4033,458.7,-1155.0,280.5,-88.2,88.2,-161.1,28.8,156.9,-9040.2,888.9,-3401.1,-3315.9,-967.5,-155.4,-7011.6,342.3,-7.2,-6.0,3207.6,431.4,-1.2,242.7,544.2,-738.9,0,726,0,125,0, 
0.4067,463.2,-1148.7,292.5,-86.7,89.7,-174.6,28.8,173.7,-2371.2,877.5,-813.0,-1080.9,-700.2,110.4,-350.7,344.1,-7.2,-5.7,3216.6,423.0,-0.6,257.7,529.8,-740.1,0,732,0,126,0, 
0.4100,462.3,-1155.9,287.1,-84.0,90.3,-151.2,36.3,183.0,592.8,889.8,1687.2,1209.3,-728.7,458.1,2938.5,332.1,-7.2,-6.0,3206.1,423.0,-0.9,256.2,581.7,-695.1,0,738,0,127,0, 
0.4133,456.3,-1157.1,282.0,-93.3,78.6,-157.5,35.4,169.8,-4075.5,893.7,552.9,372.3,-907.5,349.8,-1695.0,370.8,-7.5,-5.7,3193.5,415.2,-0.9,232.2,581.7,-694.8,0,744,0,128,0, 
0.4167,465.6,-1146.9,269.1,-100.2,66.3,-169.8,37.5,146.1,-10077.6,887.4,-2625.3,-2436.3,-1002.3,20.1,-7750.8,360.0,-7.2,-5.7,3163.8,423.6,-0.6,232.8,591.6,-743.1,0,750,0,129,0, 
0.4200,462.3,-1139.7,284.1,-90.9,89.4,-143.7,45.0,154.5,-9040.2,883.5,-3602.1,-3465.3,-1012.8,-184.5,-6969.0,354.6,-6.6,-5.4,3177.6,415.2,-0.6,247.2,553.8,-653.4,0,756,0,130,0, 
0.4233,445.8,-1138.2,292.2,-83.4,94.5,-133.2,41.4,174.3,-2371.2,889.8,-1002.9,-1113.0,-865.5,87.6,-302.4,325.5,-7.2,-6.0,3192.9,423.9,-0.6,236.4,553.5,-618.9,0,762,0,131,0, 
0.4267,457.2,-1119.9,282.9,-97.8,74.1,-166.2,32.1,179.7,592.8,866.7,1376.4,1231.5,-894.0,433.2,2933.1,350.1,-6.6,-5.7,3182.1,422.4,-0.6,248.7,570.6,-727.2,0,768,0,132,0, 
0.4300,459.3,-1140.0,275.7,-99.0,68.7,-167.1,35.7,170.4,-4297.8,892.2,359.4,463.8,-908.4,333.0,-1697.1,341.4,-7.2,-5.7,3161.4,422.7,-0.6,264.9,561.6,-733.2,0,774,0,133,0, 
0.4333,451.8,-1159.2,276.9,-96.3,77.1,-131.7,43.8,150.6,-9929.4,879.3,-2810.4,-2484.3,-1122.6,-9.3,-7759.8,352.8,-6.9,-5.7,3157.2,432.0,-0.6,266.4,559.8,-685.2,0,780,0,134,0, 
0.4367,468.0,-1146.0,270.0,-109.5,59.7,-135.9,48.9,142.5,-8966.1,852.0,-3738.3,-3396.3,-938.7,-134.1,-6917.4,324.0,-7.2,-6.0,3134.4,402.9,-0.9,237.6,629.1,-720.9,0,786,0,135,0, 
0.4400,443.7,-1174.2,274.5,-97.8,69.6,-126.6,39.9,163.5,-2223.0,867.3,-1160.4,-1078.8,-760.5,110.1,-238.5,360.9,-7.2,-5.7,3141.6,414.6,-0.6,237.3,561.6,-644.1,0,792,0,136,0, 
0.4433,450.6,-1174.5,282.9,-89.1,78.0,-155.7,38.4,179.1,592.8,890.4,1404.6,1265.1,-718.2,430.5,3012.0,345.9,-6.6,-6.0,3150.0,436.5,-0.3,248.1,562.2,-630.0,0,798,0,137,0, 
0.4467,458.7,-1152.3,293.1,-94.5,61.8,-200.7,26.1,163.2,-4075.5,869.4,307.2,372.9,-803.4,388.5,-1573.5,324.0,-6.9,-6.0,3147.0,417.0,-1.2,251.4,558.0,-747.3,0,804,0,138,0, 
0.4500,449.1,-1185.6,277.5,-105.6,53.7,-195.9,21.3,131.7,-9929.4,883.5,-2825.4,-2508.9,-1067.4,46.8,-7659.6,357.9,-7.2,-5.7,3116.1,405.0,-1.2,223.2,543.9,-760.8,0,810,0,139,0, 
0.4533,461.7,-1174.8,273.3,-115.2,37.5,-195.6,19.5,123.0,-9040.2,855.0,-3750.6,-3548.4,-952.5,-102.9,-6889.5,357.6,-6.9,-5.7,3105.6,382.8,-0.6,210.3,551.4,-749.4,0,816,0,140,0, 
0.4567,458.7,-1183.2,273.0,-118.8,35.7,-190.8,21.0,133.8,-2445.3,875.7,-1071.6,-1275.0,-723.9,134.7,-237.0,353.7,-6.9,-6.0,3122.4,366.6,-0.9,171.0,545.4,-749.1,0,822,0,141,0, 
0.4600,477.0,-1120.2,298.2,-103.2,54.6,-175.5,12.3,158.1,666.9,876.3,1368.6,1123.8,-615.3,365.7,2972.7,327.0,-7.5,-5.4,3153.9,387.3,-0.9,214.8,537.3,-702.6,0,828,0,142,0, 
0.4633,470.4,-1132.5,270.6,-117.3,52.5,-176.1,29.1,145.8,-4075.5,838.8,253.8,317.1,-1050.0,302.7,-1680.0,318.3,-7.2,-6.0,3100.2,387.6,-0.6,218.7,583.5,-698.4,0,834,0,143,0, 
0.4667,466.8,-1113.3,276.3,-106.5,61.8,-162.3,37.5,138.3,-10151.7,813.3,-2970.3,-2644.5,-1368.3,-80.1,-7782.9,315.0,-6.9,-5.4,3081.6,416.4,-0.6,244.5,579.0,-708.0,0,840,0,144,0, 
0.4700,449.7,-1146.6,272.7,-104.4,70.2,-171.6,28.8,138.9,-9114.3,849.9,-3880.8,-3714.0,-1223.4,-167.4,-6925.2,328.2,-7.2,-6.3,3096.6,416.1,-0.9,245.1,519.9,-682.8,0,846,0,145,0, 
0.4733,445.8,-1163.1,280.2,-104.7,66.6,-180.0,24.0,154.2,-2297.1,886.8,-1036.2,-1257.0,-689.4,107.7,-258.3,355.5,-6.9,-5.7,3121.8,416.4,-0.9,269.7,556.2,-778.8,0,852,0,146,0, 
0.4767,464.7,-1179.0,272.4,-110.7,57.3,-175.5,36.0,163.5,592.8,882.0,2200.5,1550.1,-595.8,453.6,2958.9,355.2,-7.2,-5.7,3134.1,397.5,-0.9,238.5,620.4,-734.1,0,858,0,147,0, 
0.4800,437.4,-1219.8,255.0,-113.7,54.6,-173.4,30.0,148.8,-4149.6,880.5,776.4,509.7,-822.3,359.7,-1584.3,372.0,-6.9,-5.7,3107.4,404.1,-0.9,239.1,569.1,-713.7,0,864,0,148,0, 
0.4833,448.5,-1198.2,259.8,-111.9,54.0,-176.1,31.2,133.2,-9929.4,864.3,-2487.9,-2423.1,-1006.5,39.9,-7721.4,375.0,-6.6,-6.0,3084.9,398.4,-0.6,200.1,560.1,-707.4,0,870,0,149,0, 
0.4867,450.0,-1188.6,262.5,-111.6,58.8,-157.5,45.0,134.7,-8892.0,875.4,-3513.9,-3539.7,-931.2,-133.2,-6878.1,330.3,-6.6,-5.7,3081.9,387.0,-1.2,232.5,607.5,-680.1,0,876,0,150,0, 
0.4900,449.4,-1189.8,273.6,-105.9,75.0,-117.9,36.3,151.2,-2371.2,850.5,-824.7,-1339.5,-774.6,130.8,-210.9,342.6,-6.6,-6.0,3099.3,391.8,-0.6,214.2,529.2,-627.9,0,882,0,151,0, 
0.4933,457.2,-1141.2,305.7,-85.2,85.5,-197.4,16.2,168.9,889.2,911.1,1690.2,1140.9,-715.2,405.3,3058.2,351.0,-6.6,-5.7,3146.1,421.5,-0.6,233.4,526.8,-687.9,0,888,0,152,0, 
0.4967,460.2,-1130.4,293.1,-94.2,68.1,-204.0,23.4,156.3,-4075.5,866.4,499.8,288.0,-974.4,384.9,-1580.1,351.6,-7.2,-6.0,3113.7,419.7,-0.9,244.2,548.7,-757.2,0,894,0,153,0, 
0.5000,454.5,-1160.4,282.0,-97.5,73.2,-171.9,35.4,142.8,-10003.5,871.2,-2655.9,-2541.3,-1085.4,26.7,-7730.4,357.3,-6.6,-6.0,3090.0,419.4,-0.9,250.8,587.1,-708.0,0,900,0,154,0, 
0.5033,455.7,-1171.2,277.2,-99.6,68.4,-169.8,34.5,135.6,-8743.8,849.9,-3620.4,-3603.9,-925.8,-129.9,-6882.0,345.9,-7.2,-5.7,3080.4,410.4,-1.2,233.1,606.9,-698.4,0,906,0,155,0, 
0.5067,454.5,-1164.0,280.2,-95.4,76.2,-181.8,25.5,159.3,-2223.0,848.4,-807.9,-1228.5,-794.7,129.6,-226.8,345.6,-6.9,-5.7,3080.1,431.1,-0.9,238.2,555.0,-716.7,0,912,0,156,0, 
0.5100,442.8,-1176.0,270.0,-104.1,75.9,-171.9,27.6,164.7,741.0,857.7,1650.9,1040.1,-767.7,450.0,3021.3,333.9,-6.9,-5.7,3086.1,419.4,-0.6,244.2,576.6,-709.2,0,918,0,157,0, 
0.5133,447.9,-1170.0,276.9,-99.9,71.4,-183.3,29.4,158.4,-4149.6,877.2,706.2,279.9,-985.5,368.7,-1659.0,352.8,-6.6,-6.0,3084.6,421.8,-0.3,237.6,580.2,-744.3,0,924,0,158,0, 
0.5167,446.7,-1160.4,279.0,-105.0,67.2,-165.6,35.7,136.2,-10003.5,867.0,-2821.8,-2817.3,-1127.7,20.4,-7752.6,335.7,-6.9,-6.3,3070.8,412.5,-0.9,239.7,563.1,-722.1,0,930,0,159,0, 
0.5200,464.1,-1149.0,279.3,-108.3,56.7,-170.4,29.4,137.7,-8966.1,875.4,-4087.8,-4051.2,-953.7,-107.1,-6881.1,334.5,-6.9,-5.7,3072.6,403.2,-0.6,225.3,538.2,-736.5,0,936,0,160,0, 
0.5233,468.3,-1116.6,287.7,-106.8,47.4,-183.0,25.2,154.5,-2445.3,864.9,-1160.4,-1652.1,-777.6,82.2,-268.5,335.1,-6.9,-6.3,3091.8,396.0,-1.2,225.3,567.6,-729.9,0,942,0,161,0, 
0.5267,467.4,-1134.3,286.8,-101.1,61.5,-162.3,31.2,170.7,592.8,847.2,1557.0,804.3,-699.6,408.9,2988.6,351.9,-6.9,-6.0,3097.5,417.0,-0.3,229.8,569.7,-669.3,0,948,0,162,0, 
0.5300,441.9,-1161.0,262.5,-114.3,54.6,-163.8,49.5,151.2,-4001.4,831.0,565.2,26.4,-1091.1,304.2,-1704.3,399.3,-7.2,-6.3,3058.8,398.4,-0.6,228.6,670.8,-698.4,0,954,0,163,0, 
0.5333,445.8,-1140.6,282.3,-93.9,64.2,-181.5,27.6,144.9,-10151.7,858.0,-2520.3,-2724.6,-1160.1,-8.4,-7831.5,352.5,-6.9,-6.0,3063.6,421.5,-0.9,222.3,552.9,-738.6,0,960,0,164,0, 
0.5367,445.5,-1164.0,267.0,-106.5,57.3,-168.6,37.2,129.0,-8966.1,853.8,-3397.5,-3644.4,-1061.7,-129.6,-6903.3,352.5,-6.6,-5.7,3048.3,417.9,-0.9,227.1,591.3,-704.4,0,966,0,165,0, 
0.5400,459.9,-1160.1,277.8,-106.8,58.8,-170.7,30.6,146.4,-2297.1,861.0,-604.5,-1310.4,-743.7,167.4,-217.2,331.5,-7.2,-6.0,3066.9,414.3,-0.9,244.2,544.8,-672.3,0,972,0,166,0, 
0.5433,456.3,-1184.1,278.4,-100.8,69.3,-162.6,31.5,163.5,815.1,842.1,1923.9,1097.7,-655.2,483.6,3091.2,334.2,-6.3,-5.7,3076.2,428.1,-0.9,229.2,531.0,-630.6,0,978,0,167,0, 
0.5467,448.2,-1167.6,279.3,-96.0,65.7,-178.8,28.8,156.0,-4149.6,899.4,951.3,329.4,-909.3,391.5,-1591.5,329.4,-7.2,-5.7,3062.1,419.1,-0.9,225.0,547.2,-702.9,0,984,0,168,0, 
0.5500,450.0,-1173.3,267.6,-110.7,56.1,-169.8,39.0,132.6,-10151.7,846.0,-2355.9,-2545.2,-1104.6,0.0,-7851.0,339.0,-6.9,-5.7,3025.5,411.9,-1.2,221.4,579.0,-674.7,0,990,0,169,0, 
0.5533,439.8,-1163.4,286.8,-94.8,72.3,-158.4,40.8,144.6,-8966.1,888.0,-3117.3,-3513.3,-1026.0,-177.3,-6994.8,324.0,-7.2,-6.3,3041.7,422.1,-0.6,252.9,545.4,-658.2,0,996,0,170,0, 
0.5567,440.7,-1172.4,279.9,-104.4,57.6,-184.2,29.4,150.3,-2445.3,841.2,-448.2,-1180.5,-758.7,127.5,-327.0,340.5,-7.2,-5.7,3032.7,409.5,-0.6,239.7,548.7,-765.0,0,1002,0,171,0, 
0.5600,452.4,-1172.1,289.8,-98.1,66.3,-184.8,30.3,166.8,815.1,883.8,2167.8,1295.7,-729.9,464.4,2994.9,331.8,-7.2,-5.7,3051.6,433.8,-0.6,249.9,555.3,-787.2,0,1008,0,172,0, 
0.5633,462.0,-1154.1,281.7,-107.7,55.5,-169.8,33.0,149.7,-4223.7,862.2,1032.0,486.3,-924.9,405.0,-1656.3,335.7,-6.6,-6.3,3033.3,418.5,-0.3,227.1,586.8,-746.7,0,1014,0,173,0, 
0.5667,466.8,-1134.9,289.5,-99.3,64.2,-166.2,24.9,141.0,-10225.8,860.1,-2106.3,-2291.1,-1073.4,16.2,-7834.5,345.6,-6.6,-5.7,3018.3,419.1,-0.6,231.6,561.6,-757.8,0,1020,0,174,0, 
0.5700,460.5,-1130.4,301.5,-88.5,76.2,-187.5,37.8,139.8,-9040.2,876.0,-2945.7,-3206.7,-993.3,-173.4,-6953.1,337.5,-6.9,-6.0,3027.9,436.8,-0.9,238.8,600.3,-674.4,0,1026,0,175,0, 
0.5733,472.8,-1139.7,277.2,-115.8,54.6,-180.3,27.3,139.2,-2371.2,827.1,-234.9,-839.4,-847.2,156.9,-332.7,352.5,-7.2,-6.3,2996.4,398.4,-0.6,212.1,586.8,-669.3,0,1032,0,176,0, 
0.5767,464.4,-1140.9,273.3,-117.6,55.5,-180.0,30.9,156.6,666.9,838.5,2320.8,1507.5,-756.3,420.6,3015.3,357.0,-7.2,-5.7,2991.0,402.0,-0.9,207.9,556.2,-671.1,0,1038,0,177,0, 
0.5800,457.8,-1123.2,293.4,-102.3,67.2,-177.9,29.4,157.5,-4075.5,880.8,1343.7,844.8,-1066.8,318.9,-1687.8,321.6,-6.9,-5.7,3001.5,429.0,-0.6,267.3,534.6,-735.0,0,1044,0,178,0, 
0.5833,451.2,-1119.6,292.5,-99.0,74.7,-168.0,39.0,141.3,-10151.7,857.7,-1841.7,-2099.7,-1211.1,-42.0,-7837.5,325.8,-6.9,-5.7,3003.3,438.6,-0.6,265.8,590.4,-725.7,0,1050,0,179,0, 
0.5867,445.2,-1169.1,297.3,-90.6,83.1,-168.9,39.9,143.7,-9040.2,879.0,-2704.5,-3010.5,-995.4,-129.3,-6933.9,343.8,-7.2,-5.7,3024.0,441.6,0.0,252.6,573.9,-743.7,0,1056,0,180,0, 
0.5900,444.3,-1180.2,285.9,-96.3,78.0,-157.8,49.2,156.6,-2371.2,866.4,-77.7,-671.7,-738.0,134.1,-269.1,340.2,-7.2,-6.0,3012.9,427.2,-0.6,230.1,604.2,-710.1,0,1062,0,181,0, 
0.5933,457.5,-1159.8,293.7,-91.2,85.2,-162.6,44.1,175.2,889.2,868.2,2505.3,1749.0,-647.1,474.3,3085.5,334.5,-6.9,-5.7,3034.5,432.3,-0.9,248.1,585.9,-716.4,0,1068,0,182,0, 
0.5967,462.9,-1172.7,288.3,-91.2,87.9,-146.4,47.7,169.2,-4075.5,883.8,1443.6,915.9,-845.7,367.8,-1577.7,347.4,-7.2,-5.7,3025.2,421.8,-0.9,228.6,581.4,-654.9,0,1074,0,183,0, 
0.6000,455.1,-1161.9,282.9,-94.8,76.5,-156.9,35.7,151.8,-10003.5,849.9,-1657.8,-1779.9,-1065.6,0.3,-7702.8,335.4,-6.6,-6.3,2992.8,444.3,-0.6,252.3,525.9,-695.1,0,1080,0,184,0, 
0.6033,451.2,-1149.9,294.3,-98.4,78.9,-153.6,42.3,144.9,-8966.1,895.8,-2481.6,-2773.8,-949.2,-120.3,-6854.1,345.6,-7.2,-5.7,3008.1,441.3,-0.9,247.5,578.4,-708.0,0,1086,0,185,0, 
0.6067,459.3,-1137.0,295.5,-95.4,82.2,-168.6,33.6,163.8,-2223.0,875.4,172.8,-434.1,-695.4,152.1,-207.3,330.3,-6.9,-5.4,3013.8,444.3,-0.9,232.8,542.4,-719.1,0,1092,0,186,0, 
0.6100,451.5,-1168.2,280.2,-105.6,81.3,-150.6,40.5,170.1,889.2,868.2,2753.4,1990.2,-762.6,488.1,3132.3,334.2,-6.9,-5.7,3005.7,431.4,-0.6,234.6,569.4,-655.2,0,1098,0,187,0, 
0.6133,452.7,-1159.2,268.2,-109.2,71.1,-151.2,40.5,156.6,-4001.4,833.4,1798.5,1293.9,-952.5,385.2,-1541.4,332.4,-7.2,-5.4,2979.6,420.3,-0.9,211.5,577.5,-677.1,0,1104,0,188,0, 
0.6167,459.0,-1114.8,282.3,-107.4,60.6,-201.9,28.2,136.5,-9855.3,810.9,-1538.4,-1525.8,-1272.3,5.1,-7695.0,351.9,-7.2,-5.7,2972.7,411.9,-0.6,222.6,572.1,-840.9,0,1110,0,189,0, 
0.6200,462.6,-1124.7,280.2,-106.2,62.4,-173.1,37.2,135.9,-9040.2,851.1,-2453.4,-2415.6,-1176.6,-121.2,-6906.6,330.9,-6.6,-6.3,2981.4,420.9,-0.6,239.1,572.4,-760.8,0,1116,0,190,0, 
0.6233,453.6,-1154.7,270.6,-113.4,61.8,-175.2,32.1,144.9,-2223.0,846.6,205.5,-125.1,-819.6,161.4,-225.0,365.1,-6.9,-6.0,2982.9,430.5,-0.9,236.1,564.6,-736.5,0,1122,0,191,0, 
0.6267,452.1,-1170.9,262.2,-117.6,55.5,-171.6,42.3,155.4,666.9,852.6,2792.7,2239.8,-707.4,467.4,3084.0,373.2,-6.6,-6.0,2975.7,417.6,-1.5,243.6,604.5,-731.7,0,1128,0,192,0, 
0.6300,453.9,-1169.1,255.9,-120.3,46.2,-175.5,26.4,142.8,-4001.4,862.2,1729.8,1363.5,-916.5,417.3,-1601.4,330.3,-6.9,-5.7,2964.6,406.5,-0.9,210.9,541.2,-766.2,0,1134,0,193,0, 
0.6333,469.8,-1147.2,274.8,-112.5,50.7,-173.4,21.0,135.3,-10151.7,866.7,-1430.7,-1409.7,-1038.3,88.2,-7767.6,321.9,-7.5,-6.3,2965.8,397.2,-1.2,194.4,538.2,-744.6,0,1140,0,194,0, 
0.6367,443.1,-1167.0,282.6,-91.2,73.2,-162.9,33.6,144.6,-8966.1,859.5,-2388.9,-2382.3,-976.8,-120.3,-7001.7,342.0,-7.2,-6.0,2965.2,435.0,-0.3,224.7,555.6,-744.6,0,1146,0,195,0, 
0.6400,454.5,-1148.1,295.2,-89.7,83.1,-136.5,40.5,166.2,-2371.2,861.9,257.1,-7.8,-687.3,141.0,-309.3,330.9,-7.2,-5.7,2979.6,449.4,-0.9,216.0,564.0,-636.3,0,1152,0,196,0, 
0.6433,461.1,-1140.9,294.6,-93.9,69.0,-150.3,42.3,175.8,815.1,866.4,2864.1,2378.1,-679.2,436.2,2991.9,323.4,-6.9,-5.7,2977.5,427.5,-0.3,191.1,579.9,-663.0,0,1158,0,197,0, 
0.6467,449.1,-1136.4,298.2,-79.5,78.3,-146.4,50.4,176.1,-4149.6,846.0,1768.2,1625.1,-960.6,305.4,-1691.1,299.7,-6.9,-5.7,2966.1,438.6,-0.9,236.4,623.4,-695.7,0,1164,0,198,0, 
0.6500,440.1,-1147.2,298.2,-80.4,82.5,-162.6,29.1,156.0,-10003.5,860.7,-1383.0,-1155.9,-1218.9,9.3,-7826.4,316.8,-6.9,-5.7,2964.0,447.0,-0.6,241.2,517.2,-741.6,0,1170,0,199,0, 
0.6533,441.3,-1162.5,279.3,-89.1,81.9,-145.2,40.8,149.4,-9040.2,858.6,-2291.1,-2214.6,-1021.2,-115.8,-7018.5,341.1,-6.3,-5.7,2944.8,435.9,-1.2,232.8,549.9,-636.9,0,1176,0,200,0, 
0.6567,451.5,-1166.1,270.3,-97.2,66.6,-158.1,34.8,160.5,-2371.2,861.9,462.6,17.7,-723.0,180.0,-317.1,331.2,-6.9,-5.7,2943.0,411.0,-0.6,234.3,542.1,-704.4,0,1182,0,201,0, 
0.6600,461.1,-1147.2,264.9,-105.0,51.3,-161.4,42.0,168.9,666.9,864.0,2990.4,2402.4,-765.9,464.7,2989.2,357.0,-6.9,-5.7,2944.5,421.2,-0.9,229.5,582.6,-726.3,0,1188,0,202,0, 
0.6633,476.7,-1110.3,276.3,-95.1,59.1,-180.6,30.3,164.7,-4223.7,830.7,1921.2,1613.4,-1087.2,363.6,-1663.8,353.4,-6.9,-6.0,2949.6,435.6,-0.6,235.2,551.4,-840.9,0,1194,0,203,0, 
0.6667,447.3,-1142.1,276.9,-85.8,69.9,-163.5,39.0,148.5,-10299.9,867.6,-1311.9,-1182.0,-1126.8,8.1,-7774.5,343.8,-6.9,-6.0,2946.3,437.1,-0.6,253.2,566.7,-775.8,0,1200,0,204,0, 
0.6700,444.3,-1163.7,268.2,-94.2,66.0,-161.4,31.2,141.0,-9040.2,864.3,-2158.2,-2242.8,-970.8,-124.8,-7027.8,345.3,-6.9,-5.4,2927.4,433.8,-0.6,262.5,565.5,-782.7,0,1206,0,205,0, 
0.6733,433.8,-1188.9,257.4,-106.5,58.8,-164.1,33.0,142.5,-2519.4,838.8,471.3,132.3,-760.5,144.3,-357.9,349.5,-6.9,-5.7,2929.8,420.6,-0.9,227.4,576.3,-750.0,0,1212,0,206,0, 
0.6767,448.2,-1151.7,271.8,-102.3,56.7,-161.4,33.3,165.0,592.8,855.6,2965.2,2429.1,-777.6,459.6,2928.9,322.8,-7.2,-5.4,2934.0,417.9,-1.2,220.8,551.4,-732.6,0,1218,0,207,0, 
0.6800,442.2,-1151.1,280.8,-88.5,68.7,-159.6,39.0,163.5,-4075.5,863.7,1824.3,1644.6,-952.2,370.2,-1701.0,317.1,-7.2,-5.7,2941.8,436.8,-0.3,270.6,557.4,-708.9,0,1224,0,208,0, 
0.6833,447.9,-1149.9,266.1,-100.5,56.7,-156.0,35.1,141.9,-10077.6,863.7,-1429.8,-1162.8,-1141.5,28.2,-7851.9,321.6,-6.9,-5.7,2914.2,426.0,-0.3,239.4,574.2,-683.4,0,1230,0,209,0, 
0.6867,463.2,-1136.1,262.8,-99.0,57.0,-131.1,34.5,139.2,-9114.3,846.6,-2421.0,-2196.0,-976.8,-116.7,-7068.6,309.9,-7.2,-6.0,2897.4,421.8,-0.6,230.4,551.4,-679.5,0,1236,0,210,0, 
0.6900,451.2,-1146.0,265.2,-94.5,62.4,-120.0,50.4,157.5,-2593.5,851.1,272.7,100.2,-786.0,105.3,-395.1,327.0,-6.6,-5.7,2910.9,422.1,-0.3,225.9,593.7,-722.1,0,1242,0,211,0, 
0.6933,441.0,-1163.4,264.6,-100.8,66.9,-166.5,43.8,168.0,592.8,858.6,2745.6,2433.0,-768.9,461.4,2914.8,358.2,-6.6,-6.0,2923.8,439.5,-0.6,239.1,599.1,-646.2,0,1248,0,212,0, 
0.6967,439.5,-1156.5,256.5,-105.3,59.1,-153.9,46.8,156.3,-4149.6,868.8,1693.2,1734.9,-951.3,375.0,-1721.1,330.3,-6.6,-6.0,2904.9,425.1,-0.9,222.3,627.0,-710.4,0,1254,0,213,0, 
0.7000,448.5,-1157.7,251.7,-114.0,45.9,-178.8,26.7,133.5,-10225.8,858.6,-1649.1,-1271.7,-1167.3,46.5,-7875.6,370.2,-7.2,-5.7,2882.1,415.8,-0.6,243.9,531.3,-749.4,0,1260,0,214,0, 
0.7033,449.4,-1153.2,260.4,-109.8,51.0,-161.7,26.7,131.7,-9262.5,856.2,-1975.5,-1956.0,-1088.1,-118.8,-7156.5,333.3,-6.9,-6.0,2892.6,413.4,-0.3,219.6,552.3,-689.1,0,1266,0,215,0, 
0.7067,461.1,-1144.2,264.9,-112.8,48.3,-158.1,32.4,144.9,-2445.3,837.0,898.8,402.3,-685.2,158.4,-411.9,333.9,-6.9,-5.4,2904.9,406.5,-1.2,206.4,530.7,-686.7,0,1272,0,216,0, 
0.7100,458.1,-1133.4,288.6,-92.1,58.5,-165.9,33.3,166.8,444.6,897.9,3197.1,2541.0,-632.4,435.0,2876.7,329.7,-6.9,-6.0,2943.6,408.9,-0.6,217.2,548.7,-763.5,0,1278,0,217,0, 
0.7133,464.7,-1149.9,279.3,-96.6,57.9,-156.6,36.6,159.6,-4075.5,867.3,1939.8,1700.1,-927.3,376.8,-1712.7,342.6,-7.2,-6.0,2922.3,419.4,-0.6,242.4,558.3,-729.0,0,1284,0,218,0, 
0.7167,450.9,-1148.7,279.3,-87.9,64.8,-148.5,55.2,144.0,-10299.9,898.8,-1361.4,-1293.0,-1078.8,-7.2,-7933.8,353.7,-6.9,-5.7,2907.9,440.4,-0.9,260.7,641.1,-714.6,0,1290,0,219,0, 
0.7200,464.7,-1156.2,268.8,-99.0,56.4,-152.1,38.7,138.6,-9188.4,883.5,-2418.6,-2378.7,-1016.1,-77.7,-7178.7,341.1,-6.9,-6.0,2892.6,439.8,-0.3,280.8,600.9,-758.4,0,1296,0,220,0, 
0.7233,465.3,-1155.9,279.6,-84.3,74.4,-134.1,44.7,162.9,-2445.3,873.0,261.6,-76.2,-785.1,131.4,-488.4,332.7,-6.9,-6.0,2901.3,447.9,-0.6,284.4,547.2,-696.0,0,1302,0,221,0, 
0.7267,454.8,-1142.4,293.1,-80.4,75.9,-142.2,33.3,174.3,592.8,881.4,2741.1,2201.1,-709.2,452.4,2849.7,333.6,-6.9,-5.7,2935.2,448.8,-0.9,272.1,566.1,-736.5,0,1308,0,222,0, 
0.7300,468.0,-1146.9,277.2,-85.5,72.6,-139.5,42.0,166.5,-4149.6,887.4,1055.1,931.8,-957.6,403.8,-1732.8,329.7,-6.9,-5.1,2918.1,445.2,-0.9,285.3,591.0,-747.9,0,1314,0,223,0, 
0.7333,470.1,-1122.6,269.4,-100.2,53.7,-156.0,45.0,144.9,-10299.9,864.6,-2152.2,-2008.2,-1137.6,-5.1,-8005.5,351.3,-7.2,-6.0,2881.8,428.7,-0.9,262.2,637.5,-754.8,0,1320,0,224,0, 
0.7367,468.9,-1119.3,276.6,-88.5,66.9,-134.4,49.5,150.0,-9188.4,849.6,-2968.2,-2860.5,-1159.2,-162.3,-7258.8,329.4,-6.6,-6.0,2897.1,443.4,-0.9,264.0,615.9,-721.8,0,1326,0,225,0, 
0.7400,450.6,-1148.1,278.1,-81.6,76.8,-123.6,54.6,170.7,-2667.6,868.5,-281.7,-467.7,-801.9,120.9,-560.7,331.8,-6.9,-6.3,2907.6,448.2,-0.9,261.9,601.2,-710.1,0,1332,0,226,0, 
0.7433,447.0,-1169.1,273.3,-87.9,72.3,-96.6,54.9,179.1,444.6,882.3,2162.4,1916.7,-689.4,452.7,2754.6,343.2,-6.9,-6.0,2905.8,427.8,-0.9,222.0,566.7,-697.5,0,1338,0,227,0, 
0.7467,457.5,-1144.5,270.3,-89.4,72.9,-124.2,59.7,168.6,-4520.1,853.2,1151.1,1116.0,-929.4,382.2,-1889.7,334.8,-7.5,-5.7,2891.1,429.6,-0.6,203.4,577.5,-625.5,0,1344,0,228,0, 
0.7500,471.6,-1138.5,275.1,-87.6,66.9,-152.1,33.9,151.2,-10448.1,884.7,-2105.1,-1845.3,-1131.9,24.6,-8162.7,330.0,-6.9,-5.7,2887.2,439.8,-1.2,227.7,515.7,-687.6,0,1350,0,229,0, 
0.7533,467.1,-1137.0,274.2,-87.3,66.6,-141.3,45.0,149.4,-9410.7,858.0,-3018.0,-2892.3,-946.2,-137.7,-7392.9,340.2,-6.9,-6.0,2887.5,432.0,-0.6,223.5,561.0,-728.1,0,1356,0,230,0, 
0.7567,468.0,-1148.7,278.4,-84.3,71.4,-156.6,28.8,163.5,-2741.7,878.7,-457.2,-735.0,-748.5,127.2,-702.9,304.2,-6.9,-6.0,2922.0,436.5,-0.3,251.1,527.4,-748.8,0,1362,0,231,0, 
0.7600,463.8,-1130.7,291.6,-76.8,75.6,-140.1,31.5,179.7,444.6,872.1,2245.2,1588.5,-678.9,435.0,2680.2,324.9,-6.9,-5.7,2945.1,445.8,-0.6,267.3,561.0,-720.0,0,1368,0,232,0, 
0.7633,455.4,-1133.4,282.9,-86.7,63.3,-156.9,33.9,168.3,-4297.8,901.8,1118.1,727.5,-1001.7,357.3,-1918.2,345.0,-6.6,-6.0,2916.0,435.6,-1.2,265.8,582.6,-781.8,0,1374,0,233,0, 
0.7667,461.1,-1141.5,264.0,-99.9,49.8,-163.2,30.6,143.7,-10448.1,891.6,-2238.6,-2250.3,-1132.5,42.0,-8153.1,353.7,-7.2,-6.0,2883.6,418.5,-0.9,220.5,572.7,-785.1,0,1380,0,234,0, 
0.7700,448.8,-1155.0,258.3,-102.0,57.0,-150.6,39.6,140.4,-9336.6,876.0,-3194.1,-3190.2,-1030.8,-125.7,-7296.6,340.5,-6.6,-6.0,2877.0,428.4,-0.6,239.7,582.9,-770.4,0,1386,0,235,0, 
0.7733,452.7,-1168.2,255.6,-101.4,60.0,-138.3,41.4,163.8,-2519.4,846.3,-459.0,-851.7,-795.0,142.5,-563.1,316.5,-7.2,-5.7,2890.8,437.1,-0.9,248.7,567.6,-742.5,0,1392,0,236,0, 
0.7767,445.2,-1175.1,253.8,-106.2,53.1,-140.1,43.5,169.8,518.7,848.7,2209.2,1525.8,-724.2,472.8,2803.8,335.4,-7.5,-6.0,2896.5,424.8,-0.9,226.2,582.6,-737.7,0,1398,0,237,0, 
0.7800,446.7,-1145.4,271.2,-95.7,68.1,-123.0,45.6,169.5,-4371.9,863.4,1095.0,637.5,-926.7,358.8,-1950.6,328.5,-6.9,-5.7,2908.5,437.4,-1.2,237.6,587.1,-666.6,0,1404,0,238,0, 
0.7833,448.5,-1140.9,265.5,-98.7,74.1,-111.3,54.0,153.3,-10522.2,866.7,-2295.3,-2396.4,-1113.0,0.3,-8304.9,316.8,-7.2,-6.0,2876.7,436.5,-0.9,244.8,611.1,-641.7,0,1410,0,239,0, 
0.7867,453.0,-1147.2,256.2,-107.1,65.4,-120.9,53.4,146.4,-9410.7,824.4,-3258.9,-3397.8,-1007.1,-168.6,-7458.3,352.5,-6.9,-6.0,2875.5,432.0,-0.9,207.9,607.5,-669.6,0,1416,0,240,0, 
0.7900,442.5,-1153.2,250.2,-108.6,59.1,-142.8,39.6,154.5,-2519.4,848.7,-425.4,-982.8,-877.8,117.0,-515.1,311.4,-7.2,-6.0,2879.1,424.8,-0.6,243.3,567.0,-747.3,0,1422,0,241,0, 
0.7933,464.7,-1140.0,256.2,-105.0,57.9,-155.4,21.6,168.0,518.7,875.4,2298.9,1492.5,-806.4,485.1,3018.3,320.1,-6.6,-5.7,2890.8,417.9,-0.9,228.0,519.0,-742.8,0,1428,0,242,0, 
0.7967,449.7,-1149.6,255.6,-99.6,56.4,-147.0,41.7,163.5,-4520.1,881.4,1053.6,587.1,-954.9,355.2,-2040.6,329.1,-7.2,-5.7,2878.8,426.6,-0.6,251.7,558.3,-728.1,0,1434,0,243,0, 
0.8000,455.7,-1154.4,235.5,-118.8,48.9,-107.7,48.9,141.6,-10966.8,836.4,-2558.1,-2515.8,-1009.8,-17.7,-8604.0,315.9,-6.9,-5.7,2839.2,408.9,-0.6,217.5,537.6,-711.0,0,1440,0,244,0, 
0.8033,453.0,-1156.8,244.5,-108.9,57.6,-154.2,25.2,141.6,-9410.7,871.8,-3504.9,-3572.4,-984.0,-156.3,-7469.7,305.1,-6.9,-5.7,2849.4,426.9,-0.9,232.8,540.6,-727.2,0,1446,0,245,0, 
0.8067,450.6,-1134.3,249.6,-105.9,57.3,-158.4,30.6,158.4,-2074.8,873.6,-391.2,-1028.1,-730.5,70.8,-111.3,349.2,-6.6,-5.7,2865.6,421.8,-0.9,216.6,577.5,-748.2,0,1452,0,246,0, 
0.8100,444.9,-1159.2,249.0,-105.6,56.4,-140.7,39.9,176.7,1259.7,863.4,2580.6,1564.5,-782.4,463.8,3528.9,315.3,-7.2,-5.4,2885.1,417.9,-0.6,225.6,546.3,-696.3,0,1458,0,247,0, 
0.8133,438.9,-1170.3,231.3,-110.4,54.0,-115.5,36.3,160.8,-4297.8,818.7,1237.8,599.4,-944.1,338.1,-1911.6,321.3,-6.9,-6.0,2851.8,405.0,-0.9,245.7,559.5,-725.7,0,1464,0,248,0, 
0.8167,441.6,-1171.8,231.6,-111.6,47.7,-162.3,27.3,137.1,-11189.1,841.5,-2620.8,-2778.0,-1230.6,-18.0,-8977.2,329.1,-7.5,-5.7,2835.3,414.3,-0.9,242.1,576.0,-736.2,0,1470,0,249,0, 
0.8200,437.7,-1155.9,232.5,-115.8,45.0,-168.6,17.7,128.1,-9929.4,815.7,-3876.3,-3880.8,-1169.7,-195.6,-7958.7,340.8,-6.9,-6.0,2827.5,411.6,-0.9,236.4,557.7,-777.6,0,1476,0,250,0, 
0.8233,451.5,-1160.4,238.8,-110.1,51.6,-160.2,24.6,150.9,-2000.7,858.3,-553.5,-1185.6,-783.3,163.5,-38.4,324.6,-7.2,-6.0,2852.1,421.2,-0.9,271.8,575.1,-784.8,0,1482,0,251,0, 
0.8267,438.3,-1176.3,234.0,-111.3,50.7,-141.3,30.3,153.9,1704.3,865.5,2756.7,1596.6,-710.1,483.3,3949.2,345.0,-6.6,-6.0,2861.4,410.4,-0.6,251.7,576.9,-747.3,0,1488,0,252,0, 
0.8300,438.3,-1168.8,241.2,-105.9,61.8,-140.4,42.3,148.2,-4297.8,890.1,1342.2,650.7,-927.0,416.7,-1838.7,348.3,-6.9,-6.3,2865.6,425.1,-0.6,253.5,586.2,-733.8,0,1494,0,253,0, 
0.8333,447.3,-1157.7,233.7,-113.4,55.5,-126.3,44.7,124.5,-11559.6,853.2,-2859.3,-2708.7,-1161.9,-2.7,-9123.6,325.2,-6.9,-5.7,2832.0,416.1,-0.6,237.0,588.3,-711.9,0,1500,0,254,0, 
0.8367,462.9,-1161.9,224.4,-120.9,45.3,-145.2,35.7,117.6,-9929.4,813.9,-4023.6,-3834.9,-1038.6,-161.4,-8078.1,322.5,-7.5,-5.4,2804.7,408.3,-0.9,218.7,559.5,-733.5,0,1506,0,255,0, 
0.8400,450.6,-1155.6,242.7,-103.8,65.1,-145.5,37.5,148.8,-1852.5,851.1,-672.6,-1137.6,-801.3,94.5,55.8,329.1,-6.6,-5.7,2835.3,436.8,-0.9,234.9,629.1,-743.7,0,1512,0,0,0, 
0.8433,456.3,-1116.0,263.4,-95.4,64.8,-142.5,42.0,173.4,1704.3,888.0,2661.9,1654.2,-671.4,439.5,4014.6,331.5,-6.6,-6.0,2868.3,421.8,-1.2,209.1,585.0,-725.4,0,1518,0,1,0, 
0.8467,469.8,-1098.0,260.1,-90.3,61.8,-123.6,37.8,172.5,-4223.7,885.3,1283.4,705.6,-964.5,369.6,-1804.2,297.9,-6.9,-5.7,2844.9,411.6,-0.6,210.3,517.2,-671.1,0,1524,0,2,0, 
0.8500,462.6,-1145.4,229.2,-107.7,50.1,-103.8,38.4,144.3,-11411.4,834.9,-2877.6,-2732.4,-1148.4,-66.6,-9103.5,317.7,-6.6,-6.3,2789.4,371.4,-0.9,204.0,499.5,-680.7,0,1530,0,3,0, 
0.8533,438.3,-1190.4,232.5,-102.9,56.4,-142.2,43.2,136.8,-10003.5,855.3,-4128.6,-3779.7,-1047.6,-227.1,-8087.4,328.8,-6.6,-5.7,2808.0,421.2,-0.6,255.9,571.5,-758.7,0,1536,0,4,0, 
0.8567,448.8,-1170.0,240.0,-92.4,62.1,-152.7,28.2,156.6,-1926.6,858.9,-621.0,-1076.4,-796.2,146.7,125.4,307.8,-6.9,-6.0,2837.4,458.4,-0.9,263.4,549.3,-722.4,0,1542,0,5,0, 
0.8600,441.0,-1169.1,235.5,-106.2,49.5,-151.2,33.3,161.1,1704.3,858.0,2769.9,1777.2,-795.9,499.2,4051.2,339.9,-6.9,-6.3,2841.0,436.2,-0.6,242.1,572.7,-759.3,0,1548,0,6,0, 
0.8633,442.8,-1181.7,217.8,-114.6,38.1,-173.7,25.8,147.9,-4446.0,843.6,1431.9,864.0,-963.0,456.0,-1773.0,332.7,-6.9,-5.7,2808.3,413.4,-0.9,215.7,558.6,-804.3,0,1554,0,7,0, 
0.8667,444.0,-1155.6,234.6,-103.8,49.5,-138.6,45.6,133.5,-11559.6,883.8,-2721.0,-2602.5,-1162.5,-24.0,-9118.2,312.0,-7.2,-6.0,2818.5,420.0,-0.6,235.8,579.9,-771.6,0,1560,0,8,0, 
0.8700,454.2,-1142.4,234.6,-105.3,49.8,-140.7,26.7,129.0,-10003.5,855.9,-3989.1,-3648.0,-1032.9,-150.3,-8088.9,304.8,-6.9,-5.7,2809.2,420.6,-0.9,222.0,517.5,-737.7,0,1566,0,9,0, 
0.8733,450.9,-1167.6,227.4,-112.5,48.3,-132.6,34.2,141.6,-1778.4,863.1,-571.2,-941.4,-752.1,165.6,120.6,324.9,-6.9,-5.7,2807.4,415.2,-1.2,215.7,544.8,-711.9,0,1572,0,10,0, 
0.8767,450.6,-1156.2,236.1,-108.3,47.7,-138.9,39.0,158.7,1704.3,859.2,2877.0,2024.1,-719.1,534.6,4027.8,321.9,-6.9,-5.7,2835.3,419.4,-0.6,234.9,574.2,-689.1,0,1578,0,11,0, 
0.8800,438.0,-1163.4,208.8,-133.8,31.5,-135.6,61.5,135.6,-4297.8,839.4,1519.5,965.1,-994.2,420.9,-1837.8,345.6,-6.9,-5.7,2787.3,400.8,-0.6,178.5,670.2,-744.0,0,1584,0,12,0, 
0.8833,460.2,-1154.1,216.3,-119.4,39.9,-146.1,26.1,119.1,-11559.6,845.7,-2618.1,-2388.9,-1143.3,-15.3,-9155.4,321.9,-6.9,-5.7,2778.6,414.0,-0.3,216.0,564.6,-797.4,0,1590,0,13,0, 
0.8867,453.9,-1149.0,229.2,-107.7,61.2,-115.5,25.5,121.2,-10003.5,847.5,-3760.2,-3699.0,-1140.3,-161.4,-8131.8,320.1,-6.6,-6.0,2780.7,428.4,-0.6,221.1,551.4,-660.6,0,1596,0,14,0, 
0.8900,457.2,-1138.8,244.2,-99.9,58.8,-127.5,21.9,148.8,-1778.4,834.0,-399.6,-963.9,-726.0,140.7,127.5,303.3,-6.9,-6.0,2814.3,440.4,-0.3,228.6,510.3,-751.5,0,1602,0,15,0, 
0.8933,447.9,-1152.3,241.5,-106.2,54.9,-107.7,27.3,162.6,1704.3,852.0,3045.6,1901.1,-636.6,508.2,4100.7,309.3,-7.2,-6.0,2826.9,425.4,-0.6,246.6,549.0,-739.5,0,1608,0,16,0, 
0.8967,455.1,-1141.8,229.2,-109.2,53.1,-150.3,22.5,147.9,-4297.8,857.7,1608.6,976.2,-1002.0,373.5,-1780.8,306.6,-6.9,-5.7,2809.8,439.2,-0.6,243.9,534.9,-735.0,0,1614,0,17,0, 
0.9000,457.5,-1118.1,242.7,-111.9,46.8,-109.8,38.1,126.9,-11485.5,830.1,-2576.7,-2387.1,-1083.0,-89.1,-9115.5,325.5,-6.9,-6.0,2805.0,404.4,-0.9,213.3,616.2,-766.5,0,1620,0,18,0, 
0.9033,447.3,-1156.8,233.4,-108.3,50.4,-137.4,21.6,120.0,-10003.5,876.3,-3829.5,-3522.3,-1032.0,-243.6,-8127.3,315.0,-6.9,-6.0,2794.2,427.8,-0.3,225.0,540.0,-790.8,0,1626,0,19,0, 
0.9067,435.9,-1179.6,225.0,-112.2,51.0,-147.0,35.1,138.0,-1778.4,854.4,-399.3,-894.3,-885.9,132.3,108.3,323.7,-6.6,-5.4,2798.4,431.1,-0.9,232.2,579.9,-683.7,0,1632,0,20,0, 
0.9100,443.4,-1188.9,228.6,-109.5,58.2,-134.1,21.6,156.9,1704.3,855.6,2962.2,1953.6,-765.3,532.8,4043.4,303.6,-6.6,-6.0,2817.6,439.8,-0.3,237.9,533.4,-739.2,0,1638,0,21,0, 
0.9133,439.5,-1187.7,230.1,-104.4,61.5,-134.1,34.2,150.3,-4297.8,873.6,2331.3,1605.0,-908.1,436.2,-1778.1,312.0,-6.6,-5.7,2812.2,445.5,-0.9,264.9,573.9,-803.7,0,1644,0,22,0, 
0.9167,447.3,-1191.3,211.5,-114.0,50.4,-129.9,31.8,121.5,-11485.5,859.5,-1999.8,-1936.5,-1129.2,18.3,-9080.1,319.2,-7.2,-5.7,2776.8,427.8,-0.9,255.6,550.2,-789.6,0,1650,0,23,0, 
0.9200,450.0,-1168.5,227.4,-111.6,55.2,-135.6,36.9,122.7,-9929.4,859.8,-3374.7,-3300.3,-1038.0,-146.4,-8076.6,326.1,-6.9,-5.7,2800.8,433.8,-0.9,246.3,555.6,-748.8,0,1656,0,24,0, 
0.9233,451.8,-1141.8,240.3,-108.0,48.6,-141.9,33.0,144.6,-1778.4,875.4,-11.1,-598.5,-814.5,173.7,153.3,325.2,-6.6,-5.7,2844.3,424.2,-0.6,223.5,537.9,-756.6,0,1662,0,25,0, 
0.9267,455.7,-1137.9,236.7,-104.7,54.6,-132.3,38.1,159.3,1704.3,861.6,3314.1,2189.1,-773.7,565.8,4089.3,318.9,-6.9,-6.0,2845.8,432.0,-0.6,228.0,546.9,-702.0,0,1668,0,26,0, 
0.9300,460.5,-1136.4,237.9,-105.0,51.9,-139.2,49.5,149.7,-4223.7,858.9,1889.1,1242.9,-922.5,447.3,-1678.2,338.4,-7.2,-5.7,2826.0,429.6,-0.6,244.8,568.2,-732.9,0,1674,0,27,0, 
0.9333,454.2,-1135.5,228.0,-100.5,63.0,-129.0,47.7,130.5,-11485.5,870.0,-2375.1,-2300.7,-1189.2,-3.6,-9075.0,318.6,-6.9,-5.4,2802.3,449.4,-0.6,275.7,596.7,-739.8,0,1680,0,28,0, 
0.9367,461.7,-1130.7,229.5,-111.9,50.1,-144.3,43.2,128.1,-10003.5,861.6,-3662.7,-3515.7,-967.8,-202.8,-8101.8,350.1,-6.6,-5.7,2800.5,425.7,-0.6,234.0,615.6,-754.8,0,1686,0,29,0, 
0.9400,484.2,-1111.2,245.7,-97.8,56.7,-156.0,25.5,157.2,-1704.3,870.3,-281.4,-736.2,-728.7,165.6,152.1,319.8,-7.2,-6.0,2824.2,431.4,-0.6,240.0,542.1,-778.8,0,1692,0,30,0, 
0.9433,468.3,-1098.9,250.2,-89.7,66.6,-135.3,39.0,183.6,1852.5,867.9,3081.0,2175.9,-831.3,468.0,4027.2,314.4,-6.9,-6.0,2840.4,440.4,-0.9,219.0,586.5,-732.3,0,1698,0,31,0, 
0.9467,450.6,-1125.9,234.6,-96.3,62.4,-130.5,45.0,164.7,-4149.6,861.9,1697.4,1304.4,-994.5,390.0,-1717.8,335.4,-7.2,-6.3,2819.1,426.3,-1.2,232.2,586.8,-696.6,0,1704,0,32,0, 
0.9500,454.5,-1158.9,212.1,-106.5,57.6,-126.0,47.7,135.0,-11485.5,839.4,-2692.8,-2188.8,-1165.2,-27.3,-9102.9,326.4,-7.2,-5.7,2792.4,432.0,-0.6,224.4,568.2,-653.4,0,1710,0,33,0, 
0.9533,442.8,-1184.1,198.0,-110.7,63.3,-97.5,41.1,128.4,-9855.3,840.9,-4329.3,-3621.3,-1083.9,-241.5,-8125.8,319.5,-6.9,-5.7,2775.0,435.3,-0.9,249.0,534.0,-711.3,0,1716,0,34,0, 
0.9567,435.3,-1152.3,231.0,-93.3,72.3,-135.6,45.0,160.5,-1852.5,860.1,-628.8,-729.0,-762.6,115.2,70.8,328.2,-7.2,-5.7,2837.4,454.5,-0.9,272.7,564.3,-730.5,0,1722,0,35,0, 
0.9600,436.5,-1162.2,213.3,-110.1,54.3,-159.3,31.8,165.9,1778.4,830.4,2741.1,2175.6,-743.4,534.6,4014.6,347.7,-6.6,-6.0,2824.2,434.1,-0.9,235.5,558.6,-746.7,0,1728,0,36,0, 
0.9633,440.4,-1162.8,218.7,-103.5,55.5,-139.5,46.2,160.5,-4297.8,877.2,1490.1,1114.8,-985.2,431.7,-1766.1,327.3,-7.2,-5.7,2821.2,442.8,-0.9,244.5,564.9,-719.1,0,1734,0,37,0, 
0.9667,447.6,-1143.0,217.8,-105.0,51.0,-138.9,45.3,140.4,-11485.5,855.0,-2641.8,-2311.5,-1168.8,-2.7,-9145.2,320.1,-6.9,-6.0,2797.5,451.5,-0.6,256.5,545.7,-741.9,0,1740,0,38,0, 
0.9700,444.9,-1157.7,216.9,-107.7,54.9,-139.5,44.1,135.9,-10151.7,858.9,-3744.9,-3501.9,-1018.8,-180.6,-8199.9,329.1,-6.9,-6.0,2792.1,443.4,-0.9,262.8,557.4,-770.4,0,1746,0,39,0, 
0.9733,454.2,-1151.4,212.7,-117.0,50.1,-153.0,39.3,144.6,-1926.6,866.7,-374.7,-778.2,-767.7,166.2,-39.3,328.2,-6.9,-5.7,2810.4,433.8,-0.6,234.6,590.7,-798.6,0,1752,0,40,0, 
0.9767,460.2,-1124.4,229.2,-108.6,51.3,-148.8,47.1,164.7,1630.2,863.1,2964.3,2042.4,-729.9,497.1,3924.6,320.7,-6.9,-6.0,2844.6,437.7,-0.9,248.1,613.2,-786.0,0,1758,0,41,0, 
0.9800,444.6,-1156.8,215.4,-111.3,55.2,-127.8,43.8,150.6,-4297.8,846.6,1614.9,1070.1,-975.0,419.7,-1860.6,349.8,-6.6,-6.0,2839.2,442.5,-0.6,226.5,560.4,-740.4,0,1764,0,42,0, 
0.9833,460.5,-1133.7,215.7,-116.1,51.3,-150.6,36.3,132.3,-11485.5,867.3,-2460.6,-2293.2,-1221.3,-4.2,-9188.4,314.4,-7.2,-5.7,2801.1,439.8,-0.9,249.9,552.0,-798.9,0,1770,0,43,0, 
0.9867,464.1,-1128.0,223.8,-108.0,48.6,-132.6,41.1,134.1,-10151.7,859.2,-3622.8,-3480.9,-1050.0,-177.9,-8214.3,320.7,-6.9,-6.0,2804.7,430.2,-0.9,240.0,552.0,-763.8,0,1776,0,44,0, 
0.9900,445.8,-1124.7,227.7,-99.6,61.5,-120.6,43.8,155.1,-2000.7,859.8,-282.0,-792.6,-868.5,123.6,-78.9,303.9,-6.9,-5.7,2823.0,445.2,-0.9,255.9,552.9,-694.5,0,1782,0,45,0, 
0.9933,447.9,-1149.9,213.9,-113.1,48.9,-141.0,45.0,163.8,1556.1,829.5,3057.9,2048.1,-803.7,554.1,3926.1,347.1,-6.9,-5.7,2818.5,432.9,-1.2,212.1,584.1,-734.7,0,1788,0,46,0, 
0.9967,456.9,-1146.3,206.1,-117.3,44.4,-147.3,31.8,150.6,-4149.6,841.5,1755.6,1143.3,-914.1,475.2,-1823.1,329.1,-6.9,-6.0,2797.2,427.5,-0.9,216.3,528.9,-734.4,0,1794,0,47,0, 
1.0000,449.7,-1140.3,216.6,-108.9,45.3,-144.3,35.4,133.5,-11559.6,861.3,-2433.9,-2307.6,-1077.0,-24.3,-9185.4,308.1,-6.6,-5.7,2786.4,426.6,-0.9,206.7,573.0,-747.3,0,1800,0,48,0, 
1.0033,437.4,-1167.0,201.9,-112.5,50.1,-139.8,38.7,129.3,-10077.6,847.8,-3691.8,-3462.0,-947.4,-191.4,-8199.3,312.0,-7.2,-6.3,2779.8,430.2,-0.3,242.7,563.1,-768.9,0,1806,0,49,0, 
1.0067,434.7,-1189.8,197.4,-114.0,47.1,-145.2,31.5,145.8,-1926.6,843.6,-218.7,-668.7,-746.4,168.0,-55.5,327.0,-6.9,-5.7,2788.2,430.5,-0.9,219.6,520.8,-780.3,0,1812,0,50,0, 
1.0100,440.1,-1173.6,201.3,-119.1,39.3,-158.1,25.5,157.2,1704.3,846.3,3081.6,2120.7,-735.9,552.3,3957.9,333.3,-6.9,-6.3,2793.3,416.4,-0.6,233.4,545.1,-837.6,0,1818,0,51,0, 
1.0133,452.7,-1155.0,220.2,-108.9,47.1,-158.1,30.3,153.6,-4223.7,867.9,1800.3,1275.9,-908.1,466.8,-1808.7,317.7,-6.9,-6.0,2815.8,426.6,-0.3,233.7,547.5,-804.0,0,1824,0,52,0, 
1.0167,453.9,-1142.7,215.1,-107.1,53.1,-143.4,42.3,132.9,-11559.6,850.2,-2413.8,-2031.0,-1271.1,-11.1,-9196.2,326.7,-6.9,-6.3,2792.7,423.6,-1.5,239.1,583.5,-753.9,0,1830,0,53,0, 
1.0200,461.7,-1126.2,211.5,-122.4,41.1,-148.8,39.6,120.9,-10077.6,819.3,-3714.3,-3193.5,-1075.5,-166.5,-8206.8,320.1,-6.6,-5.4,2770.8,426.0,-0.6,220.5,568.5,-753.6,0,1836,0,54,0, 
1.0233,455.1,-1149.6,198.9,-137.1,29.1,-148.8,45.3,135.6,-2074.8,821.1,-281.7,-447.3,-820.2,159.6,-97.8,345.0,-6.9,-6.0,2771.1,401.4,-1.2,192.6,595.5,-759.6,0,1842,0,55,0, 
1.0267,459.9,-1136.1,223.8,-108.3,56.4,-108.9,58.5,168.0,1630.2,850.8,3048.3,2353.8,-628.8,515.4,3948.0,312.3,-6.9,-6.0,2816.1,421.2,-0.6,205.8,571.5,-659.1,0,1848,0,56,0, 
1.0300,453.6,-1145.4,229.2,-96.3,66.6,-121.5,40.5,161.4,-4223.7,867.0,1840.8,1451.1,-970.2,413.1,-1805.1,292.2,-6.9,-5.7,2806.2,451.8,-0.9,250.2,546.0,-691.5,0,1854,0,57,0, 
1.0333,441.0,-1137.6,228.3,-95.7,60.3,-128.7,48.3,143.7,-11411.4,879.3,-2281.2,-1977.3,-1209.3,-21.3,-9171.3,307.2,-6.9,-6.0,2787.3,428.4,-0.6,238.2,542.7,-721.8,0,1860,0,58,0, 
1.0367,459.6,-1133.1,220.8,-116.4,35.4,-156.0,36.3,132.3,-10003.5,853.5,-3574.8,-3171.9,-1068.9,-179.7,-8249.4,304.2,-6.9,-5.7,2762.4,390.0,-0.9,205.8,535.2,-804.6,0,1866,0,59,0, 
1.0400,446.7,-1146.0,213.3,-119.1,38.1,-141.6,49.8,151.8,-2000.7,813.3,-265.8,-479.1,-861.9,108.0,-144.9,323.7,-6.6,-5.7,2769.3,392.4,-0.6,217.2,560.7,-796.5,0,1872,0,60,0, 
1.0433,435.6,-1158.0,233.4,-98.4,68.7,-106.2,47.7,172.2,1778.4,841.5,3196.5,2415.9,-758.4,498.3,3957.0,300.9,-6.9,-5.7,2808.9,450.9,-0.3,248.1,573.9,-748.5,0,1878,0,61,0, 
1.0467,447.9,-1140.9,234.9,-102.9,57.3,-145.2,51.3,159.3,-4223.7,875.1,1927.5,1540.8,-1007.4,427.2,-1813.2,316.5,-7.2,-5.7,2801.4,449.1,-0.9,254.4,566.4,-713.4,0,1884,0,62,0, 
1.0500,449.7,-1137.9,229.2,-111.9,49.2,-146.7,45.6,132.0,-11485.5,840.6,-2271.6,-1942.5,-1201.8,-33.6,-9160.2,313.2,-7.2,-5.4,2762.1,437.1,-0.9,238.2,588.6,-741.0,0,1890,0,63,0, 
1.0533,446.1,-1161.3,223.5,-115.8,50.4,-139.5,51.3,126.3,-10151.7,832.2,-3510.3,-3140.7,-1056.9,-193.2,-8232.6,335.1,-7.2,-6.0,2746.5,440.4,-0.6,233.1,577.2,-718.5,0,1896,0,64,0, 
1.0567,445.2,-1174.5,231.6,-110.7,53.4,-131.1,44.4,147.6,-2074.8,839.4,-140.7,-467.7,-758.1,147.6,-120.6,324.0,-6.9,-6.0,2781.3,438.6,-0.9,242.4,556.8,-714.6,0,1902,0,65,0, 
1.0600,449.1,-1160.4,240.6,-110.1,51.3,-128.4,47.7,164.1,1778.4,860.1,3267.6,2398.8,-688.8,539.1,3989.4,317.1,-7.2,-6.0,2801.1,428.7,-0.9,250.2,552.9,-682.2,0,1908,0,66,0, 
1.0633,447.6,-1148.7,243.9,-106.5,49.5,-139.2,41.4,153.0,-4075.5,862.8,2046.6,1548.0,-956.1,437.1,-1748.1,325.8,-6.9,-6.0,2796.6,430.5,-0.6,241.5,537.9,-742.5,0,1914,0,67,0, 
1.0667,454.8,-1125.6,245.4,-104.4,59.7,-118.5,51.0,134.1,-11411.4,850.5,-2121.0,-1888.8,-1179.9,-5.1,-9107.1,327.0,-6.9,-6.0,2760.9,439.8,-0.9,226.5,575.7,-643.2,0,1920,0,68,0, 
1.0700,455.7,-1145.1,238.8,-115.5,49.2,-135.0,47.4,125.1,-10077.6,826.5,-3382.2,-3139.5,-978.9,-201.3,-8203.8,339.3,-7.2,-6.3,2747.1,428.7,-0.6,214.8,603.6,-696.6,0,1926,0,69,0, 
1.0733,446.1,-1167.6,237.3,-115.2,53.4,-120.6,56.1,143.4,-2000.7,829.8,42.9,-528.6,-910.2,91.5,-123.3,309.0,-6.6,-5.7,2776.8,426.6,-1.2,198.9,600.6,-684.6,0,1932,0,70,0, 
1.0767,437.4,-1152.9,255.6,-104.4,59.4,-141.9,32.4,164.1,1704.3,875.7,3328.5,2359.2,-797.7,496.5,4011.6,309.6,-7.2,-6.0,2812.8,440.7,-0.9,240.3,536.4,-736.5,0,1938,0,71,0, 
1.0800,443.1,-1138.2,258.9,-96.3,64.5,-149.7,35.1,158.7,-4297.8,851.1,1924.8,1394.4,-1075.5,415.8,-1787.7,319.2,-7.2,-5.4,2811.6,449.4,-0.9,246.0,540.6,-771.6,0,1944,0,72,0, 
1.0833,447.0,-1154.1,242.7,-114.9,46.2,-161.7,30.6,125.7,-11559.6,826.8,-2304.9,-1999.8,-1207.5,3.3,-9151.8,341.4,-6.9,-6.0,2772.9,428.4,-0.6,232.5,533.7,-802.8,0,1950,0,73,0, 
1.0867,429.6,-1162.5,258.3,-103.2,63.9,-134.7,48.9,124.8,-10225.8,847.8,-3581.7,-3227.4,-1095.0,-196.8,-8313.9,320.1,-6.9,-6.0,2790.9,442.8,-0.6,254.4,574.2,-724.2,0,1956,0,74,0, 
1.0900,426.9,-1181.7,247.5,-121.8,52.2,-134.4,54.9,135.9,-2148.9,855.9,-322.8,-644.4,-736.2,157.2,-196.2,340.2,-6.9,-5.7,2789.1,421.5,-0.3,225.0,600.3,-714.6,0,1962,0,75,0, 
1.0933,447.0,-1188.3,248.1,-119.1,49.5,-152.4,26.7,153.3,1778.4,843.3,3076.2,2275.8,-672.6,580.5,3981.6,319.5,-6.6,-6.0,2808.6,430.5,-0.3,231.6,546.9,-710.7,0,1968,0,76,0, 
1.0967,437.7,-1172.7,250.8,-116.1,49.8,-152.1,29.1,140.1,-4223.7,843.6,1743.6,1370.7,-918.6,454.2,-1780.8,297.3,-6.9,-5.7,2801.4,439.2,-0.9,221.1,555.3,-720.6,0,1974,0,77,0, 
1.1000,439.2,-1176.9,250.2,-113.1,51.6,-145.5,36.6,121.8,-11485.5,853.2,-2439.3,-2040.9,-1178.7,29.1,-9124.2,313.5,-7.2,-5.4,2769.6,442.2,-0.6,224.4,533.1,-730.8,0,1980,0,78,0, 
1.1033,450.3,-1165.8,250.5,-117.3,41.4,-164.1,25.2,120.3,-10151.7,869.1,-3704.1,-3234.6,-1017.9,-196.5,-8301.9,322.5,-6.6,-6.0,2763.9,423.9,-0.9,243.6,553.5,-748.5,0,1986,0,79,0, 
1.1067,431.1,-1197.6,237.6,-119.4,46.2,-156.9,28.5,130.8,-2000.7,834.9,-387.0,-521.1,-886.5,139.2,-200.1,310.2,-7.2,-6.0,2781.9,429.6,0.0,245.1,591.9,-726.6,0,1992,0,80,0, 
1.1100,441.0,-1163.1,255.6,-108.0,48.6,-155.7,34.5,156.0,1482.0,849.3,3032.7,2478.0,-816.3,502.5,3904.8,336.3,-6.6,-6.3,2818.2,447.3,-0.9,233.1,561.0,-741.9,0,1998,0,81,0, 
1.1133,447.0,-1144.2,280.8,-90.3,65.1,-134.4,37.8,155.4,-4223.7,915.3,1677.3,1494.6,-975.6,419.4,-1818.9,308.7,-6.9,-6.0,2830.8,446.1,-0.9,255.6,533.7,-684.6,0,2004,0,82,0, 
1.1167,450.0,-1158.6,271.2,-91.2,64.5,-129.6,40.8,135.3,-11559.6,871.8,-2447.4,-1873.5,-1113.3,17.7,-9151.5,307.5,-6.3,-5.7,2808.9,444.6,-1.2,238.5,561.9,-695.1,0,2010,0,83,0, 
1.1200,443.1,-1156.5,272.7,-91.2,67.5,-142.2,33.3,129.3,-10151.7,904.8,-3818.4,-3120.9,-1117.5,-169.2,-8344.8,314.1,-7.2,-5.7,2817.6,456.9,-0.6,259.5,543.6,-734.1,0,2016,0,84,0, 
1.1233,449.4,-1133.7,261.3,-103.2,61.2,-129.9,44.7,147.6,-2148.9,838.2,-429.6,-450.0,-801.3,136.8,-225.9,308.1,-6.9,-5.7,2804.7,444.9,-0.6,219.6,586.5,-713.1,0,2022,0,85,0, 
1.1267,445.2,-1148.7,255.9,-107.7,54.9,-141.3,40.2,154.5,1704.3,821.1,3090.6,2453.7,-795.6,514.8,3887.7,322.2,-7.2,-5.4,2809.2,437.4,-0.9,215.4,597.6,-710.1,0,2028,0,86,0, 
1.1300,437.4,-1175.1,252.3,-108.0,50.1,-147.3,37.2,139.2,-4297.8,852.3,1748.1,1598.4,-976.5,426.0,-1847.7,355.2,-7.2,-6.3,2804.4,437.4,-0.6,237.0,551.1,-707.1,0,2034,0,87,0, 
1.1333,436.8,-1188.6,237.3,-112.5,56.1,-140.4,36.0,111.6,-11485.5,841.5,-2378.1,-1750.2,-1143.0,-10.2,-9154.8,320.4,-6.9,-5.7,2766.9,444.6,-0.9,263.4,572.7,-677.4,0,2040,0,88,0, 
1.1367,448.2,-1171.5,250.2,-107.4,67.2,-137.4,42.0,116.1,-10151.7,851.4,-3672.3,-3033.0,-1046.4,-179.1,-8353.2,339.9,-7.2,-6.0,2767.8,442.5,-0.3,267.0,577.5,-724.2,0,2046,0,89,0, 
1.1400,444.3,-1156.2,279.6,-87.9,83.4,-113.7,51.0,150.6,-2000.7,892.8,-234.6,-370.8,-789.3,120.6,-229.5,303.0,-6.6,-5.4,2819.1,457.5,-0.9,274.2,602.1,-693.3,0,2052,0,90,0, 
1.1433,441.9,-1173.6,261.9,-101.4,64.5,-132.6,46.8,157.8,1556.1,878.1,3150.6,2525.1,-781.5,529.5,3897.0,324.9,-6.9,-6.0,2817.9,433.2,-0.9,226.2,577.2,-708.3,0,2058,0,91,0, 
1.1467,449.4,-1134.6,275.7,-98.1,63.0,-131.4,37.8,151.5,-4075.5,905.7,1838.4,1580.4,-918.9,408.0,-1839.6,327.9,-6.9,-5.7,2817.3,423.0,-0.6,218.7,552.3,-661.5,0,2064,0,92,0, 
1.1500,446.7,-1158.3,273.0,-96.9,64.8,-140.7,29.7,130.8,-11559.6,857.1,-2243.7,-1753.5,-1203.9,-1.8,-9135.3,316.8,-6.3,-6.3,2791.5,441.6,-0.6,237.6,542.7,-721.2,0,2070,0,93,0, 
1.1533,452.4,-1132.5,280.2,-101.4,54.3,-144.0,28.2,121.2,-10225.8,831.3,-3497.7,-2995.2,-1081.5,-182.1,-8360.7,325.2,-6.6,-5.7,2789.7,431.1,-0.9,220.8,565.2,-716.7,0,2076,0,94,0, 
1.1567,436.8,-1176.9,264.0,-99.3,71.4,-97.2,40.5,145.8,-2148.9,827.7,-119.1,-329.1,-695.4,116.4,-216.3,326.7,-7.5,-5.7,2778.6,449.4,-0.9,266.1,580.5,-721.5,0,2082,0,95,0, 
1.1600,427.8,-1200.9,262.5,-105.0,67.5,-146.1,40.5,153.6,1704.3,874.8,3152.1,2524.5,-792.6,534.6,3895.2,324.3,-7.2,-5.7,2804.1,456.3,-0.9,242.4,596.1,-705.0,0,2088,0,96,0, 
1.1633,437.1,-1164.3,281.7,-96.6,61.8,-149.1,37.5,147.3,-4223.7,888.3,1986.3,1668.9,-937.8,455.7,-1807.5,321.9,-7.2,-6.3,2823.3,450.3,-0.6,253.8,575.1,-749.7,0,2094,0,97,0, 
1.1667,439.8,-1175.4,266.1,-106.2,67.8,-122.7,43.5,122.4,-11559.6,859.5,-2160.3,-1792.2,-1150.2,16.2,-9118.5,345.3,-6.9,-5.7,2793.6,451.8,-0.6,247.2,564.0,-671.1,0,2100,0,98,0, 
1.1700,447.6,-1171.2,267.6,-102.3,70.5,-135.0,31.5,117.9,-10151.7,869.4,-3562.2,-2946.0,-1041.6,-161.7,-8326.8,314.4,-6.6,-6.3,2787.6,447.0,-0.9,255.0,564.0,-702.6,0,2106,0,99,0, 
1.1733,440.7,-1175.7,268.2,-116.1,53.4,-153.0,18.3,131.1,-1926.6,845.4,-307.8,-380.7,-768.9,169.8,-158.4,326.7,-7.2,-6.0,2819.1,422.1,-1.2,213.6,527.7,-767.1,0,2112,0,100,0, 
1.1767,453.3,-1157.7,272.1,-114.0,58.5,-144.9,27.3,152.4,1630.2,855.9,3569.1,2844.0,-690.0,519.9,3886.8,318.9,-6.9,-6.0,2820.0,440.4,-0.9,237.9,562.8,-699.6,0,2118,0,101,0, 
1.1800,450.6,-1146.0,280.5,-108.6,60.9,-135.0,35.4,145.2,-4149.6,870.9,2592.3,2213.1,-943.5,386.4,-1828.8,325.5,-6.9,-5.7,2805.6,445.8,-0.6,259.5,575.4,-708.6,0,2124,0,102,0, 
1.1833,450.9,-1134.3,287.4,-103.8,55.5,-150.0,25.5,122.4,-11485.5,883.2,-1820.4,-1275.0,-1210.8,-30.3,-9160.2,323.1,-6.6,-6.0,2792.7,438.9,-0.6,257.4,553.2,-796.5,0,2130,0,103,0, 
1.1867,447.6,-1152.9,257.7,-126.9,40.8,-149.4,28.5,105.9,-10374.0,807.6,-3235.5,-2763.3,-1205.4,-169.2,-8380.2,349.2,-6.9,-5.7,2746.2,414.9,-0.3,209.1,587.1,-731.4,0,2136,0,104,0, 
1.1900,435.9,-1178.4,249.6,-131.7,34.8,-159.3,21.6,125.1,-2148.9,848.4,-23.7,-215.1,-909.6,153.9,-265.8,333.3,-6.9,-6.0,2763.6,399.3,-0.6,189.9,557.4,-719.4,0,2142,0,105,0, 
1.1933,438.3,-1186.5,257.1,-124.8,49.2,-140.7,34.2,144.3,1630.2,852.9,3303.9,2701.5,-737.7,540.9,3865.5,322.5,-6.9,-6.0,2790.9,424.2,-0.9,207.9,606.3,-694.8,0,2148,0,106,0, 
1.1967,438.0,-1174.2,278.4,-100.5,75.0,-124.8,42.0,153.6,-4297.8,876.3,1993.5,1838.1,-910.5,374.7,-1842.3,323.1,-7.2,-6.0,2811.9,446.7,-0.9,245.1,562.8,-686.7,0,2154,0,107,0, 
1.2000,433.8,-1168.8,283.2,-92.4,75.9,-122.1,44.4,133.5,-11707.8,873.3,-2132.7,-1518.0,-1162.8,-30.6,-9172.2,308.1,-6.9,-5.4,2790.9,453.3,-0.6,270.0,573.6,-689.1,0,2160,0,108,0, 
1.2033,444.0,-1154.4,283.5,-98.4,71.4,-131.1,36.6,125.7,-10448.1,854.7,-3534.0,-2852.7,-1114.5,-182.4,-8413.8,306.9,-7.2,-5.7,2777.1,446.4,-0.3,267.9,546.0,-714.3,0,2166,0,109,0, 
1.2067,450.3,-1149.9,283.5,-102.0,64.5,-134.1,24.9,140.7,-2074.8,871.5,-124.2,-147.9,-753.9,125.1,-276.6,300.0,-7.2,-5.7,2790.6,439.2,-0.6,255.9,564.6,-723.0,0,2172,0,110,0, 
1.2100,452.7,-1128.0,286.2,-104.7,67.8,-101.7,39.3,155.1,1704.3,864.6,2667.9,2290.2,-698.7,493.2,3916.8,324.0,-6.9,-5.7,2788.5,423.9,-0.3,236.1,530.7,-642.0,0,2178,0,111,0, 
1.2133,472.8,-1106.1,278.1,-110.1,60.3,-132.6,24.6,140.4,-4223.7,826.5,1396.2,1406.4,-1005.0,391.5,-1866.0,322.5,-6.9,-5.7,2759.4,429.6,-0.6,203.7,551.4,-701.4,0,2184,0,112,0, 
1.2167,429.3,-1176.3,275.7,-103.5,65.7,-154.8,33.0,117.9,-11781.9,872.4,-2535.0,-1918.2,-1212.6,-86.7,-9221.4,374.1,-6.9,-6.0,2761.2,437.7,-0.6,245.1,601.2,-802.2,0,2190,0,113,0, 
1.2200,429.0,-1197.0,282.0,-90.0,86.4,-123.9,33.3,125.4,-10299.9,894.3,-3722.1,-3103.2,-1012.5,-171.6,-8455.5,312.3,-6.9,-6.0,2767.5,461.4,-0.6,285.0,580.5,-729.0,0,2196,0,114,0, 
1.2233,435.9,-1209.0,275.1,-91.8,88.8,-115.2,43.5,150.6,-2223.0,876.0,-193.8,-419.4,-736.8,168.0,-402.3,342.0,-6.9,-5.7,2767.2,477.9,-0.6,293.7,578.1,-688.5,0,2202,0,115,0, 
1.2267,444.6,-1191.0,277.5,-95.4,83.4,-118.2,47.4,166.8,1556.1,884.4,3142.8,2465.4,-694.2,551.1,3796.2,329.4,-7.2,-6.0,2776.2,472.2,-0.3,294.9,604.2,-747.6,0,2208,0,116,0, 
1.2300,440.1,-1187.7,265.8,-105.3,69.3,-108.6,52.8,149.4,-4297.8,868.8,1890.6,1582.8,-999.0,447.3,-1943.1,358.5,-6.6,-5.7,2753.1,454.8,-1.2,273.6,609.3,-738.3,0,2214,0,117,0, 
1.2333,450.0,-1164.6,279.3,-93.9,80.4,-85.2,51.9,136.5,-11856.0,846.3,-2312.4,-1923.9,-1167.3,24.3,-9238.8,327.0,-7.2,-6.0,2750.1,456.9,-0.9,252.0,597.6,-690.6,0,2220,0,118,0, 
1.2367,459.3,-1153.2,291.9,-87.3,73.8,-154.5,24.6,133.5,-10448.1,894.9,-3684.6,-3184.5,-1054.5,-150.6,-8450.1,306.6,-6.6,-5.7,2759.4,456.3,-1.2,253.2,566.4,-735.6,0,2226,0,119,0, 
1.2400,465.3,-1140.0,295.8,-91.5,71.1,-133.5,23.7,150.9,-2223.0,894.3,-395.7,-547.5,-746.7,188.7,-422.1,314.1,-6.6,-6.3,2773.8,435.0,-0.6,200.4,548.7,-710.1,0,2232,0,120,0, 
1.2433,470.7,-1121.4,296.1,-95.1,65.4,-135.0,28.5,166.5,1407.9,899.7,2938.5,2437.2,-701.7,522.3,3779.1,321.9,-6.9,-6.0,2780.7,441.6,-0.9,201.3,548.1,-651.6,0,2238,0,121,0, 
1.2467,468.9,-1111.2,297.0,-91.8,74.7,-121.5,30.3,158.4,-4371.9,888.3,1816.5,1624.2,-1164.0,418.8,-1931.7,298.2,-7.2,-5.7,2772.9,454.5,-0.9,244.5,538.8,-665.1,0,2244,0,122,0, 
1.2500,446.4,-1133.1,268.8,-110.7,53.4,-132.9,31.5,121.5,-11707.8,852.0,-2444.1,-1773.0,-1342.2,-19.8,-9215.1,340.5,-6.9,-6.0,2716.5,429.3,-0.6,230.7,555.3,-736.8,0,2250,0,123,0, 
1.2533,454.8,-1126.8,279.0,-101.7,66.3,-111.9,42.0,123.0,-10374.0,832.8,-3751.2,-2920.5,-1079.4,-168.6,-8458.5,321.6,-7.2,-5.7,2716.2,442.5,-0.6,216.0,603.3,-673.5,0,2256,0,124,0, 
1.2567,467.1,-1128.6,277.8,-108.3,59.1,-127.2,40.5,139.8,-2371.2,830.1,-406.8,-379.5,-648.0,108.6,-489.6,327.3,-6.9,-6.0,2733.6,425.4,-0.3,204.0,625.8,-726.3,0,2262,0,125,0, 
1.2600,447.3,-1165.8,285.0,-87.6,81.0,-126.0,29.4,162.3,1482.0,882.0,3057.3,2463.9,-669.3,473.1,3713.7,326.1,-6.6,-5.4,2775.3,455.1,-0.9,268.2,534.0,-727.8,0,2268,0,126,0, 
1.2633,458.7,-1148.4,290.1,-89.7,81.3,-117.9,39.0,151.5,-4446.0,888.3,1705.8,1553.7,-891.9,438.9,-2026.2,335.7,-7.5,-6.0,2763.0,459.6,-0.9,255.3,573.0,-732.3,0,2274,0,127,0, 
1.2667,438.9,-1164.9,289.2,-87.6,87.0,-106.5,40.5,129.9,-11781.9,903.3,-2420.7,-1882.8,-1251.3,-32.4,-9268.8,319.5,-6.9,-5.7,2750.7,469.2,-0.9,282.6,573.9,-723.9,0,2280,0,128,0, 
1.2700,450.3,-1163.7,272.1,-104.7,67.2,-130.2,26.1,119.4,-10448.1,858.9,-3688.5,-3104.7,-1086.9,-160.2,-8477.7,344.1,-6.9,-6.0,2718.0,436.2,-0.6,244.2,558.6,-741.3,0,2286,0,129,0, 
1.2733,462.9,-1161.9,273.9,-105.0,74.1,-126.9,25.5,143.1,-2297.1,860.1,-299.7,-443.7,-812.4,152.1,-506.1,323.7,-6.9,-6.0,2732.1,440.7,-0.9,229.8,558.6,-704.1,0,2292,0,130,0, 
1.2767,444.9,-1178.7,272.7,-102.6,77.1,-104.1,43.5,160.8,1482.0,870.9,3160.5,2428.5,-674.4,500.1,3723.6,340.5,-7.2,-5.7,2739.6,449.1,-0.9,273.6,602.7,-685.8,0,2298,0,131,0, 
1.2800,446.4,-1164.6,284.4,-95.4,75.3,-105.9,45.6,156.0,-4297.8,889.8,1773.0,1550.1,-919.5,398.4,-2033.4,305.7,-7.5,-5.7,2752.5,458.7,-0.3,264.9,580.5,-622.8,0,2304,0,132,0, 
1.2833,453.9,-1122.6,288.0,-94.2,72.0,-128.4,43.2,132.6,-11856.0,888.3,-2288.1,-1796.1,-1260.3,-57.6,-9270.9,312.0,-7.2,-6.0,2732.7,443.4,-0.6,263.4,629.1,-714.3,0,2310,0,133,0, 
1.2867,470.1,-1113.6,276.9,-107.1,63.0,-123.0,41.1,121.8,-10596.3,865.5,-3747.3,-3158.7,-1073.7,-223.5,-8514.0,327.6,-7.2,-6.0,2715.3,445.5,-0.6,253.8,605.4,-705.9,0,2316,0,134,0, 
1.2900,460.5,-1170.9,259.5,-107.4,72.0,-128.7,36.3,143.7,-2445.3,837.6,-362.4,-464.7,-855.6,107.4,-532.8,321.9,-6.9,-6.0,2714.7,460.5,-0.9,252.0,588.3,-773.7,0,2322,0,135,0, 
1.2933,439.5,-1175.4,273.0,-96.0,78.9,-117.0,37.8,160.8,1556.1,886.5,3166.5,2448.9,-719.7,515.7,3783.9,335.1,-6.9,-5.7,2757.0,469.8,-0.9,250.5,534.9,-721.5,0,2328,0,136,0, 
1.2967,443.4,-1168.5,274.2,-102.0,67.8,-110.4,41.7,144.0,-4371.9,886.5,1853.4,1528.8,-984.0,432.9,-2013.0,330.0,-6.6,-5.7,2760.0,448.8,-0.6,232.5,570.6,-676.5,0,2334,0,137,0, 
1.3000,448.2,-1161.9,276.0,-103.8,63.3,-128.4,29.7,120.6,-11633.7,883.8,-2379.0,-1824.3,-1228.8,1.2,-9249.0,327.9,-6.9,-5.7,2741.1,447.3,-1.2,249.3,549.0,-762.3,0,2340,0,138,0, 
1.3033,457.5,-1165.2,267.9,-107.4,60.9,-134.4,28.5,117.0,-10448.1,840.9,-3807.3,-3158.1,-1004.4,-167.4,-8523.9,336.3,-6.9,-5.7,2715.3,426.0,-0.9,230.1,570.9,-769.5,0,2346,0,139,0, 
1.3067,460.8,-1152.0,281.7,-93.9,74.1,-116.7,30.0,147.3,-2297.1,881.7,-494.1,-587.4,-751.2,143.4,-544.5,314.1,-6.6,-6.0,2743.2,464.4,-0.9,243.9,536.1,-711.3,0,2352,0,140,0, 
1.3100,451.2,-1183.2,258.0,-108.9,61.8,-112.2,41.4,147.9,1630.2,857.7,2973.6,2344.2,-684.3,516.6,3759.0,351.0,-6.6,-5.7,2734.5,440.7,-0.6,234.9,593.1,-694.2,0,2358,0,141,0, 
1.3133,444.0,-1173.9,255.6,-109.5,62.4,-111.6,33.0,137.7,-4297.8,872.1,1801.8,1468.8,-951.0,425.4,-1993.8,333.6,-6.9,-5.7,2728.8,449.4,-1.2,227.1,541.2,-645.6,0,2364,0,142,0, 
1.3167,446.4,-1163.1,243.9,-115.8,56.7,-108.3,46.5,117.6,-11707.8,847.2,-2406.9,-2085.6,-1182.0,-15.3,-9239.1,332.4,-6.9,-5.7,2694.6,438.9,-0.6,240.3,620.4,-668.4,0,2370,0,143,0, 
1.3200,458.4,-1136.1,262.8,-104.4,63.6,-128.4,33.9,123.9,-10596.3,864.0,-3789.3,-3300.3,-1130.1,-204.3,-8560.2,330.6,-6.9,-6.0,2706.3,447.9,-0.9,255.0,618.6,-763.5,0,2376,0,144,0, 
1.3233,450.0,-1141.8,263.7,-101.1,65.1,-135.0,26.1,142.2,-2445.3,881.7,-594.3,-651.9,-780.6,113.7,-543.0,323.1,-6.9,-5.7,2727.0,435.0,-0.9,234.6,588.9,-771.9,0,2382,0,145,0, 
1.3267,459.0,-1135.5,272.7,-92.4,68.1,-131.1,27.0,164.7,1630.2,886.5,2877.0,2334.3,-766.2,515.1,3777.3,311.1,-7.2,-6.0,2753.1,447.9,-0.3,233.4,543.3,-754.5,0,2388,0,146,0, 
1.3300,456.6,-1130.4,266.1,-103.2,58.8,-127.8,33.3,150.0,-4297.8,852.0,1531.2,1382.1,-915.9,410.4,-1963.2,329.1,-6.9,-5.4,2725.8,449.4,-0.6,262.8,585.0,-754.8,0,2394,0,147,0, 
1.3333,463.8,-1143.9,262.2,-105.6,61.5,-120.0,33.0,123.9,-11707.8,865.5,-2632.5,-2086.2,-1199.1,-42.3,-9239.1,308.1,-6.9,-6.0,2709.9,453.0,-1.2,237.0,574.5,-702.6,0,2400,0,148,0, 
1.3367,431.4,-1173.6,260.4,-98.7,70.5,-118.8,36.3,121.8,-10448.1,859.2,-3633.6,-3042.3,-1130.7,-202.2,-8576.4,333.9,-6.9,-6.0,2709.6,463.8,-0.9,271.2,567.0,-733.5,0,2406,0,149,0, 
1.3400,438.0,-1187.1,250.8,-105.3,63.0,-109.5,46.8,141.0,-2297.1,866.1,181.8,-105.0,-793.2,151.5,-556.5,333.0,-6.6,-5.7,2711.7,457.8,-1.2,266.4,600.0,-701.4,0,2412,0,150,0, 
1.3433,431.7,-1189.8,249.3,-104.4,67.2,-114.6,45.0,154.2,1482.0,891.9,3280.2,2493.0,-686.4,532.8,3781.5,332.7,-7.2,-6.0,2730.9,460.5,-0.6,266.7,599.7,-720.9,0,2418,0,151,0, 
1.3467,450.9,-1177.2,254.7,-109.8,66.0,-117.6,38.7,142.2,-4223.7,889.5,2029.5,1669.2,-949.5,456.6,-1980.6,328.5,-7.2,-5.7,2719.5,450.0,-0.9,228.0,582.6,-714.0,0,2424,0,152,0, 
1.3500,447.6,-1153.8,263.4,-102.6,68.7,-112.2,38.7,127.8,-11707.8,873.3,-2295.9,-1904.4,-1109.4,15.9,-9216.0,328.5,-7.2,-5.7,2691.3,457.2,-0.9,230.1,546.9,-718.2,0,2430,0,153,0, 
1.3533,444.3,-1167.6,262.2,-108.0,60.3,-121.2,32.1,117.0,-10448.1,888.9,-3819.3,-3219.9,-1057.2,-166.8,-8565.6,336.6,-6.9,-5.7,2687.1,442.5,-0.6,227.4,550.5,-717.3,0,2436,0,154,0, 
1.3567,444.3,-1154.1,271.8,-93.9,73.5,-108.3,41.1,142.5,-2371.2,860.7,-498.9,-595.5,-805.2,118.5,-591.9,330.6,-7.2,-5.7,2713.8,473.7,-0.9,246.3,572.1,-686.4,0,2442,0,155,0, 
1.3600,454.5,-1141.5,269.4,-101.7,73.2,-108.9,44.1,156.0,1482.0,868.2,2870.7,2193.9,-813.6,504.3,3671.7,328.8,-6.9,-5.7,2709.9,466.5,-0.6,265.5,571.2,-679.8,0,2448,0,156,0, 
1.3633,470.1,-1098.0,284.1,-93.6,77.7,-79.5,64.5,159.3,-4446.0,856.5,1689.9,1324.2,-930.9,378.3,-2086.8,322.5,-6.9,-5.7,2720.4,477.3,-0.9,264.0,648.6,-601.2,0,2454,0,157,0, 
1.3667,439.5,-1159.5,269.1,-101.4,66.9,-107.1,59.7,124.8,-11707.8,867.9,-3105.9,-2451.0,-1292.7,-57.0,-9243.9,343.2,-6.6,-5.7,2694.9,470.7,-0.6,258.0,654.0,-721.5,0,2460,0,158,0, 
1.3700,459.6,-1158.3,271.5,-103.8,60.0,-139.2,30.0,121.5,-10448.1,883.5,-4561.8,-3813.0,-1102.5,-157.2,-8578.8,330.0,-6.9,-5.7,2693.1,466.5,-0.9,248.1,549.6,-801.9,0,2466,0,159,0, 
1.3733,463.5,-1164.3,273.6,-100.8,67.2,-130.2,29.4,144.0,-2519.4,897.0,-1076.7,-1082.7,-775.2,171.6,-547.8,319.2,-6.9,-6.3,2715.9,466.2,-0.6,249.9,562.2,-761.1,0,2472,0,160,0, 
1.3767,459.9,-1166.1,261.0,-106.2,63.9,-120.3,40.5,158.4,1556.1,878.1,2447.7,1931.7,-693.3,546.0,3727.5,332.7,-7.2,-6.0,2698.8,471.0,-0.6,261.3,581.1,-726.6,0,2478,0,161,0, 
1.3800,460.5,-1149.0,283.2,-86.4,80.7,-92.1,57.3,157.2,-4297.8,904.5,1099.5,992.7,-896.1,419.1,-2027.4,321.9,-7.2,-5.4,2706.3,487.5,-0.6,259.5,598.2,-651.3,0,2484,0,162,0, 
1.3833,489.9,-1135.8,258.6,-107.4,54.6,-120.3,40.8,126.9,-11707.8,869.4,-3054.6,-2449.8,-1118.4,3.0,-9258.0,339.0,-6.9,-6.3,2657.7,455.7,-0.9,251.7,593.4,-708.3,0,2490,0,163,0, 
1.3867,465.3,-1147.8,262.8,-104.1,54.3,-118.2,40.8,122.7,-10522.2,830.1,-4409.1,-3650.7,-1020.9,-249.9,-8590.2,318.0,-6.9,-6.0,2654.7,450.3,-0.9,245.1,591.9,-735.6,0,2496,0,164,0, 
1.3900,487.2,-1137.0,261.0,-110.4,54.9,-114.9,41.7,141.9,-2371.2,836.1,-1014.3,-910.2,-771.6,147.9,-622.2,324.3,-6.9,-5.7,2666.1,446.4,-0.9,248.7,590.1,-725.1,0,2502,0,165,0, 
1.3933,468.0,-1113.6,276.0,-96.6,74.1,-91.5,53.4,167.1,1407.9,857.4,2447.1,2033.4,-830.1,447.0,3641.4,319.2,-7.2,-5.7,2679.6,470.7,-0.6,249.0,599.4,-679.5,0,2508,0,166,0, 
1.3967,439.2,-1163.4,253.8,-102.0,65.4,-94.8,58.2,154.8,-4446.0,888.6,1347.3,1227.3,-1046.7,388.5,-2072.4,348.0,-7.2,-6.3,2664.3,450.9,-0.6,251.1,603.6,-689.4,0,2514,0,167,0, 
1.4000,453.3,-1170.6,267.3,-101.1,63.6,-105.6,40.2,131.7,-11707.8,900.0,-2873.4,-2220.9,-1219.5,11.7,-9228.3,350.4,-6.9,-6.0,2675.7,442.2,-0.9,229.8,551.1,-671.4,0,2520,0,168,0, 
1.4033,468.6,-1153.2,282.0,-92.4,67.8,-121.5,31.2,132.9,-10596.3,906.9,-4294.2,-3473.1,-1076.7,-155.7,-8580.9,342.0,-6.6,-5.7,2700.3,454.2,-0.9,245.4,539.7,-775.5,0,2526,0,169,0, 
1.4067,465.3,-1152.6,273.0,-93.0,77.4,-107.7,38.4,155.7,-2223.0,895.8,-884.4,-822.3,-817.5,165.0,-559.2,327.9,-6.6,-6.0,2693.1,476.4,-0.9,273.3,562.8,-718.5,0,2532,0,170,0, 
1.4100,477.9,-1147.8,260.4,-110.1,54.6,-124.5,29.7,160.2,1482.0,863.4,2608.2,2079.9,-691.5,548.7,3783.6,345.0,-6.9,-6.0,2675.1,448.2,-0.6,239.7,577.8,-769.2,0,2538,0,171,0, 
1.4133,459.3,-1177.5,260.1,-102.9,62.7,-107.7,37.8,153.0,-4223.7,867.3,1395.0,1235.1,-930.9,451.5,-1914.6,332.1,-6.9,-6.0,2661.6,459.0,-0.9,263.7,582.6,-693.6,0,2544,0,172,0, 
1.4167,463.5,-1174.5,248.4,-109.5,48.3,-116.7,40.8,125.4,-11633.7,832.2,-2716.2,-2220.3,-1190.7,34.8,-9197.4,345.9,-7.2,-6.0,2624.4,437.1,-0.6,230.1,596.4,-734.4,0,2550,0,173,0, 
1.4200,471.0,-1155.3,262.8,-98.1,57.3,-111.9,44.7,130.5,-10522.2,833.1,-3975.3,-3469.2,-1035.0,-142.5,-8557.8,332.4,-6.9,-6.0,2633.7,454.8,-0.9,219.0,638.1,-739.8,0,2556,0,174,0, 
1.4233,486.9,-1156.5,272.7,-92.4,54.3,-119.4,33.0,156.3,-2297.1,880.8,-694.5,-862.5,-710.7,215.1,-512.7,313.8,-6.9,-5.7,2663.7,430.8,-0.9,232.2,534.3,-748.5,0,2562,0,175,0, 
1.4267,499.2,-1128.6,289.2,-86.7,58.2,-99.0,45.6,173.7,1407.9,892.2,2702.4,2080.8,-611.7,531.9,3776.4,325.2,-7.2,-5.7,2699.4,439.2,-0.3,221.7,548.1,-723.6,0,2568,0,176,0, 
1.4300,486.6,-1127.4,271.2,-95.1,57.0,-93.6,50.1,155.1,-4297.8,858.0,1527.0,1286.4,-1061.1,402.9,-1921.2,333.0,-7.2,-5.7,2663.4,462.3,-0.9,247.8,604.5,-728.7,0,2574,0,177,0, 
1.4333,466.2,-1105.2,276.3,-95.1,57.9,-86.1,50.4,135.6,-11707.8,840.9,-2682.9,-2083.8,-1269.9,-65.1,-9199.2,323.7,-7.2,-5.7,2639.1,468.3,-0.6,240.3,607.5,-703.8,0,2580,0,178,0, 
1.4367,457.5,-1134.9,281.1,-88.2,65.1,-84.0,45.9,135.0,-10448.1,873.9,-4093.2,-3293.1,-1098.0,-240.6,-8568.9,311.7,-7.2,-5.7,2639.4,468.9,-0.9,269.7,576.3,-681.0,0,2586,0,179,0, 
1.4400,465.6,-1168.8,268.2,-88.5,71.1,-72.6,49.8,158.1,-2297.1,861.9,-618.9,-549.6,-801.3,144.0,-522.3,292.2,-6.9,-6.0,2646.6,477.9,-0.3,263.1,558.0,-684.0,0,2592,0,180,0, 
1.4433,468.9,-1151.4,279.9,-85.2,70.8,-84.3,39.9,169.8,1556.1,881.1,2827.8,2383.8,-805.8,543.0,3803.7,308.7,-6.9,-6.0,2686.2,474.9,-0.6,266.7,568.5,-723.9,0,2598,0,181,0, 
1.4467,474.0,-1153.8,274.8,-89.4,68.4,-85.5,39.0,156.0,-4149.6,879.0,1602.3,1605.9,-950.4,479.1,-1766.1,306.9,-7.2,-5.7,2682.3,481.8,-0.3,259.2,576.3,-692.1,0,2604,0,182,0, 
1.4500,474.0,-1145.4,267.3,-100.8,48.9,-109.8,29.7,126.3,-11559.6,876.3,-2469.0,-1731.3,-1220.4,43.5,-9151.2,313.8,-6.3,-5.7,2648.4,447.9,-0.6,240.3,565.2,-769.5,0,2610,0,183,0, 
1.4533,461.7,-1147.8,265.2,-101.4,49.8,-110.4,34.8,126.3,-10299.9,854.1,-3744.9,-2981.1,-1104.6,-161.4,-8477.1,342.0,-7.2,-6.3,2634.0,450.6,-0.9,227.4,600.6,-778.8,0,2616,0,184,0, 
1.4567,477.3,-1157.4,276.6,-90.3,60.6,-94.8,34.2,154.5,-2223.0,903.3,-244.2,-240.3,-670.2,190.8,-402.6,318.9,-6.9,-5.7,2662.5,463.2,-0.6,233.1,576.6,-711.9,0,2622,0,185,0, 
1.4600,475.2,-1160.7,258.3,-104.4,50.1,-88.5,48.6,161.4,1704.3,871.8,3080.4,2612.1,-632.1,552.0,3863.7,335.7,-6.9,-5.7,2652.3,454.2,-0.9,237.0,617.1,-678.6,0,2628,0,186,0, 
1.4633,459.6,-1159.5,262.2,-94.8,69.0,-64.2,55.5,154.2,-4149.6,874.5,1918.5,1799.7,-1015.8,443.4,-1810.2,330.0,-6.9,-6.0,2641.2,486.3,-0.9,240.3,590.1,-648.6,0,2634,0,187,0, 
1.4667,457.5,-1163.1,256.8,-98.1,65.1,-78.0,56.1,137.4,-11559.6,857.1,-2288.7,-1558.5,-1202.4,10.8,-9186.9,322.5,-7.2,-5.7,2607.3,476.7,-0.9,260.4,611.7,-701.1,0,2640,0,188,0, 
1.4700,460.5,-1168.2,258.0,-98.4,55.5,-93.9,35.4,129.6,-10448.1,881.4,-3680.1,-2809.8,-1052.4,-152.1,-8509.5,330.9,-7.2,-5.7,2604.0,464.7,-0.9,267.9,558.9,-748.5,0,2646,0,189,0, 
1.4733,458.4,-1166.1,249.0,-111.9,45.6,-84.3,45.0,138.3,-2519.4,843.3,-457.5,-201.6,-840.6,144.9,-544.5,333.9,-7.2,-5.7,2606.4,449.1,-0.9,239.4,602.7,-694.5,0,2652,0,190,0, 
1.4767,470.1,-1113.0,275.7,-99.3,57.6,-85.2,41.7,164.7,1482.0,868.2,2954.4,2728.5,-754.8,508.8,3789.0,301.2,-6.6,-5.7,2648.4,449.7,-0.9,226.5,559.8,-726.6,0,2658,0,191,0, 
1.4800,490.2,-1086.9,284.4,-91.5,57.6,-82.8,38.1,163.8,-4149.6,855.3,1920.3,1943.1,-978.9,427.8,-1883.7,299.7,-6.9,-6.0,2655.0,446.7,-0.6,233.1,554.4,-690.6,0,2664,0,192,0, 
1.4833,456.3,-1124.1,270.0,-93.6,60.9,-71.4,47.7,143.7,-11707.8,904.8,-2305.5,-1531.2,-1320.6,-52.8,-9226.5,317.7,-7.2,-5.7,2634.0,465.6,-0.9,251.7,572.1,-698.7,0,2670,0,193,0, 
1.4867,468.6,-1155.3,257.4,-101.4,63.3,-93.9,37.5,135.3,-10448.1,859.5,-3568.5,-2676.6,-1063.8,-157.5,-8538.3,326.1,-6.9,-6.3,2615.1,469.5,-0.6,246.6,575.1,-795.3,0,2676,0,194,0, 
1.4900,458.7,-1186.5,248.1,-108.3,56.1,-93.3,45.0,150.0,-2371.2,869.4,-285.9,-98.1,-739.2,176.7,-556.5,331.5,-6.9,-5.7,2614.8,455.4,-0.9,260.4,595.5,-764.4,0,2682,0,195,0, 
1.4933,459.3,-1195.2,240.0,-112.8,50.7,-82.8,45.9,155.4,1482.0,846.9,3127.8,2778.0,-687.0,567.0,3805.8,338.4,-6.9,-6.0,2623.8,466.2,-0.9,244.5,615.6,-716.4,0,2688,0,196,0, 
1.4967,459.0,-1161.6,257.1,-102.9,65.7,-58.5,60.9,157.2,-4223.7,874.2,1889.7,1912.5,-1006.8,452.1,-1860.3,351.6,-7.2,-5.7,2637.3,475.2,-0.9,244.5,598.2,-654.9,0,2694,0,197,0, 
1.5000,460.8,-1160.4,252.0,-115.8,55.5,-82.5,43.8,129.3,-11781.9,863.7,-2276.7,-1560.3,-1232.4,26.4,-9203.4,331.2,-6.9,-6.0,2617.2,463.5,-0.6,240.3,577.8,-695.4,0,2700,0,198,0, 
1.5033,465.0,-1144.5,257.1,-117.6,45.0,-95.4,48.3,125.4,-10374.0,861.0,-3658.5,-2816.4,-1108.8,-156.3,-8526.0,310.2,-7.2,-5.4,2601.9,447.9,-0.9,210.0,634.2,-764.1,0,2706,0,199,0, 
1.5067,465.0,-1157.1,253.8,-122.7,45.9,-100.8,38.1,140.7,-2371.2,860.4,-306.0,-117.0,-770.1,181.2,-530.4,336.9,-6.9,-6.0,2604.6,452.1,-0.6,230.4,561.9,-810.0,0,2712,0,200,0, 
1.5100,463.5,-1152.3,264.6,-113.7,52.5,-86.7,45.3,164.7,1778.4,885.3,3136.8,2774.1,-671.4,544.5,3850.5,333.9,-7.2,-5.7,2634.3,456.3,-0.6,260.1,576.6,-743.4,0,2718,0,201,0, 
1.5133,458.7,-1155.6,265.8,-99.6,68.7,-68.1,48.3,160.2,-4149.6,894.0,2062.8,1926.3,-954.3,463.5,-1837.5,327.6,-6.9,-5.7,2634.9,475.5,-0.3,257.7,564.6,-669.9,0,2724,0,202,0, 
1.5167,476.7,-1110.9,274.8,-97.8,69.3,-55.8,49.5,145.8,-11485.5,864.0,-2089.2,-1440.6,-1137.0,48.9,-9174.3,297.0,-7.2,-5.7,2622.0,473.7,-0.3,248.1,559.5,-633.6,0,2730,0,203,0, 
1.5200,463.8,-1152.9,251.7,-109.5,61.8,-59.1,53.4,135.9,-10448.1,846.3,-3555.3,-2683.8,-1062.9,-175.5,-8529.9,319.5,-7.2,-6.0,2597.4,462.9,-0.9,207.9,573.3,-630.6,0,2736,0,204,0, 
1.5233,458.4,-1158.3,266.4,-99.0,63.6,-66.0,54.3,161.1,-2223.0,881.7,-164.1,-14.4,-842.1,168.0,-544.2,306.9,-7.5,-6.0,2631.6,467.4,-0.6,213.9,611.4,-722.1,0,2742,0,205,0, 
1.5267,458.4,-1146.6,278.7,-95.4,57.3,-95.1,35.1,173.1,1630.2,900.3,3211.8,2807.7,-743.4,531.6,3840.3,321.6,-6.9,-5.7,2663.1,460.2,-0.6,226.8,577.2,-772.2,0,2748,0,206,0, 
1.5300,474.0,-1110.0,271.8,-103.5,49.2,-76.8,51.3,160.5,-4075.5,885.6,2124.6,1938.3,-1019.7,439.8,-1883.1,311.7,-6.9,-6.0,2644.2,461.7,-0.6,240.3,625.8,-745.8,0,2754,0,207,0, 
1.5333,460.2,-1143.3,247.5,-117.3,41.7,-85.2,48.3,128.1,-11707.8,863.4,-2067.6,-1519.2,-1170.3,-20.1,-9177.3,318.3,-6.9,-6.3,2608.5,454.8,-0.9,231.0,602.7,-744.9,0,2760,0,208,0, 
1.5367,456.3,-1148.1,260.4,-105.3,60.9,-75.3,38.4,136.2,-10448.1,863.7,-3487.2,-2844.9,-1148.7,-171.9,-8575.8,323.1,-6.9,-6.0,2621.4,474.9,-0.6,260.4,535.8,-725.4,0,2766,0,209,0, 
1.5400,460.2,-1164.3,255.0,-106.8,63.6,-72.9,45.0,152.7,-2445.3,866.1,-205.5,-265.2,-828.3,178.8,-608.4,315.9,-6.6,-5.7,2622.9,473.7,-0.3,254.1,592.5,-719.4,0,2772,0,210,0, 
1.5433,468.6,-1155.3,268.5,-97.2,67.8,-83.1,42.0,173.4,1630.2,880.5,3246.3,2573.7,-659.1,575.1,3813.6,301.8,-6.9,-6.0,2647.2,474.0,-0.6,267.3,588.6,-783.0,0,2778,0,211,0, 
1.5467,467.4,-1137.0,278.4,-90.0,65.1,-75.6,46.5,164.7,-4149.6,895.2,2119.8,1785.0,-922.2,470.7,-1849.8,316.5,-6.9,-5.7,2649.6,469.2,-1.2,237.9,579.6,-745.2,0,2784,0,212,0, 
1.5500,457.8,-1131.9,268.2,-95.4,61.8,-62.4,51.6,141.0,-11559.6,884.4,-2175.6,-1664.4,-1250.1,16.2,-9176.1,311.4,-6.9,-6.0,2602.2,489.0,-0.9,274.5,607.8,-705.9,0,2790,0,213,0, 
1.5533,464.4,-1104.9,285.6,-89.4,64.5,-62.7,50.1,138.0,-10522.2,892.2,-3507.9,-3027.6,-1097.4,-178.2,-8567.7,314.1,-6.9,-5.7,2617.2,479.4,-0.9,270.9,594.6,-678.6,0,2796,0,214,0, 
1.5567,468.0,-1125.9,278.7,-86.4,79.2,-48.3,48.9,161.4,-2371.2,858.0,-256.8,-312.3,-859.8,154.5,-544.5,288.3,-7.2,-6.0,2623.5,502.2,-1.2,278.4,554.4,-654.0,0,2802,0,215,0, 
1.5600,477.9,-1108.5,276.3,-96.0,63.6,-51.9,52.5,170.1,1704.3,870.9,3281.1,2538.6,-638.4,548.4,3888.6,307.5,-7.5,-5.7,2633.4,480.0,-0.6,227.7,586.2,-684.3,0,2808,0,216,0, 
1.5633,459.3,-1172.1,251.1,-108.3,50.4,-71.1,46.5,149.1,-4001.4,888.3,1977.9,1592.4,-934.2,444.3,-1760.1,342.3,-6.9,-6.3,2607.9,468.9,-0.9,236.4,597.3,-757.5,0,2814,0,217,0, 
1.5667,447.6,-1156.8,274.2,-86.7,75.0,-55.5,47.4,145.8,-11411.4,916.2,-2135.7,-1715.7,-1164.9,45.3,-9117.6,303.9,-6.6,-6.0,2619.3,492.6,-0.6,267.9,568.5,-720.0,0,2820,0,218,0, 
1.5700,462.6,-1158.3,263.7,-102.9,60.0,-64.2,48.6,139.2,-10448.1,881.4,-3531.0,-3095.1,-1066.5,-138.9,-8534.4,321.3,-7.2,-6.0,2600.4,476.7,-0.6,253.2,573.9,-719.4,0,2826,0,219,0, 
1.5733,459.0,-1167.9,256.8,-108.6,66.6,-50.4,54.3,153.0,-2297.1,873.0,-217.2,-439.5,-739.8,152.4,-469.5,315.6,-7.2,-5.4,2602.5,486.9,-0.6,241.5,589.8,-631.5,0,2832,0,220,0, 
1.5767,443.7,-1171.8,262.2,-110.7,55.8,-78.9,45.6,160.5,1704.3,878.4,3171.0,2472.6,-784.2,529.8,3888.0,343.5,-6.9,-5.7,2630.4,473.1,-0.9,232.2,599.7,-766.2,0,2838,0,221,0, 
1.5800,451.8,-1160.4,262.5,-109.5,54.0,-89.7,39.6,155.1,-4075.5,878.7,1954.5,1680.9,-998.1,491.7,-1734.9,318.3,-7.2,-6.0,2618.1,473.1,-0.6,253.5,590.7,-801.9,0,2844,0,222,0, 
1.5833,455.1,-1145.1,259.2,-110.1,54.0,-86.1,39.6,135.9,-11411.4,880.5,-2228.7,-1777.5,-1207.2,56.1,-9102.3,306.3,-6.6,-5.7,2572.2,476.1,-0.6,268.5,584.7,-788.1,0,2850,0,223,0, 
1.5867,467.7,-1128.0,267.9,-106.5,49.8,-81.9,42.6,133.5,-10522.2,858.6,-3628.8,-3076.8,-1102.8,-99.6,-8524.2,321.6,-7.2,-5.7,2572.5,456.9,-1.2,241.8,577.8,-751.5,0,2856,0,224,0, 
1.5900,462.9,-1142.1,276.6,-105.6,47.4,-82.2,35.4,150.9,-2223.0,906.9,-226.2,-444.3,-754.8,215.7,-471.0,305.7,-6.9,-6.0,2610.9,449.4,-0.6,219.9,557.1,-744.3,0,2862,0,225,0, 
1.5933,462.9,-1130.4,279.0,-97.5,53.7,-65.7,46.8,168.3,1630.2,901.2,3298.2,2485.5,-741.9,573.6,3879.6,327.6,-6.9,-5.7,2622.3,462.6,-0.9,231.9,586.8,-699.3,0,2868,0,226,0, 
1.5967,464.4,-1120.5,282.9,-88.2,70.8,-49.2,53.1,164.4,-4075.5,882.6,2090.4,1702.5,-942.6,484.5,-1727.1,321.3,-7.2,-5.4,2611.2,486.6,-0.9,274.5,564.9,-668.7,0,2874,0,227,0, 
1.6000,459.3,-1152.0,258.0,-100.8,58.5,-39.3,58.8,139.8,-11411.4,880.2,-2094.9,-1679.7,-1236.3,55.2,-9108.3,323.1,-6.3,-6.0,2561.4,486.9,-0.6,300.9,615.0,-656.1,0,2880,0,228,0, 
1.6033,469.8,-1120.5,269.1,-96.3,51.9,-65.7,45.3,146.4,-10299.9,880.5,-3573.0,-3057.9,-1018.5,-144.3,-8520.3,307.8,-7.2,-5.7,2563.8,458.7,-1.2,291.0,585.0,-733.5,0,2886,0,229,0, 
1.6067,489.3,-1135.8,243.3,-116.7,32.1,-65.1,64.2,151.8,-2297.1,839.4,-289.8,-436.5,-725.4,189.9,-496.5,344.4,-7.2,-6.0,2544.3,443.4,-0.3,215.4,683.1,-738.3,0,2892,0,230,0, 
1.6100,481.2,-1127.1,278.1,-81.3,66.3,-51.3,52.8,181.2,1778.4,885.9,3308.4,2485.2,-714.9,514.2,3877.2,319.8,-6.6,-5.7,2616.6,506.7,-0.3,229.8,587.1,-690.9,0,2898,0,231,0, 
1.6133,458.4,-1132.8,286.8,-68.1,83.7,-41.1,57.9,180.3,-4075.5,930.3,2053.8,1609.8,-1036.5,454.5,-1758.3,291.6,-7.5,-5.4,2629.2,527.7,-0.6,241.5,547.8,-669.3,0,2904,0,232,0, 
1.6167,458.1,-1131.3,271.8,-79.5,69.6,-42.3,55.5,154.8,-11485.5,883.8,-1644.3,-1503.0,-1242.6,31.8,-9127.8,308.7,-6.3,-5.7,2582.7,516.6,-0.3,248.1,585.0,-692.4,0,2910,0,233,0, 
1.6200,456.0,-1162.2,262.2,-83.1,68.7,-49.8,52.2,146.1,-10596.3,888.0,-2623.2,-2627.7,-1028.4,-121.5,-8583.0,324.6,-6.6,-6.0,2565.0,521.7,-0.6,259.8,579.0,-736.5,0,2916,0,234,0, 
1.6233,467.7,-1172.7,258.0,-92.1,70.2,-69.3,35.1,161.4,-2371.2,883.2,337.8,-195.3,-720.0,205.2,-554.7,319.2,-7.2,-6.0,2572.2,531.6,-0.6,282.3,582.9,-780.0,0,2922,0,235,0, 
1.6267,453.0,-1157.7,259.2,-90.9,72.0,-51.6,46.2,174.6,1630.2,865.2,3695.7,2702.4,-739.2,578.1,3805.2,320.7,-6.9,-6.0,2573.7,518.7,-0.9,270.6,574.8,-714.9,0,2928,0,236,0, 
1.6300,465.0,-1142.7,258.3,-94.5,62.7,-64.2,37.2,159.0,-4223.7,865.8,2471.4,1761.9,-946.5,510.3,-1809.6,333.0,-6.9,-5.7,2562.9,525.0,-0.9,263.4,585.0,-735.6,0,2934,0,237,0, 
1.6333,478.2,-1104.9,266.4,-94.2,63.0,-62.4,50.4,144.6,-11559.6,894.6,-1768.8,-1661.1,-1245.9,51.9,-9130.5,324.9,-6.9,-5.1,2544.0,514.5,-0.9,237.0,613.8,-717.9,0,2940,0,238,0, 
1.6367,471.3,-1083.9,273.3,-95.7,70.8,-41.7,47.7,140.4,-10522.2,867.6,-3348.6,-3116.1,-1185.6,-170.4,-8663.7,301.8,-7.2,-6.0,2541.0,526.5,-0.6,207.6,582.9,-658.8,0,2946,0,239,0, 
1.6400,441.9,-1166.4,234.3,-115.2,66.3,-41.4,49.2,146.7,-2445.3,846.0,-191.7,-609.0,-810.3,154.8,-687.6,314.7,-6.9,-6.0,2516.1,536.1,-0.9,255.0,582.6,-683.7,0,2952,0,240,0, 
1.6433,454.8,-1213.8,220.5,-116.1,69.0,-46.5,42.9,163.8,1556.1,869.7,3185.1,2232.6,-659.7,580.2,3740.1,322.2,-7.2,-6.0,2514.3,554.7,-0.6,288.0,555.9,-720.0,0,2958,0,241,0, 
1.6467,452.4,-1179.6,228.0,-108.3,65.1,-53.4,54.6,156.9,-4149.6,865.2,1898.4,1361.7,-922.5,481.5,-1885.2,356.7,-6.3,-5.4,2513.1,542.4,-0.9,267.9,616.5,-713.4,0,2964,0,242,0, 
1.6500,452.4,-1173.9,242.1,-98.1,73.8,-53.7,50.7,143.7,-11633.7,891.6,-2276.1,-2126.1,-1150.8,50.1,-9187.8,323.4,-7.2,-6.0,2514.0,549.9,-0.6,288.9,593.4,-754.8,0,2970,0,243,0, 
1.6533,446.7,-1166.1,238.8,-105.3,68.7,-45.0,60.6,136.5,-10744.5,874.8,-3951.3,-3686.4,-1004.1,-183.9,-8701.2,329.4,-6.9,-6.0,2517.3,532.5,-0.6,262.5,657.9,-723.9,0,2976,0,244,0, 
1.6567,467.4,-1151.1,249.3,-102.3,66.0,-60.6,36.0,159.9,-2519.4,860.7,-1040.1,-1423.2,-812.1,182.4,-766.8,321.0,-6.6,-5.7,2538.0,527.7,-0.9,252.6,555.3,-731.7,0,2982,0,245,0, 
1.6600,455.1,-1144.8,254.7,-93.3,70.2,-47.7,45.3,177.0,1333.8,861.3,2363.4,1617.6,-798.9,495.6,3626.1,316.2,-6.9,-6.3,2557.5,550.2,-0.9,267.0,557.7,-684.9,0,2988,0,246,0, 
1.6633,450.9,-1138.8,267.3,-84.3,75.3,-38.4,52.8,173.7,-4223.7,893.7,1302.3,909.9,-972.9,433.8,-2031.3,302.7,-6.9,-6.0,2566.5,544.8,-0.9,280.8,562.5,-674.4,0,2994,0,247,0, 
1.6667,464.1,-1128.9,271.8,-80.4,82.8,-37.5,52.8,153.9,-11781.9,921.9,-2834.7,-2541.6,-1170.0,5.7,-9251.1,270.6,-7.2,-5.7,2539.8,558.9,-1.2,292.5,589.2,-682.8,0,3000,0,248,0, 
1.6700,482.4,-1121.7,261.6,-86.4,76.8,-40.2,57.0,149.7,-10596.3,877.8,-4177.2,-3791.4,-1045.5,-181.5,-8774.1,278.4,-7.2,-5.7,2510.1,558.0,-0.6,281.1,609.6,-665.7,0,3006,0,249,0, 
1.6733,462.0,-1128.0,268.2,-93.6,74.4,-42.3,46.5,156.9,-2667.6,863.4,-1035.6,-1356.6,-934.5,99.6,-923.1,301.2,-6.9,-5.7,2542.5,548.7,-1.2,259.5,546.0,-668.4,0,3012,0,250,0, 
1.6767,454.5,-1146.0,263.1,-101.1,72.9,-52.8,42.6,166.2,1185.6,869.7,2494.8,1551.9,-816.0,510.3,3543.6,320.7,-7.2,-5.7,2547.6,547.5,-0.3,259.5,542.4,-713.4,0,3018,0,251,0, 
1.6800,456.9,-1139.1,258.3,-108.6,65.7,-46.5,60.0,154.5,-4297.8,866.1,1398.0,698.1,-1064.7,441.6,-2056.8,329.4,-6.9,-6.3,2521.5,540.3,-0.3,247.2,605.1,-696.3,0,3024,0,252,0, 
1.6833,467.1,-1125.9,264.9,-102.3,66.0,-63.0,45.9,136.8,-11707.8,886.2,-2757.6,-2830.2,-1115.7,6.6,-9241.2,346.2,-6.9,-5.7,2509.5,533.7,-0.9,280.2,582.6,-693.9,0,3030,0,253,0, 
1.6867,483.6,-1155.6,260.7,-104.4,56.4,-48.3,57.9,130.8,-10744.5,870.3,-4206.6,-4183.5,-986.4,-147.0,-8773.8,330.9,-6.9,-6.0,2513.4,502.8,-0.9,240.3,614.1,-650.1,0,3036,0,254,0, 
1.6900,479.4,-1164.0,263.7,-99.3,61.8,-54.6,44.7,155.7,-2741.7,872.1,-1024.5,-1547.7,-783.3,156.9,-925.5,321.3,-6.6,-6.0,2533.2,531.3,-0.6,279.0,572.1,-680.4,0,3042,0,255,0, 
1.6933,464.7,-1175.1,260.7,-100.2,68.1,-59.7,46.8,169.2,1482.0,873.3,2415.3,1370.4,-699.6,537.3,3557.7,341.4,-6.6,-5.7,2539.8,546.9,-0.6,276.3,556.8,-700.2,0,3048,0,0,0, 
1.6967,458.7,-1187.4,268.5,-89.7,81.6,-54.0,52.5,165.3,-4149.6,894.6,1132.5,522.6,-948.6,462.6,-2076.0,312.3,-6.6,-5.7,2548.8,563.7,-0.3,300.0,573.9,-701.4,0,3054,0,1,0, 
1.7000,467.4,-1178.7,269.4,-93.3,77.4,-67.8,42.0,139.2,-11856.0,905.4,-3049.5,-2987.7,-1129.8,45.3,-9274.8,325.8,-6.9,-5.4,2517.6,546.9,-0.6,280.8,568.8,-754.8,0,3060,0,2,0, 
1.7033,470.7,-1173.3,268.2,-97.5,75.0,-51.3,58.8,139.2,-10818.6,870.9,-4482.3,-4262.1,-1124.1,-162.9,-8766.9,336.9,-6.9,-6.0,2509.2,537.9,-0.6,279.3,619.2,-710.7,0,3066,0,3,0, 
1.7067,481.5,-1135.5,296.7,-79.2,86.1,-29.1,69.0,167.4,-2741.7,900.9,-1281.0,-1608.0,-790.2,136.5,-962.1,331.2,-6.9,-6.0,2543.4,548.7,-1.2,285.6,630.0,-626.7,0,3072,0,4,0, 
1.7100,486.0,-1129.5,291.9,-86.4,79.2,-24.3,63.3,180.6,1333.8,873.3,2152.2,1268.7,-714.6,510.3,3543.3,322.5,-6.6,-6.0,2538.9,544.5,-0.9,287.1,601.8,-580.5,0,3078,0,5,0, 
1.7133,482.4,-1098.9,288.3,-103.5,49.2,-69.9,53.1,161.1,-4371.9,890.1,1130.4,484.2,-1116.3,390.9,-2106.6,342.3,-6.9,-5.4,2525.1,512.7,-1.2,261.9,616.8,-708.0,0,3084,0,6,0, 
1.7167,471.6,-1115.1,298.8,-98.1,54.9,-52.8,53.7,143.4,-11856.0,872.4,-3180.6,-3136.2,-1316.7,-46.2,-9293.7,326.7,-6.9,-6.0,2534.4,511.5,-0.6,266.1,565.8,-668.4,0,3090,0,7,0, 
1.7200,475.8,-1157.7,282.9,-101.4,52.8,-57.0,52.2,137.7,-10892.7,882.9,-4060.8,-4077.6,-1039.5,-168.3,-8807.7,331.5,-6.6,-6.3,2523.0,507.0,-0.6,253.8,590.4,-668.4,0,3096,0,8,0, 
1.7233,472.2,-1188.0,274.8,-105.6,58.5,-56.4,44.7,156.0,-2667.6,903.0,-562.2,-1450.8,-709.8,155.4,-990.0,318.0,-7.2,-5.4,2531.1,522.9,-0.6,259.5,577.8,-663.3,0,3102,0,9,0, 
1.7267,471.0,-1204.5,265.5,-117.6,50.1,-70.5,39.9,156.3,1259.7,880.2,2676.9,1304.4,-661.5,542.7,3559.5,353.1,-7.2,-5.7,2525.4,499.8,-0.9,267.3,543.6,-689.4,0,3108,0,10,0, 
1.7300,477.3,-1209.6,257.7,-125.7,40.2,-74.1,39.6,144.3,-4075.5,854.1,1478.4,378.3,-929.4,487.8,-1999.5,337.5,-6.6,-5.7,2506.5,499.8,-0.6,274.8,561.0,-689.7,0,3114,0,11,0, 
1.7333,469.5,-1183.2,273.9,-111.6,52.2,-76.5,46.5,132.0,-11707.8,885.3,-2780.7,-3007.5,-1182.6,18.9,-9251.4,338.4,-6.9,-5.7,2504.7,521.1,-0.3,297.9,599.1,-719.4,0,3120,0,12,0, 
1.7367,488.4,-1173.6,273.9,-118.2,46.8,-79.8,46.5,125.4,-10744.5,844.8,-4253.4,-4454.7,-1051.5,-173.7,-8786.1,341.7,-6.9,-6.0,2483.4,505.8,-0.6,263.4,614.1,-705.6,0,3126,0,13,0, 
1.7400,477.3,-1153.5,291.6,-106.8,55.8,-75.6,46.8,145.8,-2741.7,875.1,-1041.9,-1821.3,-883.8,78.0,-1029.6,350.4,-6.9,-6.3,2523.6,506.1,-0.3,275.1,594.3,-683.7,0,3132,0,14,0, 
1.7433,476.1,-1145.4,304.8,-96.6,66.9,-71.1,45.3,166.5,1407.9,870.3,2349.9,1113.6,-842.7,521.4,3535.8,325.5,-7.2,-5.7,2549.1,516.0,-0.6,281.7,589.8,-675.0,0,3138,0,15,0, 
1.7467,483.6,-1163.1,296.4,-100.5,63.6,-61.8,57.0,151.5,-4446.0,893.7,989.4,159.6,-948.0,432.0,-2054.7,360.9,-6.9,-6.3,2528.1,515.4,-0.6,259.5,588.6,-645.6,0,3144,0,16,0, 
1.7500,472.2,-1166.7,301.5,-96.0,63.0,-62.4,57.0,138.6,-11856.0,895.8,-3744.0,-3556.2,-1149.6,33.6,-9244.2,349.8,-6.6,-5.4,2520.6,504.6,-0.3,242.1,612.3,-649.2,0,3150,0,17,0, 
1.7533,491.1,-1114.5,323.7,-79.2,84.0,-47.1,61.5,150.0,-10596.3,882.9,-5096.4,-4879.8,-1248.3,-202.5,-8796.9,318.3,-7.2,-6.3,2531.7,515.4,-0.9,286.2,589.8,-645.9,0,3156,0,18,0, 
1.7567,488.1,-1151.1,312.6,-87.6,87.0,-45.6,55.2,167.1,-2667.6,873.0,-1761.6,-2278.5,-777.0,138.9,-1012.5,327.6,-7.2,-5.7,2529.6,519.6,-0.9,270.0,576.3,-607.8,0,3162,0,19,0, 
1.7600,492.0,-1149.6,305.1,-91.8,78.9,-67.2,49.8,178.5,1333.8,893.1,1868.4,895.5,-691.5,497.7,3577.8,333.6,-6.9,-5.7,2535.9,513.6,-0.9,300.0,604.8,-675.6,0,3168,0,20,0, 
1.7633,488.4,-1188.6,282.3,-115.5,54.0,-92.4,45.0,154.5,-4149.6,871.5,734.1,110.1,-939.6,480.9,-2013.9,366.3,-6.9,-6.0,2502.0,469.8,-0.6,270.9,589.2,-734.7,0,3174,0,21,0, 
1.7667,467.1,-1201.5,284.1,-109.2,56.1,-83.4,51.3,131.4,-11707.8,900.6,-3407.7,-3229.2,-1164.9,36.3,-9243.3,350.1,-6.3,-5.7,2491.8,483.9,-0.6,242.7,598.5,-726.3,0,3180,0,22,0, 
1.7700,475.2,-1197.6,288.6,-107.1,64.8,-80.7,49.5,132.3,-10818.6,895.8,-4721.7,-4494.0,-1020.3,-151.8,-8808.0,312.9,-6.6,-6.0,2483.1,484.2,-0.6,248.1,598.8,-732.9,0,3186,0,23,0, 
1.7733,480.9,-1175.7,302.7,-104.7,69.9,-79.8,41.1,149.7,-2741.7,873.9,-1391.4,-1920.3,-776.4,139.5,-1037.7,319.2,-7.5,-6.0,2503.2,488.4,-0.6,256.8,576.6,-684.3,0,3192,0,24,0, 
1.7767,495.6,-1140.9,307.5,-99.6,76.8,-66.3,50.1,171.0,1333.8,861.6,2170.2,1140.0,-621.9,490.5,3559.8,302.4,-6.9,-5.7,2512.2,498.9,-0.9,276.3,606.3,-641.4,0,3198,0,25,0, 
1.7800,483.6,-1151.1,295.5,-109.2,72.3,-73.2,64.5,155.1,-4446.0,845.4,1186.8,473.1,-1035.6,390.9,-2114.1,345.3,-7.2,-5.4,2482.5,504.9,-0.9,276.0,651.0,-690.6,0,3204,0,26,0, 
1.7833,477.9,-1159.5,301.5,-102.6,64.5,-81.3,45.3,135.0,-11856.0,861.6,-2893.5,-2994.0,-1290.0,-6.0,-9263.1,321.0,-6.9,-6.0,2472.0,501.9,-1.2,273.0,575.4,-731.7,0,3210,0,27,0, 
1.7867,479.7,-1160.7,304.5,-100.8,63.3,-81.6,47.1,135.6,-10818.6,892.2,-4400.7,-4310.1,-1128.0,-142.5,-8806.8,318.0,-6.9,-6.0,2475.9,488.7,-0.9,261.6,595.5,-714.9,0,3216,0,28,0, 
1.7900,489.9,-1158.6,318.9,-91.8,74.4,-66.6,44.4,161.1,-2593.5,886.5,-1108.5,-1626.9,-844.2,135.6,-1002.6,319.8,-6.9,-6.3,2511.9,499.8,-0.9,249.3,554.4,-651.0,0,3222,0,29,0, 
1.7933,481.8,-1156.2,309.3,-98.7,72.9,-64.5,46.2,177.3,1407.9,855.0,2361.6,1391.1,-899.7,516.9,3567.9,321.0,-6.9,-6.0,2504.7,495.6,-0.6,241.2,556.5,-619.2,0,3228,0,30,0, 
1.7967,479.7,-1178.4,298.8,-98.4,76.2,-49.8,61.2,166.8,-4223.7,882.9,1083.6,552.0,-926.7,448.2,-1968.0,321.0,-6.9,-6.0,2489.4,506.4,-0.6,249.9,558.0,-632.1,0,3234,0,31,0, 
1.8000,470.1,-1203.0,291.0,-106.5,79.5,-53.4,57.6,138.6,-11707.8,851.4,-3096.6,-2860.5,-1138.2,22.8,-9219.3,327.9,-7.2,-6.0,2463.9,511.5,-0.6,249.9,595.8,-620.4,0,3240,0,32,0, 
1.8033,470.4,-1214.7,283.2,-116.1,66.3,-80.7,39.9,129.0,-10670.4,843.3,-4599.9,-4145.7,-1099.8,-160.5,-8802.6,340.2,-7.2,-6.0,2442.6,485.1,-0.6,264.0,602.1,-720.3,0,3246,0,33,0, 
1.8067,472.8,-1185.6,303.6,-107.7,72.0,-77.7,37.5,152.1,-2667.6,882.9,-1342.2,-1514.4,-812.7,165.3,-941.4,321.6,-7.2,-6.3,2482.8,486.3,-1.2,252.9,563.4,-681.9,0,3252,0,34,0, 
1.8100,475.8,-1171.2,316.8,-100.8,78.0,-66.3,42.3,171.3,1407.9,888.3,2245.8,1516.8,-689.4,554.7,3635.7,333.9,-7.2,-5.7,2508.3,501.0,-0.6,249.6,560.4,-665.7,0,3258,0,35,0, 
1.8133,470.1,-1190.1,302.1,-112.8,63.9,-71.1,52.8,153.0,-4149.6,869.4,1059.0,735.6,-947.7,470.7,-1913.4,347.7,-6.9,-6.3,2483.4,486.9,-0.6,246.0,609.3,-748.8,0,3264,0,36,0, 
1.8167,474.3,-1186.5,299.1,-111.0,64.8,-81.3,47.1,128.1,-11411.4,865.2,-3073.2,-2638.2,-1206.6,46.8,-9179.1,334.5,-6.9,-5.7,2449.5,488.4,-0.9,240.0,620.4,-752.1,0,3270,0,37,0, 
1.8200,486.9,-1158.9,300.0,-117.0,59.4,-97.2,26.7,119.4,-10744.5,870.6,-4615.5,-3986.1,-1081.8,-173.1,-8770.8,324.6,-7.2,-5.7,2433.9,480.6,-0.6,240.0,570.6,-749.1,0,3276,0,38,0, 
1.8233,476.7,-1171.8,294.9,-116.7,67.2,-75.9,39.6,138.6,-2519.4,847.2,-1359.6,-1350.6,-857.1,160.8,-916.5,329.7,-7.2,-5.7,2442.6,496.2,-0.3,242.7,598.8,-698.7,0,3282,0,39,0, 
1.8267,489.3,-1157.4,311.7,-105.0,75.6,-56.1,48.0,165.6,1407.9,881.4,2166.6,1693.8,-804.0,506.1,3613.8,319.8,-6.9,-5.7,2469.9,498.0,-0.9,272.1,592.8,-611.1,0,3288,0,40,0, 
1.8300,483.9,-1140.3,313.2,-98.7,79.5,-51.0,55.2,161.1,-4149.6,888.9,1110.0,984.6,-1069.2,435.3,-1938.6,319.5,-7.2,-5.7,2462.4,507.9,-0.3,262.8,593.1,-614.7,0,3294,0,41,0, 
1.8333,467.4,-1181.1,313.2,-92.4,84.3,-57.3,48.6,139.8,-11707.8,895.8,-2871.3,-2443.2,-1179.0,38.1,-9185.7,324.3,-6.9,-6.0,2451.9,519.0,-0.9,294.0,585.3,-657.0,0,3300,0,42,0, 
1.8367,492.3,-1184.4,290.7,-104.4,80.1,-57.3,48.3,130.2,-10744.5,852.3,-4317.3,-3814.8,-1037.4,-160.5,-8807.7,339.6,-6.9,-5.7,2409.6,510.3,-0.6,286.2,588.3,-643.5,0,3306,0,43,0, 
1.8400,472.2,-1165.2,314.4,-89.4,94.2,-56.7,50.4,159.6,-2593.5,888.6,-992.1,-1103.4,-784.8,94.5,-948.3,304.5,-7.2,-6.0,2472.0,504.0,-0.9,282.0,562.5,-640.5,0,3312,0,44,0, 
1.8433,459.0,-1167.9,306.3,-100.5,85.5,-51.3,54.6,166.8,1482.0,870.0,2469.0,1882.5,-847.2,509.4,3600.3,349.5,-7.5,-6.0,2473.5,512.1,-0.6,249.9,574.2,-591.0,0,3318,0,45,0, 
1.8467,452.1,-1179.0,302.1,-105.0,82.8,-74.1,39.6,156.0,-4223.7,892.8,1461.6,1217.1,-1000.5,423.9,-1940.1,341.4,-6.9,-6.0,2460.0,520.8,-0.3,286.5,604.8,-697.2,0,3324,0,46,0, 
1.8500,447.6,-1194.9,298.2,-112.2,78.3,-77.1,47.7,125.1,-11633.7,871.5,-2727.9,-2232.9,-1203.9,10.8,-9166.2,360.3,-6.9,-5.7,2434.5,514.2,-0.6,274.2,623.1,-737.1,0,3330,0,47,0, 
1.8533,466.5,-1189.5,307.5,-104.4,80.1,-77.4,38.4,126.6,-10596.3,891.0,-4164.6,-3631.2,-1034.4,-144.3,-8785.2,324.9,-6.9,-6.0,2442.0,507.6,-0.9,283.5,595.8,-717.9,0,3336,0,48,0, 
1.8567,462.6,-1200.0,302.4,-110.7,72.0,-81.3,38.7,137.7,-2741.7,904.8,-843.3,-1125.0,-789.3,131.1,-950.1,332.4,-7.2,-6.0,2444.1,481.5,-0.6,273.9,627.0,-680.7,0,3342,0,49,0, 
1.8600,467.7,-1187.1,303.9,-103.2,81.6,-76.8,36.0,162.3,1482.0,924.6,2674.8,1894.5,-771.0,538.8,3618.0,323.7,-7.2,-6.0,2463.9,486.6,-0.9,274.5,572.4,-681.9,0,3348,0,50,0, 
1.8633,468.6,-1167.9,305.1,-106.5,79.2,-75.0,42.9,151.2,-4075.5,888.9,1628.4,1168.2,-1017.3,481.5,-1871.1,334.8,-6.9,-6.0,2456.7,486.0,-0.6,272.1,555.0,-673.8,0,3354,0,51,0, 
1.8667,469.8,-1176.0,303.0,-101.1,87.9,-72.3,46.5,133.8,-11559.6,903.9,-2487.3,-2292.9,-1182.6,58.2,-9133.5,326.1,-7.2,-5.7,2435.7,489.9,0.0,266.4,577.5,-673.5,0,3360,0,52,0, 
1.8700,468.3,-1187.7,301.5,-104.4,78.0,-90.0,37.5,126.0,-10670.4,881.1,-3962.1,-3723.0,-1026.9,-153.3,-8768.1,335.7,-6.9,-5.7,2428.8,474.3,-0.9,234.6,554.7,-709.5,0,3366,0,53,0, 
1.8733,453.0,-1197.0,298.8,-106.8,78.0,-83.4,43.2,146.4,-2667.6,858.0,-700.8,-1082.7,-879.0,140.1,-948.3,340.2,-6.6,-5.7,2442.9,490.2,-0.9,235.5,607.8,-682.8,0,3372,0,54,0, 
1.8767,494.4,-1143.0,316.2,-97.5,80.7,-87.9,30.3,172.2,1407.9,873.6,2811.6,1878.9,-641.7,550.5,3603.0,292.8,-6.9,-6.0,2468.4,503.7,-0.3,282.0,547.5,-714.6,0,3378,0,55,0, 
1.8800,468.0,-1158.0,285.9,-115.8,76.5,-67.2,59.1,156.0,-4297.8,817.5,1754.1,1171.5,-1107.6,386.7,-1938.0,342.6,-6.6,-5.7,2397.6,507.0,-0.9,268.8,631.5,-650.4,0,3384,0,56,0, 
1.8833,461.7,-1160.1,290.7,-111.9,78.0,-78.6,54.9,136.5,-11707.8,837.0,-2419.8,-2288.7,-1386.9,-22.2,-9185.1,323.4,-6.9,-5.4,2391.6,501.0,-0.3,274.5,589.2,-711.0,0,3390,0,57,0, 
1.8867,459.3,-1162.2,309.0,-103.2,80.1,-78.3,36.9,138.3,-10818.6,858.3,-3944.4,-3739.2,-1208.4,-183.3,-8827.5,325.8,-6.9,-6.0,2417.1,496.8,-0.9,256.2,563.4,-650.4,0,3396,0,58,0, 
1.8900,472.8,-1163.7,328.2,-88.5,89.1,-78.0,35.7,164.1,-2741.7,901.8,-648.6,-1207.2,-785.4,165.6,-993.0,326.1,-6.9,-6.0,2467.8,501.3,-0.6,254.4,546.9,-665.7,0,3402,0,59,0, 
1.8933,472.5,-1175.7,325.2,-92.4,86.4,-78.0,48.3,180.0,1333.8,902.7,2886.9,1749.3,-702.9,552.9,3585.0,336.3,-7.2,-5.7,2466.0,493.5,-0.9,261.9,560.7,-718.2,0,3408,0,60,0, 
1.8967,465.3,-1204.5,297.0,-110.7,73.5,-71.1,62.7,157.2,-4149.6,876.0,1752.6,988.5,-948.6,483.6,-1943.7,347.4,-7.5,-5.7,2435.7,486.9,-0.9,241.5,635.4,-669.6,0,3414,0,61,0, 
1.9000,479.7,-1176.6,313.5,-103.2,78.0,-76.8,47.7,141.9,-11633.7,891.3,-2353.5,-2373.0,-1113.9,80.1,-9172.5,330.0,-6.9,-5.4,2434.5,484.8,-0.9,232.5,565.2,-660.9,0,3420,0,62,0, 
1.9033,470.7,-1199.1,309.3,-98.7,82.2,-80.1,40.8,140.7,-10966.8,892.8,-3955.2,-3739.5,-1038.3,-162.9,-8870.7,327.0,-7.2,-5.4,2436.9,496.2,-0.6,276.3,564.9,-723.9,0,3426,0,63,0, 
1.9067,477.3,-1179.3,310.5,-94.2,99.9,-57.6,52.2,164.7,-2667.6,876.9,-738.0,-1205.4,-782.1,137.7,-1091.4,329.1,-7.2,-6.0,2445.6,505.2,-0.3,270.0,585.3,-657.0,0,3432,0,64,0, 
1.9100,484.5,-1176.0,311.7,-97.8,98.4,-60.6,51.9,181.5,1407.9,862.5,2824.2,1800.0,-747.0,540.0,3513.3,322.5,-7.2,-6.0,2460.9,504.9,-0.6,267.6,570.3,-690.0,0,3438,0,65,0, 
1.9133,477.9,-1175.1,304.5,-102.0,82.8,-68.4,57.9,166.5,-4223.7,868.8,1801.8,1014.6,-1029.9,475.8,-1973.7,357.9,-7.2,-5.7,2436.9,501.6,-0.9,269.1,597.0,-723.0,0,3444,0,66,0, 
1.9167,479.1,-1159.8,309.6,-101.7,79.5,-68.4,60.0,148.5,-11707.8,897.3,-2433.0,-2422.2,-1220.1,67.2,-9225.6,333.3,-7.5,-5.7,2418.6,479.7,-0.9,260.4,615.3,-705.9,0,3450,0,67,0, 
1.9200,493.2,-1169.1,293.1,-112.8,63.3,-90.6,48.0,136.8,-10744.5,843.3,-3981.9,-3915.0,-1046.7,-130.8,-8866.5,382.2,-6.6,-6.0,2382.9,462.0,-0.6,225.0,589.8,-719.4,0,3456,0,68,0, 
1.9233,474.9,-1150.2,318.9,-97.2,87.6,-68.7,50.1,165.6,-2889.9,871.5,-852.6,-1331.7,-918.6,135.9,-1128.0,336.9,-7.2,-6.0,2423.4,494.1,-0.6,239.1,606.0,-635.4,0,3462,0,69,0, 
1.9267,479.4,-1120.5,346.8,-76.2,110.4,-53.7,57.9,194.1,1333.8,876.9,2829.3,1664.7,-827.7,510.3,3434.7,309.0,-7.2,-6.0,2461.8,522.9,-0.9,275.4,575.4,-624.6,0,3468,0,70,0, 
1.9300,467.7,-1141.2,313.8,-96.9,97.2,-50.4,60.9,173.7,-4149.6,869.7,1701.6,854.4,-1157.1,412.5,-2050.2,324.0,-7.2,-5.4,2424.9,515.4,-0.9,263.4,560.4,-636.9,0,3474,0,71,0, 
1.9333,480.3,-1137.0,307.8,-102.6,94.8,-68.1,52.5,148.5,-11856.0,852.6,-2430.0,-2613.0,-1259.4,24.0,-9245.7,333.9,-7.2,-5.7,2393.1,515.4,-0.6,281.1,590.1,-662.4,0,3480,0,72,0, 
1.9367,473.1,-1159.8,294.6,-115.8,77.7,-76.5,50.4,135.9,-10892.7,844.8,-4014.6,-3963.0,-1091.1,-191.4,-8902.8,350.1,-6.6,-5.7,2370.6,483.6,-1.2,257.1,610.8,-670.5,0,3486,0,73,0, 
1.9400,480.9,-1161.0,295.2,-114.9,83.4,-70.8,45.3,157.5,-2889.9,834.3,-743.1,-1416.3,-761.4,103.2,-1241.1,310.8,-6.9,-6.0,2378.4,465.9,-1.2,259.5,562.8,-671.4,0,3492,0,74,0, 
1.9433,449.4,-1215.3,293.1,-105.3,94.8,-58.5,55.2,176.1,1185.6,887.7,2679.9,1545.6,-683.4,456.3,3431.7,329.1,-7.5,-5.7,2414.1,484.5,-0.6,260.4,584.4,-647.1,0,3498,0,75,0, 
1.9467,457.8,-1194.6,310.8,-95.7,98.4,-70.8,46.8,167.1,-4297.8,907.8,1748.7,806.1,-965.7,441.6,-2056.8,323.1,-7.2,-6.0,2449.5,525.9,-0.6,251.7,575.4,-678.6,0,3504,0,76,0, 
1.9500,464.1,-1178.1,314.4,-93.0,99.0,-66.0,51.9,145.2,-11781.9,904.5,-2498.1,-2665.2,-1184.1,-10.5,-9256.8,338.7,-6.6,-6.0,2435.7,529.5,-0.6,282.6,581.4,-689.4,0,3510,0,77,0, 
1.9533,462.9,-1179.6,319.2,-95.7,105.0,-56.1,57.6,145.2,-10966.8,886.8,-4048.2,-4093.2,-1076.4,-180.9,-8920.5,341.7,-6.9,-5.7,2425.8,534.0,-0.6,300.0,587.1,-710.4,0,3516,0,78,0, 
1.9567,480.3,-1169.1,304.5,-107.1,89.4,-68.7,52.5,157.2,-2741.7,881.1,-932.7,-1536.6,-804.3,169.5,-1264.2,340.2,-6.9,-6.3,2409.9,520.2,-0.9,291.0,601.2,-721.5,0,3522,0,79,0, 
1.9600,474.0,-1169.7,291.9,-120.3,70.5,-79.5,52.2,165.6,1185.6,853.2,2507.7,1442.4,-742.5,504.0,3432.9,334.2,-6.6,-6.0,2415.6,495.9,-0.3,244.2,647.7,-701.7,0,3528,0,80,0, 
1.9633,483.9,-1146.0,305.7,-105.0,82.5,-62.7,53.7,164.4,-4297.8,897.3,1437.6,704.7,-1077.9,486.6,-2082.6,338.4,-7.2,-5.7,2431.5,498.9,-0.3,247.5,575.4,-665.4,0,3534,0,81,0, 
1.9667,485.4,-1122.3,314.7,-99.6,78.6,-73.2,55.8,140.7,-11781.9,851.7,-2635.2,-2698.5,-1186.2,-13.8,-9269.4,350.4,-7.2,-6.0,2417.4,489.6,-0.6,248.4,605.7,-677.1,0,3540,0,82,0, 
1.9700,474.3,-1163.1,310.5,-93.3,100.5,-52.2,57.0,139.8,-11040.9,883.2,-4232.1,-4132.2,-1233.9,-199.5,-8943.9,344.7,-7.2,-6.0,2410.2,515.7,-0.9,261.0,593.1,-622.2,0,3546,0,83,0, 
1.9733,477.0,-1175.7,306.9,-96.9,101.4,-62.7,50.7,154.5,-3038.1,895.5,-1036.8,-1571.4,-830.7,152.4,-1302.9,324.6,-7.2,-5.7,2412.6,523.5,-0.6,279.9,550.5,-677.4,0,3552,0,84,0, 
1.9767,489.9,-1164.6,306.6,-104.1,97.2,-63.0,53.7,169.2,1259.7,874.5,2484.6,1374.9,-654.3,533.7,3404.7,339.6,-6.9,-5.7,2423.4,515.1,-0.6,283.5,585.9,-661.5,0,3558,0,85,0, 
1.9800,483.6,-1169.4,314.4,-96.9,99.6,-69.3,53.1,164.7,-4223.7,859.5,2109.3,1174.5,-990.6,445.5,-2126.7,326.7,-6.3,-5.4,2426.7,515.1,-0.6,295.2,587.7,-701.7,0,3564,0,86,0, 
1.9833,469.8,-1195.5,298.8,-104.1,95.1,-69.3,54.3,139.2,-11781.9,876.6,-2217.9,-2509.2,-1182.6,20.4,-9268.5,358.5,-6.9,-5.4,2376.3,520.8,-0.6,298.5,621.9,-707.1,0,3570,0,87,0, 
1.9867,475.5,-1176.3,316.2,-103.8,90.0,-71.4,54.3,141.6,-10892.7,898.5,-3877.8,-4037.4,-1073.4,-145.2,-8935.8,353.7,-6.6,-5.7,2395.8,497.1,-0.9,267.6,584.1,-687.6,0,3576,0,88,0, 
1.9900,476.4,-1184.7,308.7,-111.0,75.9,-93.0,43.5,155.4,-2964.0,895.8,-799.5,-1701.0,-753.9,169.2,-1317.0,342.9,-7.2,-5.7,2400.6,480.9,-0.6,246.9,590.1,-755.4,0,3582,0,89,0, 
1.9933,484.8,-1165.5,314.1,-101.4,87.3,-85.2,48.6,176.1,1333.8,904.5,2736.6,1302.3,-714.0,565.2,3425.1,340.2,-7.2,-6.0,2423.7,495.0,-0.6,267.6,579.9,-762.6,0,3588,0,90,0, 
1.9967,486.3,-1150.5,310.8,-103.8,100.2,-60.3,61.2,170.7,-4371.9,894.6,1651.8,627.9,-983.4,472.2,-2133.3,330.6,-6.9,-6.0,2394.3,505.2,-0.9,271.2,591.6,-649.2,0,3594,0,91,0, 
2.0000,498.0,-1132.2,313.2,-101.4,94.8,-58.2,64.8,153.0,-11781.9,863.4,-2639.7,-2835.3,-1172.1,17.1,-9272.7,329.7,-6.9,-5.7,2377.8,504.9,-0.6,243.9,602.7,-642.6,0,3600,0,92,0, 
2.0033,473.7,-1160.7,315.6,-108.3,93.3,-55.5,65.1,140.1,-11115.0,883.5,-4223.7,-4196.7,-1201.8,-215.1,-9000.6,340.5,-6.6,-6.0,2403.3,497.4,-0.9,266.4,604.8,-648.6,0,3606,0,93,0, 
2.0067,477.0,-1165.2,291.6,-123.9,85.8,-61.8,66.3,150.9,-3112.2,867.6,-956.1,-1722.6,-892.2,105.9,-1394.4,368.7,-6.9,-5.7,2382.3,490.2,-0.3,265.8,615.6,-659.4,0,3612,0,94,0, 
2.0100,493.8,-1147.8,298.8,-118.2,85.5,-71.7,58.5,172.2,1259.7,869.4,2081.7,767.7,-799.5,527.7,3428.7,353.1,-6.6,-6.0,2383.8,496.2,-0.6,276.0,601.2,-683.4,0,3618,0,95,0, 
2.0133,492.9,-1157.7,287.4,-119.1,83.7,-60.3,56.7,160.2,-4297.8,855.3,975.3,90.3,-1137.3,447.0,-2185.8,343.5,-6.9,-5.7,2355.0,506.7,-0.9,276.3,577.8,-658.8,0,3624,0,96,0, 
2.0167,480.6,-1153.5,297.3,-110.1,99.0,-53.4,58.8,143.4,-11930.1,869.7,-3180.9,-3177.0,-1290.9,-16.8,-9299.7,326.7,-7.2,-5.7,2363.1,505.5,-1.2,304.5,597.6,-655.2,0,3630,0,97,0, 
2.0200,477.6,-1173.9,295.2,-110.4,100.5,-52.2,57.3,135.9,-11115.0,867.9,-4731.9,-4655.7,-993.3,-183.6,-9013.8,349.5,-6.9,-6.0,2372.7,499.8,-0.6,267.6,573.6,-620.1,0,3636,0,98,0, 
2.0233,483.3,-1182.0,285.0,-118.5,92.1,-62.7,53.4,150.9,-3038.1,841.5,-1404.9,-2034.0,-677.1,124.5,-1450.8,338.7,-6.9,-6.0,2374.2,492.9,-0.9,269.1,593.4,-659.7,0,3642,0,99,0, 
2.0267,472.5,-1203.0,274.8,-125.1,85.5,-78.0,46.2,163.8,1111.5,872.4,2074.2,943.8,-769.5,519.0,3329.4,335.4,-6.9,-5.7,2391.6,488.7,-0.6,271.5,598.8,-714.9,0,3648,0,100,0, 
2.0300,495.6,-1163.4,297.6,-114.6,85.5,-79.5,50.1,160.8,-4446.0,900.0,1101.0,264.0,-954.0,470.7,-2202.6,328.5,-6.9,-5.4,2409.6,488.4,-0.9,254.4,585.0,-725.7,0,3654,0,101,0, 
2.0333,497.4,-1170.9,280.5,-128.1,82.8,-76.2,48.9,137.1,-11930.1,889.8,-3037.5,-3108.3,-1198.2,21.6,-9277.2,334.8,-6.9,-6.0,2384.4,482.1,-0.6,240.6,580.5,-697.2,0,3660,0,102,0, 
2.0367,489.3,-1154.7,292.5,-118.2,94.8,-66.3,62.1,141.6,-11189.1,852.6,-4545.3,-4470.6,-1264.2,-203.7,-9075.6,345.6,-6.9,-5.4,2380.8,501.0,-0.6,274.8,597.6,-709.8,0,3666,0,103,0, 
2.0400,472.5,-1183.5,271.2,-127.2,84.0,-66.9,59.1,151.5,-3112.2,862.8,-1344.0,-1912.2,-835.5,119.7,-1507.5,361.8,-6.9,-5.7,2364.0,489.9,-0.9,268.8,589.5,-712.5,0,3672,0,104,0, 
2.0433,482.4,-1193.7,285.3,-114.6,87.9,-72.3,53.1,173.1,1111.5,889.8,2178.9,1132.8,-768.3,532.5,3296.7,352.2,-7.2,-6.0,2404.8,486.3,-0.6,277.5,573.0,-692.4,0,3678,0,105,0, 
2.0467,479.4,-1158.0,294.9,-107.4,91.5,-58.5,59.4,168.3,-4520.1,903.0,1124.7,429.3,-1083.0,461.7,-2247.6,334.8,-7.2,-5.7,2391.9,485.1,-0.6,261.3,597.9,-652.5,0,3684,0,106,0, 
2.0500,487.8,-1162.8,273.6,-127.2,68.1,-72.6,54.0,134.7,-11856.0,851.4,-3044.7,-2977.8,-1098.6,45.3,-9280.8,366.3,-7.2,-6.0,2343.6,455.4,-0.9,250.8,625.2,-643.8,0,3690,0,107,0, 
2.0533,478.8,-1173.3,300.6,-105.3,101.1,-36.6,66.6,144.9,-11115.0,879.3,-4588.2,-4395.0,-1127.7,-189.9,-9093.0,334.8,-7.2,-5.7,2379.0,498.0,-0.9,257.1,617.1,-544.8,0,3696,0,108,0, 
2.0567,487.8,-1159.5,297.9,-108.0,97.2,-48.6,70.2,160.5,-3112.2,877.5,-1402.8,-1887.3,-847.5,138.3,-1540.8,354.3,-6.6,-5.7,2394.3,498.0,-0.6,270.3,615.3,-663.0,0,3702,0,109,0, 
2.0600,485.4,-1165.5,299.7,-106.5,96.9,-65.4,54.3,180.6,1111.5,866.7,2212.2,1156.5,-709.8,523.8,3304.2,330.6,-6.9,-6.0,2400.0,504.3,-0.9,271.5,561.3,-716.4,0,3708,0,110,0, 
2.0633,488.7,-1157.1,304.8,-105.6,91.2,-81.9,46.2,168.3,-4371.9,892.5,1164.3,444.6,-896.7,452.1,-2207.4,328.2,-6.9,-6.3,2401.5,498.6,-0.6,285.3,586.2,-771.9,0,3714,0,111,0, 
2.0667,479.4,-1143.3,306.0,-107.1,87.6,-75.0,56.1,143.1,-12078.3,886.8,-2932.2,-2920.8,-1224.3,-39.9,-9301.5,360.6,-6.9,-6.0,2380.2,499.5,-0.6,291.0,596.7,-753.0,0,3720,0,112,0, 
2.0700,469.5,-1169.4,299.7,-107.7,91.8,-79.5,51.6,133.5,-11040.9,873.0,-4626.6,-4500.6,-1153.8,-176.1,-9066.9,362.7,-6.6,-5.7,2362.8,503.1,-0.9,281.1,582.9,-752.7,0,3726,0,113,0, 
2.0733,471.9,-1173.3,288.6,-112.2,94.2,-68.4,52.5,155.1,-3038.1,876.0,-1441.2,-1950.0,-890.7,132.6,-1511.4,337.5,-6.9,-5.4,2378.1,499.8,-0.9,276.6,597.3,-702.0,0,3732,0,114,0, 
2.0767,474.9,-1176.3,288.6,-113.1,98.7,-53.4,63.9,173.4,1111.5,857.7,2161.8,1033.8,-702.9,511.5,3282.9,343.5,-7.2,-6.0,2388.6,500.7,-0.6,269.7,603.0,-621.3,0,3738,0,115,0, 
2.0800,477.9,-1180.2,282.0,-114.3,100.8,-47.7,69.9,168.3,-4371.9,855.9,1270.5,405.3,-901.8,429.3,-2206.8,357.9,-7.5,-6.0,2378.1,498.9,-0.6,274.5,597.0,-603.9,0,3744,0,116,0, 
2.0833,466.8,-1174.2,299.1,-103.2,104.1,-46.5,72.6,152.7,-11856.0,870.9,-2924.4,-2999.4,-1277.7,8.4,-9271.2,342.3,-6.9,-5.7,2367.6,491.7,-0.6,282.6,597.6,-628.5,0,3750,0,117,0, 
2.0867,467.4,-1154.7,311.4,-95.4,107.4,-31.2,81.0,151.2,-11263.2,888.6,-4459.2,-4453.5,-1214.4,-198.3,-9088.8,342.3,-6.6,-5.4,2384.4,509.1,-0.9,301.8,623.1,-601.8,0,3756,0,118,0, 
2.0900,478.5,-1164.0,301.2,-104.4,91.8,-71.1,58.8,161.7,-3112.2,880.8,-1220.1,-1833.0,-859.8,167.7,-1503.9,357.9,-7.2,-6.0,2376.9,498.3,-0.9,277.5,594.3,-719.4,0,3762,0,119,0, 
2.0933,483.3,-1172.4,300.9,-100.8,95.1,-59.7,60.9,178.8,1185.6,885.6,2272.2,1144.5,-637.5,546.0,3324.6,326.1,-6.9,-6.0,2396.1,507.0,-0.6,251.7,598.5,-690.3,0,3768,0,120,0, 
2.0967,484.8,-1150.8,315.3,-95.1,97.8,-63.9,59.7,172.5,-4297.8,911.7,1317.6,443.7,-884.4,476.4,-2140.2,329.7,-7.2,-6.0,2404.2,501.9,-0.9,272.4,583.2,-687.9,0,3774,0,121,0, 
2.1000,478.5,-1155.0,307.8,-100.5,100.2,-72.9,60.6,149.4,-11930.1,886.8,-2905.2,-2957.4,-1168.5,38.7,-9253.2,334.2,-6.9,-6.0,2359.5,509.4,-0.9,287.4,613.8,-743.7,0,3780,0,122,0, 
2.1033,486.6,-1130.7,318.9,-100.5,95.1,-72.3,59.1,148.2,-11189.1,886.5,-4515.6,-4360.8,-1240.5,-183.0,-9081.0,342.0,-6.9,-5.7,2381.4,496.5,-0.6,277.2,591.0,-719.7,0,3786,0,123,0, 
2.1067,477.9,-1148.4,294.9,-111.9,89.4,-56.7,73.5,159.9,-3186.3,864.6,-1335.0,-1815.9,-934.2,138.9,-1523.7,359.7,-6.9,-6.0,2384.4,495.9,-0.3,252.0,614.7,-670.8,0,3792,0,124,0, 
2.1100,474.6,-1171.2,285.6,-114.3,88.5,-58.2,80.4,173.4,1037.4,870.0,2267.4,1218.9,-767.7,541.8,3304.2,351.6,-7.2,-6.0,2400.6,491.7,-0.6,267.0,651.9,-665.1,0,3798,0,125,0, 
2.1133,492.6,-1168.8,278.1,-125.7,73.2,-88.8,51.0,159.3,-4297.8,858.6,1234.5,527.7,-888.6,516.6,-2095.2,350.4,-7.2,-5.7,2364.6,469.5,-0.9,233.1,574.8,-668.4,0,3804,0,126,0, 
2.1167,480.6,-1158.9,292.8,-107.7,93.0,-71.1,66.6,151.8,-12004.2,875.1,-3114.9,-2909.7,-1140.0,8.7,-9226.8,342.6,-6.9,-6.0,2357.1,492.3,-0.6,276.3,583.2,-706.2,0,3810,0,127,0, 
2.1200,473.7,-1188.6,276.0,-111.9,87.6,-81.0,61.5,144.0,-11189.1,842.1,-4574.7,-4336.5,-1122.6,-169.8,-9069.3,349.8,-6.9,-5.4,2349.0,494.7,-0.9,305.7,607.8,-755.7,0,3816,0,128,0, 
2.1233,482.1,-1161.3,285.9,-108.0,94.8,-64.2,64.5,165.0,-2964.0,857.4,-1230.9,-1842.6,-795.0,123.9,-1494.6,327.0,-7.2,-6.0,2366.7,498.0,-1.2,282.6,561.3,-669.0,0,3822,0,129,0, 
2.1267,472.5,-1180.8,276.6,-117.9,89.1,-74.7,55.5,171.6,963.3,843.0,2337.3,1225.8,-825.9,502.2,3293.1,349.5,-6.9,-5.7,2364.6,495.6,-1.2,283.8,579.6,-689.7,0,3828,0,130,0, 
2.1300,466.2,-1168.5,273.6,-123.3,81.3,-82.8,64.8,159.6,-4297.8,846.0,1308.9,549.9,-1045.2,429.6,-2133.9,350.4,-6.6,-6.3,2360.7,488.1,-0.9,246.6,631.2,-726.6,0,3834,0,131,0, 
2.1333,465.0,-1191.0,273.3,-118.5,81.9,-73.5,54.3,136.8,-11781.9,884.1,-2826.0,-2769.9,-1185.6,45.3,-9236.1,326.7,-7.2,-5.7,2351.1,478.8,-0.9,249.3,570.3,-675.0,0,3840,0,132,0, 
2.1367,465.6,-1201.8,281.7,-112.2,87.9,-48.6,70.8,134.4,-11115.0,900.3,-4417.5,-4249.5,-1098.6,-171.0,-9087.6,331.8,-7.2,-5.4,2362.2,476.1,-0.6,230.7,606.3,-608.4,0,3846,0,133,0, 
2.1400,468.9,-1176.9,286.5,-112.5,85.5,-72.6,57.3,156.0,-3186.3,898.5,-1245.6,-1754.7,-850.8,137.1,-1526.1,339.3,-6.9,-6.0,2371.2,472.8,-0.6,235.8,606.9,-684.9,0,3852,0,134,0, 
2.1433,476.7,-1160.7,294.0,-106.8,83.4,-84.0,55.5,171.9,1037.4,863.4,2236.8,1330.2,-687.3,533.4,3320.1,351.3,-7.2,-6.0,2397.6,490.2,-0.6,242.1,582.3,-711.6,0,3858,0,135,0, 
2.1467,473.4,-1185.0,264.9,-115.2,89.7,-73.8,57.0,159.3,-4297.8,865.2,1314.3,796.2,-980.4,485.4,-2083.2,333.9,-7.2,-5.7,2353.5,506.7,-0.6,291.9,573.0,-713.1,0,3864,0,136,0, 
2.1500,469.5,-1177.8,258.0,-122.4,79.5,-55.5,69.0,139.5,-11781.9,865.8,-2890.5,-2784.3,-1198.8,61.8,-9246.9,345.3,-7.2,-6.0,2317.5,494.4,-1.2,303.6,620.4,-602.4,0,3870,0,137,0, 
2.1533,476.1,-1172.4,264.9,-121.2,80.7,-76.8,51.3,134.1,-11189.1,848.1,-3886.8,-3730.8,-1149.9,-166.5,-9096.0,351.3,-7.2,-6.0,2330.1,501.0,-0.6,282.0,564.9,-690.6,0,3876,0,138,0, 
2.1567,471.9,-1167.6,266.1,-124.2,73.2,-81.9,57.3,152.4,-3038.1,857.1,-513.9,-1131.6,-1053.9,129.3,-1537.8,341.7,-6.6,-6.0,2343.9,491.4,-0.6,271.2,601.2,-745.2,0,3882,0,139,0, 
2.1600,486.0,-1140.0,283.2,-119.4,71.1,-94.5,47.4,170.7,1111.5,879.6,2765.4,1721.4,-619.2,522.6,3335.1,324.9,-6.9,-5.7,2370.3,478.2,-0.6,254.1,576.9,-749.4,0,3888,0,140,0, 
2.1633,477.3,-1173.6,251.4,-132.0,59.4,-88.2,52.5,158.4,-4223.7,854.7,1751.7,1065.0,-970.2,477.3,-2086.8,359.1,-6.9,-6.0,2322.3,472.2,-0.6,223.5,569.1,-680.4,0,3894,0,141,0, 
2.1667,465.3,-1177.5,265.5,-118.8,67.8,-89.4,45.9,140.4,-11856.0,878.4,-2525.7,-2451.0,-1242.0,-8.4,-9262.5,321.3,-6.9,-6.0,2330.1,484.5,-0.6,273.3,564.9,-771.3,0,3900,0,142,0, 
2.1700,466.5,-1179.6,256.8,-124.2,69.6,-82.2,65.4,134.7,-10966.8,846.6,-4230.9,-3934.5,-1124.7,-175.5,-9057.3,361.5,-6.3,-5.7,2316.9,482.7,-0.9,243.9,635.7,-735.9,0,3906,0,143,0, 
2.1733,459.0,-1190.1,255.0,-125.1,78.9,-64.2,67.5,153.3,-3038.1,832.2,-973.2,-1385.1,-852.0,128.4,-1513.5,341.1,-6.9,-6.0,2317.5,478.2,-0.6,260.7,609.9,-662.1,0,3912,0,144,0, 
2.1767,462.6,-1209.6,234.6,-140.7,65.7,-80.4,47.4,156.3,1111.5,822.3,2388.6,1518.3,-751.5,543.0,3347.4,333.6,-6.9,-6.0,2318.1,463.5,-0.6,252.0,545.7,-652.2,0,3918,0,145,0, 
2.1800,459.9,-1200.9,244.2,-135.9,63.0,-91.8,56.7,143.7,-4075.5,848.4,1456.2,876.0,-1031.1,481.2,-2054.4,351.0,-6.9,-5.7,2333.1,458.7,-0.6,252.6,593.1,-744.3,0,3924,0,146,0, 
2.1833,479.7,-1171.5,276.0,-114.3,84.3,-81.3,54.0,128.1,-11707.8,864.9,-2799.9,-2717.1,-1165.8,48.9,-9252.3,340.2,-6.9,-5.7,2352.3,491.1,-0.9,256.8,575.1,-691.8,0,3930,0,147,0, 
2.1867,482.1,-1158.9,285.3,-107.1,93.3,-75.0,57.3,129.9,-11189.1,862.5,-4972.8,-4573.2,-1150.8,-203.7,-9048.6,302.7,-7.2,-5.7,2336.7,516.9,-0.6,268.2,597.9,-718.8,0,3936,0,148,0, 
2.1900,459.9,-1180.2,273.0,-109.8,98.4,-70.2,63.6,148.5,-3038.1,889.8,-1638.3,-1945.2,-939.3,140.7,-1524.3,338.1,-6.9,-5.7,2331.0,499.8,-0.9,256.5,591.6,-679.2,0,3942,0,149,0, 
2.1933,469.2,-1179.0,278.7,-102.0,99.0,-63.6,68.4,165.0,1185.6,895.5,1981.2,1244.4,-700.8,532.2,3373.2,337.8,-6.9,-5.7,2356.2,493.5,-0.9,246.9,582.3,-656.7,0,3948,0,150,0, 
2.1967,481.8,-1173.0,270.3,-109.5,90.9,-51.6,69.6,152.1,-4223.7,866.1,1081.8,606.3,-915.6,485.7,-2004.9,328.8,-6.9,-6.0,2341.8,498.3,-1.2,242.7,582.3,-607.2,0,3954,0,151,0, 
2.2000,464.7,-1182.3,255.3,-120.9,77.7,-75.9,62.4,120.3,-11930.1,822.3,-3015.3,-2797.2,-1241.1,40.5,-9225.9,378.9,-6.9,-5.7,2298.9,492.3,-0.9,222.0,621.9,-682.2,0,3960,0,152,0, 
2.2033,474.0,-1166.7,270.6,-114.0,85.8,-78.3,54.3,125.1,-10966.8,870.9,-4544.1,-4301.1,-1143.3,-152.7,-9026.1,329.4,-6.9,-5.7,2313.3,494.7,-0.9,235.2,559.2,-716.4,0,3966,0,153,0, 
2.2067,489.0,-1146.3,287.7,-101.1,94.5,-72.0,53.1,152.4,-3038.1,886.8,-1233.9,-1697.1,-797.7,180.0,-1473.0,315.6,-6.9,-5.7,2347.5,495.3,-0.6,278.4,553.2,-695.7,0,3972,0,154,0, 
2.2100,495.0,-1136.4,279.0,-106.8,94.8,-65.7,71.7,163.8,1333.8,846.3,2338.8,1333.8,-782.7,568.8,3405.3,317.1,-7.2,-5.4,2342.1,494.7,-0.9,256.2,633.9,-739.2,0,3978,0,155,0, 
2.2133,504.0,-1131.0,270.0,-114.0,82.8,-82.2,53.4,149.7,-4149.6,849.0,1429.2,703.2,-941.1,497.4,-1988.7,342.3,-6.6,-5.7,2313.0,487.2,-0.6,255.6,588.6,-746.1,0,3984,0,156,0, 
2.2167,478.2,-1141.8,279.0,-102.9,90.6,-69.9,65.7,135.3,-11781.9,885.3,-2736.6,-2688.6,-1187.1,1.5,-9228.9,328.5,-7.2,-6.0,2301.0,482.1,-0.6,274.2,576.0,-747.0,0,3990,0,157,0, 
2.2200,462.0,-1185.9,277.8,-102.9,99.6,-68.4,57.0,127.2,-11115.0,894.0,-4326.9,-4142.4,-1175.1,-158.1,-9063.3,352.5,-6.3,-6.0,2297.7,508.8,-0.6,272.4,557.4,-698.7,0,3996,0,158,0, 
2.2233,474.9,-1157.1,292.5,-101.1,103.8,-66.9,57.9,147.6,-3112.2,861.6,-1134.0,-1615.8,-864.9,135.0,-1539.9,352.8,-6.9,-6.0,2329.8,516.6,-0.3,272.1,563.7,-691.2,0,4002,0,159,0, 
2.2267,465.0,-1188.6,274.2,-105.0,102.3,-58.8,62.7,155.7,1259.7,867.3,2418.9,1309.2,-696.3,552.3,3403.2,338.1,-6.9,-5.7,2342.4,534.0,-0.6,290.7,590.1,-747.6,0,4008,0,160,0, 
2.2300,475.2,-1155.9,280.2,-98.1,102.0,-62.7,60.9,151.5,-4223.7,891.9,1448.1,773.4,-1011.3,490.5,-2028.0,331.5,-6.9,-5.7,2329.5,521.7,-0.9,287.1,598.8,-715.2,0,4014,0,161,0, 
2.2333,461.1,-1188.9,263.4,-102.6,95.4,-70.5,61.2,126.0,-11781.9,866.1,-2633.7,-2666.1,-1239.3,72.0,-9199.5,363.3,-6.6,-5.7,2285.4,529.8,-0.6,291.6,607.2,-723.0,0,4020,0,162,0, 
2.2367,470.1,-1164.9,260.4,-113.7,76.8,-76.5,67.8,117.9,-11189.1,861.9,-4276.8,-4156.2,-1098.9,-127.5,-9079.8,345.3,-6.9,-6.0,2270.4,492.3,-0.9,250.5,662.7,-738.6,0,4026,0,163,0, 
2.2400,475.5,-1179.3,264.9,-101.1,101.1,-29.1,83.7,144.9,-3112.2,875.4,-1125.9,-1551.0,-858.6,166.8,-1542.6,335.4,-6.9,-6.0,2286.0,527.1,-0.6,295.5,645.0,-571.8,0,4032,0,164,0, 
2.2433,477.3,-1159.2,279.0,-96.9,100.5,-47.1,74.7,165.0,1333.8,903.9,2500.2,1547.4,-684.3,539.4,3393.3,342.0,-6.9,-5.7,2319.3,518.4,-0.6,282.0,569.4,-625.8,0,4038,0,165,0, 
2.2467,484.8,-1172.1,274.2,-96.6,94.8,-70.5,58.2,150.6,-4223.7,887.4,1602.6,835.5,-952.5,500.7,-2036.1,308.1,-6.9,-6.0,2311.2,515.4,-0.6,257.1,542.7,-739.5,0,4044,0,166,0, 
2.2500,492.6,-1148.7,269.7,-101.1,93.9,-71.1,56.4,132.3,-11707.8,882.0,-2578.5,-2577.6,-1225.5,95.4,-9201.6,325.2,-6.6,-6.3,2274.0,521.1,-0.9,276.3,555.9,-710.1,0,4050,0,167,0, 
2.2533,483.3,-1123.8,275.4,-96.6,91.2,-54.9,72.6,125.7,-11115.0,851.1,-4159.2,-4068.0,-1214.7,-166.5,-9107.4,328.8,-6.9,-5.7,2278.8,522.0,-0.9,280.8,601.2,-678.9,0,4056,0,168,0, 
2.2567,481.8,-1126.5,288.9,-93.9,93.3,-66.9,68.4,145.8,-3038.1,889.2,-923.7,-1545.9,-753.9,80.4,-1561.8,333.0,-7.2,-5.7,2304.0,525.3,-0.9,285.0,609.6,-753.6,0,4062,0,169,0, 
2.2600,480.6,-1161.6,279.0,-89.1,112.5,-47.4,75.6,168.9,1259.7,879.0,2735.7,1470.0,-758.4,549.9,3384.9,330.6,-7.2,-6.3,2313.3,550.5,-0.9,324.0,587.1,-673.8,0,4068,0,170,0, 
2.2633,479.1,-1160.1,271.8,-102.6,86.1,-57.9,69.0,153.3,-4149.6,896.7,1746.0,873.6,-1014.9,480.6,-2017.5,342.9,-7.2,-5.7,2310.9,498.9,-0.6,256.8,593.4,-673.8,0,4074,0,171,0, 
2.2667,476.4,-1164.0,266.4,-96.9,79.2,-57.3,66.9,127.5,-11781.9,889.2,-2394.3,-2421.6,-1235.7,67.8,-9229.2,347.7,-6.9,-5.7,2265.0,512.1,-0.6,260.4,591.3,-679.5,0,4080,0,172,0, 
2.2700,492.9,-1147.2,269.1,-106.8,74.1,-74.7,60.6,120.0,-11263.2,869.1,-4049.1,-3919.2,-1025.1,-108.3,-9094.8,351.6,-6.9,-6.0,2241.9,507.3,-0.6,259.5,572.7,-736.2,0,4086,0,173,0, 
2.2733,462.9,-1191.0,267.9,-96.0,97.2,-44.4,78.9,145.5,-3112.2,889.8,-762.3,-1354.2,-817.8,146.1,-1567.2,356.4,-7.2,-6.0,2274.3,534.9,-0.6,274.5,636.6,-654.0,0,4092,0,174,0, 
2.2767,489.9,-1130.7,280.2,-96.0,96.3,-56.1,75.9,163.2,1111.5,861.0,2751.3,1578.6,-760.8,572.7,3377.1,333.0,-7.2,-6.0,2288.7,520.5,-0.6,260.1,648.9,-674.4,0,4098,0,175,0, 
