Time,P3,C3,F3,Fz,F4,C4,P4,Cz,CM,A1,Fp1,Fp2,T3,T5,O1,O2,X3,X2,F7,F8,X1,A2,T6,T4,Trigger,Time_Offset,ADC_Status,ADC_Sequence,Event,Comments
0.0033,-141.3,-126.9,1009.5,-117.9,-150.0,-179.4,-91.8,-321.0,-3260.4,-7.8,-86.4,-49.2,-9388.2,-7572.3,-1388.7,-1255.2,-7.2,-6.0,-52.8,72.0,-1.2,35.7,185.7,332.1,0,6,33554432,21,0, 
0.0067,-140.4,-124.2,-2132.7,-113.1,-194.7,-174.0,-119.7,-315.6,-3186.3,-8.7,-83.4,-36.6,-9830.1,-8955.9,-3555.3,-2843.7,-7.5,-5.7,-58.8,77.7,-0.6,42.6,177.3,318.6,0,12,33554432,22,0, 
0.0100,-137.7,-129.3,-2283.3,-119.7,-159.9,-190.2,-116.1,-322.2,-2297.1,-16.8,-107.4,-44.1,-9778.5,-8719.2,-2473.2,-3179.1,-6.9,-5.7,-67.5,74.4,-0.9,42.9,176.7,313.2,0,18,33554432,23,0, 
0.0133,-143.1,-133.8,819.3,-125.7,-68.1,-188.4,-88.8,-318.9,-1704.3,-23.4,-108.0,-49.5,-8793.9,-7124.7,370.5,-1779.6,-7.2,-6.0,-73.2,64.2,-0.9,35.7,185.1,324.3,0,24,33554432,24,0, 
0.0167,-145.5,-144.0,2917.2,-128.1,-50.7,-192.9,-85.5,-319.2,-2223.0,-24.3,-106.5,-53.4,-8493.9,-6399.3,1069.5,-515.1,-6.9,-6.0,-69.3,63.9,-0.6,30.0,189.3,331.5,0,30,33554432,25,0, 
0.0200,-142.5,-137.4,1071.0,-128.1,-134.1,-190.5,-119.7,-312.6,-3186.3,-19.2,-109.2,-62.7,-9458.1,-7584.0,-1354.2,-1228.5,-6.9,-6.3,-69.6,57.0,-0.6,33.3,181.2,322.8,0,36,33554432,26,0, 
0.0233,-146.4,-137.4,-2023.2,-135.9,-225.6,-194.7,-144.3,-320.1,-3186.3,-19.8,-107.7,-61.8,-9830.1,-8997.3,-3478.2,-2822.4,-6.9,-6.0,-70.2,53.7,-0.6,30.0,168.0,309.0,0,42,33554432,27,0, 
0.0267,-152.1,-147.0,-2157.0,-142.8,-190.5,-202.5,-138.6,-325.5,-2148.9,-27.9,-116.4,-65.1,-9796.8,-8736.6,-2449.8,-3152.4,-6.9,-6.3,-80.4,48.3,-0.6,21.9,164.4,303.0,0,48,33554432,28,0, 
0.0300,-142.5,-139.5,801.9,-138.0,-77.7,-192.6,-107.4,-321.9,-1630.2,-17.7,-111.0,-63.9,-8797.5,-7193.7,356.4,-1734.0,-6.9,-6.0,-72.0,53.4,-0.9,32.1,176.4,320.1,0,54,33554432,29,0, 
0.0333,-142.8,-137.1,2859.6,-136.2,-62.1,-196.5,-95.7,-321.6,-2297.1,-18.9,-109.2,-64.2,-8548.2,-6430.2,1107.6,-581.1,-7.2,-6.0,-69.3,51.3,-0.6,26.1,180.3,325.2,0,60,33554432,30,0, 
0.0367,-139.5,-134.4,1050.9,-135.0,-142.5,-193.8,-120.9,-319.5,-3186.3,-25.8,-101.7,-63.3,-9460.5,-7572.6,-1325.4,-1230.6,-6.6,-5.7,-69.9,44.4,-1.2,13.8,177.0,322.2,0,66,33554432,31,0, 
0.0400,-135.6,-133.2,-2150.7,-133.8,-221.7,-191.4,-140.4,-311.4,-3112.2,-17.7,-101.1,-58.2,-9830.1,-9015.6,-3488.7,-2853.0,-7.2,-6.0,-65.7,50.1,-0.9,30.0,169.5,315.6,0,72,33554432,32,0, 
0.0433,-135.9,-137.7,-2256.9,-132.9,-188.1,-189.3,-126.6,-307.8,-2223.0,-14.1,-107.7,-52.8,-9808.8,-8745.0,-2444.1,-3235.5,-6.9,-5.7,-66.3,60.6,-0.6,31.5,174.6,323.4,0,78,33554432,33,0, 
0.0467,-139.2,-132.3,723.6,-135.6,-77.1,-193.2,-96.6,-313.2,-1778.4,-17.4,-111.9,-50.7,-8878.2,-7207.8,411.0,-1811.1,-6.6,-6.0,-74.7,60.6,-0.9,27.6,180.6,334.2,0,84,33554432,34,0, 
0.0500,-141.9,-139.8,2823.0,-138.9,-58.8,-186.9,-93.6,-310.5,-2371.2,-18.3,-121.5,-63.0,-8546.4,-6497.7,1132.2,-563.4,-6.9,-5.7,-81.6,45.0,-0.9,27.3,192.3,339.3,0,90,33554432,35,0, 
0.0533,-138.9,-137.4,963.3,-132.0,-146.1,-192.6,-120.6,-310.5,-3260.4,-12.9,-110.7,-59.7,-9492.0,-7648.2,-1377.0,-1268.7,-6.9,-6.3,-71.4,55.8,-1.2,33.6,186.0,337.2,0,96,33554432,36,0, 
0.0567,-136.2,-130.2,-2241.6,-130.8,-214.2,-183.6,-131.4,-300.0,-3186.3,-13.8,-112.5,-66.0,-9830.1,-9097.8,-3630.0,-2884.8,-6.9,-5.4,-72.3,51.3,-0.6,40.2,180.0,316.8,0,102,33554432,37,0, 
0.0600,-144.6,-139.2,-2378.4,-139.5,-182.4,-188.7,-120.3,-306.0,-2371.2,-25.5,-123.6,-77.7,-9830.1,-8827.5,-2548.8,-3219.9,-6.6,-6.0,-81.9,39.9,-0.3,16.8,183.3,317.4,0,108,33554432,38,0, 
0.0633,-147.6,-141.3,725.4,-135.9,-80.4,-190.8,-85.8,-311.4,-1704.3,-13.5,-118.8,-67.5,-8918.4,-7198.2,418.8,-1755.9,-7.5,-6.3,-80.1,48.0,-0.6,21.0,189.3,322.2,0,114,33554432,39,0, 
0.0667,-147.0,-139.2,2770.2,-137.4,-56.4,-198.0,-92.7,-306.3,-2297.1,-19.2,-112.2,-56.1,-8577.0,-6512.1,1021.5,-586.8,-6.9,-5.7,-75.0,55.5,-0.6,32.7,195.3,338.7,0,120,33554432,40,0, 
0.0700,-144.3,-145.2,1023.0,-136.5,-137.1,-195.0,-111.9,-311.1,-3186.3,-13.5,-104.7,-52.8,-9525.3,-7608.0,-1346.4,-1283.4,-6.6,-6.3,-70.8,60.0,-1.2,42.3,193.2,330.3,0,126,33554432,41,0, 
0.0733,-145.2,-135.6,-2175.3,-138.0,-226.2,-188.1,-136.8,-310.8,-3260.4,-15.6,-109.5,-59.7,-9830.1,-9108.0,-3623.7,-2963.1,-7.2,-5.7,-74.4,53.4,-0.9,37.2,179.7,323.1,0,132,33554432,42,0, 
0.0767,-141.0,-131.1,-2341.2,-137.4,-170.4,-191.4,-117.3,-309.0,-2223.0,-12.9,-107.7,-57.9,-9830.1,-8805.0,-2479.5,-3270.3,-6.9,-5.4,-65.4,60.9,-0.6,46.5,177.6,313.5,0,138,33554432,43,0, 
0.0800,-141.0,-128.7,810.0,-138.3,-67.2,-187.5,-99.9,-307.8,-1630.2,-6.9,-119.7,-63.3,-8904.9,-7177.5,387.3,-1752.3,-6.9,-5.7,-73.8,50.4,-0.6,42.0,182.1,328.5,0,144,33554432,44,0, 
0.0833,-143.1,-134.1,2855.1,-134.1,-46.5,-184.8,-86.7,-303.9,-2445.3,0.0,-115.5,-57.9,-8580.0,-6489.0,1000.5,-559.2,-6.9,-5.7,-77.4,66.0,-1.2,40.2,192.9,339.9,0,150,33554432,45,0, 
0.0867,-141.0,-132.9,1052.4,-133.8,-146.7,-180.9,-110.7,-297.0,-3186.3,-8.1,-112.8,-56.1,-9542.1,-7604.1,-1475.4,-1228.5,-6.9,-5.7,-75.0,56.1,-0.6,48.0,183.3,333.0,0,156,33554432,46,0, 
0.0900,-141.6,-131.4,-2185.8,-133.2,-220.8,-182.1,-125.4,-299.1,-3260.4,-8.1,-116.7,-63.3,-9830.1,-9105.3,-3690.9,-2884.2,-7.2,-6.0,-74.7,54.3,-0.3,44.7,172.2,315.9,0,162,33554432,47,0, 
0.0933,-142.2,-132.9,-2310.6,-141.6,-181.8,-190.8,-126.0,-302.1,-2297.1,-18.3,-118.8,-68.1,-9830.1,-8854.2,-2559.0,-3246.9,-7.2,-5.4,-79.2,44.1,-0.6,36.9,168.3,310.5,0,168,33554432,48,0, 
0.0967,-143.4,-136.5,781.2,-138.0,-64.2,-187.8,-95.1,-300.6,-1630.2,-13.8,-114.9,-63.0,-8999.1,-7251.3,325.5,-1791.0,-6.9,-6.0,-76.8,59.7,-0.9,36.0,185.7,330.9,0,174,33554432,49,0, 
0.1000,-138.3,-133.5,2779.2,-135.0,-64.8,-187.2,-91.8,-299.1,-2371.2,-12.0,-117.0,-68.1,-8652.9,-6539.1,906.6,-597.9,-6.9,-5.4,-77.4,51.6,-0.6,30.3,192.3,332.7,0,180,33554432,50,0, 
0.1033,-138.0,-137.1,968.4,-134.7,-140.1,-179.7,-109.8,-299.4,-3408.6,-19.2,-115.8,-75.3,-9518.1,-7611.9,-1376.7,-1233.9,-6.9,-6.0,-79.8,49.2,-0.9,35.7,187.5,329.4,0,186,33554432,51,0, 
0.1067,-134.7,-139.5,-2208.6,-134.4,-216.0,-183.9,-134.7,-297.6,-3260.4,-16.2,-112.8,-64.2,-9830.1,-9083.7,-3623.7,-2883.6,-6.6,-5.7,-72.3,57.0,-0.9,44.1,189.3,327.3,0,192,33554432,52,0, 
0.1100,-140.1,-141.0,-2360.1,-134.4,-181.2,-182.7,-130.5,-296.4,-2297.1,-11.7,-122.1,-64.8,-9830.1,-8901.9,-2631.0,-3272.1,-6.6,-6.0,-76.8,54.9,-0.9,42.3,191.4,333.0,0,198,33554432,53,0, 
0.1133,-141.6,-144.3,799.2,-140.7,-62.7,-193.2,-100.8,-304.8,-1704.3,-18.3,-127.2,-71.4,-8984.7,-7278.0,229.8,-1790.1,-7.2,-5.7,-81.9,46.8,-0.9,37.2,192.0,338.4,0,204,33554432,54,0, 
0.1167,-135.3,-146.4,2811.9,-137.7,-44.4,-182.7,-85.2,-299.7,-2297.1,-5.7,-120.3,-66.3,-8640.3,-6533.4,879.6,-559.2,-6.9,-5.7,-78.3,54.9,-0.6,38.4,204.9,361.5,0,210,33554432,55,0, 
0.1200,-133.8,-134.1,1040.7,-131.7,-144.9,-174.9,-101.1,-288.3,-3186.3,-1.2,-114.9,-52.5,-9524.4,-7629.6,-1483.5,-1286.4,-7.2,-6.0,-72.0,60.9,-1.2,51.3,205.8,350.7,0,216,33554432,56,0, 
0.1233,-137.4,-142.5,-2145.0,-132.3,-213.6,-175.8,-123.0,-293.7,-3186.3,-0.3,-117.6,-53.4,-9830.1,-9021.6,-3648.9,-2936.1,-6.9,-5.7,-74.4,54.9,-0.9,48.0,193.8,329.1,0,222,33554432,57,0, 
0.1267,-139.2,-136.5,-2239.5,-130.5,-171.0,-174.6,-115.8,-291.0,-2074.8,-3.3,-114.6,-51.9,-9830.1,-8764.5,-2643.0,-3244.8,-6.9,-6.0,-72.9,56.7,-0.6,48.0,188.1,331.8,0,228,33554432,58,0, 
0.1300,-137.4,-142.2,804.6,-136.8,-85.2,-180.0,-85.8,-288.0,-1556.1,-6.6,-117.0,-65.1,-8930.4,-7179.0,225.6,-1799.4,-7.2,-6.3,-75.9,48.9,-0.9,42.9,196.5,346.8,0,234,33554432,59,0, 
0.1333,-142.8,-144.9,2844.0,-135.9,-73.5,-180.0,-84.9,-287.7,-2445.3,-7.2,-121.2,-72.9,-8588.4,-6467.4,866.4,-564.0,-7.2,-6.0,-77.4,44.7,-0.9,44.1,201.6,358.2,0,240,33554432,60,0, 
0.1367,-141.9,-142.2,1047.6,-137.7,-153.3,-181.5,-101.7,-290.7,-3186.3,-14.1,-119.4,-70.2,-9493.5,-7577.4,-1478.4,-1248.6,-7.2,-6.6,-74.4,54.3,-0.6,49.8,188.4,343.2,0,246,33554432,61,0, 
0.1400,-141.3,-147.6,-2209.8,-133.8,-229.5,-179.1,-123.9,-291.9,-3112.2,-7.2,-124.5,-68.7,-9830.1,-9044.4,-3651.6,-2894.4,-6.6,-6.0,-82.8,44.4,-1.2,48.9,184.2,329.7,0,252,33554432,62,0, 
0.1433,-144.3,-145.8,-1882.2,-141.3,-151.8,-184.5,-104.4,-295.5,-2148.9,-18.6,-129.9,-69.3,-9656.7,-8536.2,-2043.3,-2866.2,-7.2,-6.3,-84.0,47.7,-0.6,39.9,183.0,328.5,0,258,33554432,63,0, 
0.1467,-147.6,-149.1,1090.8,-145.8,-72.3,-188.1,-81.9,-302.1,-1704.3,-18.6,-130.5,-71.7,-8661.6,-7126.2,579.3,-1583.1,-6.9,-6.0,-87.6,42.3,-0.6,36.6,193.2,341.7,0,264,33554432,64,0, 
0.1500,-137.1,-144.0,3071.4,-139.8,-62.4,-182.1,-66.3,-287.1,-2297.1,-20.4,-127.5,-71.7,-8448.6,-6401.1,1178.1,-467.7,-6.9,-5.4,-78.9,48.3,-0.9,42.0,204.6,357.6,0,270,33554432,65,0, 
0.1533,-137.7,-140.7,1144.2,-134.7,-151.8,-176.7,-93.3,-278.4,-3334.5,-9.3,-123.9,-67.5,-9417.0,-7603.2,-1381.8,-1220.1,-6.6,-6.0,-75.9,54.9,-1.2,39.9,199.2,350.1,0,276,33554432,66,0, 
0.1567,-131.1,-126.9,-2038.5,-125.4,-213.9,-174.0,-106.2,-273.6,-3112.2,-4.2,-115.5,-55.8,-9830.1,-9033.9,-3618.0,-2868.6,-6.9,-5.4,-71.7,60.0,-0.9,54.0,195.3,339.6,0,282,33554432,67,0, 
0.1600,-129.0,-126.6,-2231.4,-128.7,-165.0,-177.0,-100.2,-276.6,-2297.1,-2.1,-111.6,-58.8,-9814.2,-8771.4,-2618.1,-3200.1,-6.9,-5.7,-68.1,65.7,-0.6,54.0,191.7,339.6,0,288,33554432,68,0, 
0.1633,-133.2,-132.3,825.6,-132.3,-60.6,-183.3,-76.2,-282.3,-1704.3,-5.1,-113.4,-66.6,-8862.9,-7162.5,246.3,-1772.7,-6.6,-5.7,-69.0,54.6,-0.9,49.2,198.6,344.4,0,294,33554432,69,0, 
0.1667,-134.1,-125.4,2884.5,-127.2,-34.2,-180.9,-64.2,-274.8,-2297.1,-1.2,-105.6,-54.9,-8564.4,-6439.2,960.6,-568.8,-6.9,-6.3,-61.2,69.3,-0.9,55.5,204.9,359.1,0,300,33554432,70,0, 
0.1700,-124.5,-122.4,1064.7,-118.2,-121.2,-172.5,-89.1,-268.5,-3186.3,14.4,-105.6,-45.9,-9517.5,-7594.5,-1472.1,-1262.7,-6.9,-6.0,-58.5,74.7,-0.9,60.9,205.5,359.4,0,306,33554432,71,0, 
0.1733,-126.9,-123.9,-2097.6,-120.0,-200.1,-170.7,-108.6,-268.8,-3186.3,8.4,-107.7,-50.1,-9830.1,-9009.9,-3625.2,-2903.1,-6.6,-6.0,-62.1,78.0,-1.2,66.9,198.3,345.0,0,312,33554432,72,0, 
0.1767,-126.0,-123.6,-2171.1,-120.0,-146.7,-168.6,-97.5,-273.3,-2223.0,12.6,-104.4,-45.6,-9804.9,-8723.7,-2529.9,-3182.4,-7.2,-6.0,-61.8,79.5,-0.6,63.0,193.8,343.5,0,318,33554432,73,0, 
0.1800,-126.0,-118.8,872.7,-118.8,-50.4,-169.5,-73.8,-272.7,-1704.3,8.4,-100.5,-45.0,-8857.8,-7143.9,337.2,-1755.6,-6.6,-5.7,-56.1,77.4,-0.9,60.0,209.7,358.8,0,324,33554432,74,0, 
0.1833,-121.2,-114.3,2901.6,-117.0,-38.1,-167.7,-65.4,-267.6,-2371.2,12.0,-101.1,-49.2,-8520.0,-6402.0,1012.5,-525.6,-6.9,-6.3,-53.1,75.0,-0.9,66.3,217.2,378.3,0,330,33554432,75,0, 
0.1867,-128.7,-124.8,1100.1,-120.6,-142.8,-177.0,-95.4,-272.4,-3260.4,11.7,-100.8,-50.1,-9476.7,-7512.0,-1486.2,-1310.7,-6.9,-6.0,-54.0,70.2,-0.9,60.0,204.6,361.8,0,336,33554432,76,0, 
0.1900,-126.0,-121.8,-2119.8,-119.1,-219.3,-182.7,-136.2,-274.2,-3186.3,9.0,-105.9,-50.1,-9830.1,-8939.4,-3605.4,-2936.7,-6.9,-6.0,-59.7,74.4,-0.6,59.1,182.7,343.2,0,342,33554432,77,0, 
0.1933,-131.7,-125.4,-2203.5,-121.8,-158.7,-181.2,-121.2,-279.6,-2297.1,3.3,-112.2,-50.4,-9817.5,-8690.1,-2514.3,-3231.3,-7.2,-5.7,-66.0,66.6,-0.9,53.4,177.3,344.1,0,348,33554432,78,0, 
0.1967,-136.5,-124.5,799.5,-120.0,-72.3,-180.9,-92.7,-282.3,-1704.3,-3.9,-106.8,-51.0,-8886.6,-7141.5,276.0,-1818.9,-7.2,-6.3,-65.1,68.4,-0.9,54.3,186.6,352.8,0,354,33554432,79,0, 
0.2000,-139.2,-134.4,2946.0,-124.8,-37.5,-186.9,-88.5,-286.5,-2371.2,-0.9,-111.9,-55.8,-8561.4,-6393.3,978.9,-552.9,-6.9,-6.0,-67.5,57.3,-0.9,50.4,187.8,357.0,0,360,33554432,80,0, 
0.2033,-138.6,-126.9,1126.8,-124.2,-123.9,-181.8,-113.1,-288.0,-3186.3,-4.8,-109.2,-50.7,-9473.1,-7549.5,-1494.0,-1300.5,-7.2,-6.3,-61.8,63.6,-0.6,46.5,182.1,351.3,0,366,33554432,81,0, 
0.2067,-138.9,-128.4,-2004.0,-125.4,-205.5,-191.1,-126.0,-283.8,-3038.1,-4.8,-106.2,-51.9,-9830.1,-8918.1,-3686.7,-2886.9,-7.2,-6.0,-67.5,68.1,-0.6,50.7,177.6,336.3,0,372,33554432,82,0, 
0.2100,-136.5,-125.7,-2169.0,-123.6,-171.6,-188.4,-120.9,-283.8,-2223.0,-3.9,-111.0,-62.4,-9808.2,-8752.2,-2614.8,-3237.9,-7.2,-6.0,-69.0,57.0,-0.9,41.1,172.5,328.5,0,378,33554432,83,0, 
0.2133,-133.8,-121.8,951.0,-120.9,-77.7,-185.7,-90.3,-281.1,-1704.3,-3.6,-97.2,-58.2,-8857.8,-7071.6,228.3,-1805.1,-6.9,-6.0,-54.6,61.2,-0.9,45.3,185.4,353.4,0,384,33554432,84,0, 
0.2167,-132.0,-125.7,2961.6,-119.4,-55.8,-187.2,-76.2,-279.3,-2223.0,-6.0,-105.0,-51.0,-8537.1,-6367.2,905.4,-629.1,-6.6,-6.0,-61.8,63.9,-0.6,46.2,183.6,358.8,0,390,33554432,85,0, 
0.2200,-129.6,-125.1,1089.6,-111.0,-142.8,-176.7,-101.1,-267.3,-3260.4,0.0,-102.3,-42.9,-9456.3,-7518.3,-1516.8,-1344.3,-6.6,-6.3,-61.2,69.3,-1.2,53.1,180.0,354.9,0,396,33554432,86,0, 
0.2233,-126.3,-122.4,-2033.1,-108.9,-188.1,-169.2,-124.2,-256.2,-3038.1,1.8,-96.3,-39.0,-9830.1,-8914.2,-3612.3,-2931.9,-6.6,-5.7,-60.0,69.3,-0.9,65.7,179.4,343.8,0,402,33554432,87,0, 
0.2267,-122.4,-116.7,-2213.1,-105.9,-143.4,-168.9,-107.4,-258.6,-2223.0,16.8,-93.9,-39.0,-9792.6,-8661.6,-2542.2,-3264.9,-6.6,-5.7,-54.6,74.1,-0.9,60.6,183.6,351.9,0,408,33554432,88,0, 
0.2300,-126.3,-123.6,969.9,-119.4,-46.2,-177.0,-90.0,-270.3,-1704.3,2.4,-95.1,-44.1,-8806.2,-7080.9,361.5,-1844.4,-7.2,-5.7,-55.8,62.7,-0.9,53.1,186.3,350.7,0,414,33554432,89,0, 
0.2333,-129.9,-127.5,2887.8,-117.9,-33.0,-174.0,-77.4,-271.2,-2445.3,-3.0,-100.5,-49.5,-8494.8,-6369.9,1005.3,-676.5,-6.6,-6.0,-59.4,62.4,-0.6,48.6,191.1,361.5,0,420,33554432,90,0, 
0.2367,-136.2,-133.8,1064.1,-121.5,-140.4,-176.1,-103.2,-275.4,-3260.4,-2.4,-108.3,-42.9,-9428.7,-7489.2,-1462.2,-1323.6,-6.9,-6.0,-65.4,59.7,-1.2,50.1,188.1,354.6,0,426,33554432,91,0, 
0.2400,-133.5,-132.6,-2125.2,-121.2,-207.9,-173.7,-116.1,-275.4,-3334.5,-3.6,-106.2,-44.4,-9830.1,-8959.2,-3641.7,-2956.8,-6.9,-6.0,-62.7,64.5,-1.2,50.4,189.3,348.9,0,432,33554432,92,0, 
0.2433,-137.4,-136.2,-2241.0,-129.0,-159.3,-177.6,-110.4,-279.0,-2223.0,-9.3,-107.7,-57.3,-9764.4,-8662.2,-2531.1,-3289.2,-6.9,-6.0,-68.4,55.2,-0.9,47.1,186.0,341.7,0,438,33554432,93,0, 
0.2467,-138.0,-135.3,807.3,-127.2,-59.7,-174.9,-77.4,-282.0,-1704.3,-12.3,-115.5,-60.0,-8786.7,-7043.1,261.3,-1831.8,-6.9,-6.0,-74.7,58.8,-0.9,42.9,196.8,346.5,0,444,33554432,94,0, 
0.2500,-130.2,-130.2,2859.0,-123.9,-52.8,-172.8,-74.4,-277.5,-2297.1,-0.3,-111.0,-60.0,-8456.1,-6280.2,871.8,-585.3,-7.2,-5.7,-64.5,55.2,-0.9,49.8,205.5,360.3,0,450,33554432,95,0, 
0.2533,-136.2,-135.0,1067.4,-124.5,-142.2,-172.5,-96.0,-275.4,-3260.4,7.2,-109.5,-55.2,-9396.9,-7411.8,-1539.6,-1259.4,-6.9,-5.7,-64.2,57.9,-1.2,57.6,196.8,350.4,0,456,33554432,96,0, 
0.2567,-138.0,-130.5,-2098.5,-126.3,-206.1,-169.8,-110.4,-273.6,-3186.3,-3.9,-111.3,-57.9,-9830.1,-8914.2,-3646.8,-2898.9,-7.2,-6.3,-68.7,48.3,-0.6,51.3,185.1,337.2,0,462,33554432,97,0, 
0.2600,-135.0,-121.8,-2230.8,-123.3,-158.1,-176.7,-101.4,-277.5,-2074.8,-3.3,-102.6,-55.5,-9787.5,-8683.5,-2564.1,-3232.2,-7.2,-5.7,-63.0,51.6,-0.6,54.6,185.1,336.9,0,468,33554432,98,0, 
0.2633,-135.0,-124.8,906.0,-122.1,-57.3,-167.1,-67.8,-275.7,-1630.2,0.3,-105.9,-48.9,-8775.6,-7070.1,333.9,-1794.3,-7.2,-5.7,-62.4,66.9,-0.6,65.4,202.2,361.5,0,474,33554432,99,0, 
0.2667,-138.9,-131.4,2831.1,-126.0,-60.3,-172.5,-64.8,-282.0,-2297.1,-4.2,-107.4,-55.8,-8463.6,-6394.2,966.0,-595.2,-6.9,-6.0,-65.4,55.5,-0.9,60.3,201.6,365.4,0,480,33554432,100,0, 
0.2700,-143.1,-137.7,1071.3,-128.4,-140.1,-176.4,-90.3,-279.9,-3260.4,-1.2,-117.6,-56.7,-9344.1,-7496.1,-1412.4,-1287.6,-6.9,-6.0,-74.7,53.4,-0.9,53.7,193.2,345.3,0,486,33554432,101,0, 
0.2733,-141.3,-135.0,-2110.8,-133.2,-222.6,-180.9,-117.0,-283.5,-3186.3,-8.1,-111.3,-63.9,-9830.1,-8957.4,-3685.2,-2965.5,-6.9,-5.7,-65.7,49.2,-0.9,47.7,178.8,335.1,0,492,33554432,102,0, 
0.2767,-143.7,-133.5,-2322.3,-130.8,-193.2,-180.0,-113.7,-281.4,-2148.9,1.5,-112.5,-58.8,-9830.1,-8745.0,-2731.5,-3326.7,-6.9,-5.4,-68.7,51.3,-0.9,55.8,181.8,337.2,0,498,33554432,103,0, 
0.2800,-147.6,-136.5,539.1,-137.4,-93.6,-181.2,-85.8,-288.3,-1630.2,-2.4,-121.2,-61.2,-9044.4,-7227.0,-201.0,-2089.5,-6.9,-6.0,-77.7,49.5,-0.9,51.0,189.0,342.9,0,504,33554432,104,0, 
0.2833,-143.4,-135.6,2736.3,-135.3,-65.7,-179.4,-78.0,-285.0,-2297.1,-2.4,-124.8,-58.8,-8611.5,-6434.1,719.7,-780.9,-6.9,-6.0,-77.7,52.2,-0.9,51.6,202.5,351.0,0,510,33554432,105,0, 
0.2867,-141.0,-131.7,935.4,-124.8,-144.6,-174.0,-102.0,-273.3,-3186.3,5.7,-109.2,-50.7,-9551.4,-7503.3,-1676.1,-1442.4,-6.6,-5.7,-66.9,59.4,-0.6,57.0,196.5,347.1,0,516,33554432,106,0, 
0.2900,-138.9,-132.3,-2133.9,-121.2,-219.6,-164.4,-120.6,-273.9,-3186.3,0.0,-106.5,-46.2,-9830.1,-8916.3,-3732.9,-3059.4,-6.3,-5.7,-62.1,61.8,-0.9,57.3,184.5,333.6,0,522,33554432,107,0, 
0.2933,-138.0,-131.7,-2247.3,-115.8,-163.2,-164.7,-105.9,-272.7,-2223.0,5.4,-96.0,-37.5,-9804.9,-8646.0,-2599.8,-3354.0,-7.2,-5.7,-56.4,68.7,-0.9,57.3,189.9,335.4,0,528,33554432,108,0, 
0.2967,-139.2,-127.8,834.0,-114.9,-69.3,-169.5,-78.6,-277.8,-1556.1,10.8,-94.8,-39.3,-8879.1,-7042.5,220.5,-1860.3,-7.2,-5.4,-52.2,64.5,-0.9,54.0,196.5,353.4,0,534,33554432,109,0, 
0.3000,-139.2,-133.8,2878.2,-111.0,-43.5,-162.0,-66.0,-276.9,-2371.2,4.8,-100.2,-43.5,-8529.0,-6313.8,833.4,-694.8,-7.2,-6.0,-53.4,69.6,-0.9,63.3,208.8,363.9,0,540,33554432,110,0, 
0.3033,-134.4,-118.8,1118.4,-102.6,-124.2,-149.4,-87.9,-266.4,-3112.2,14.1,-80.1,-31.5,-9428.1,-7434.9,-1547.7,-1357.5,-6.9,-6.3,-38.1,78.6,-0.6,65.4,206.7,363.6,0,546,33554432,111,0, 
0.3067,-139.8,-129.6,-2082.9,-112.8,-216.9,-168.9,-110.4,-273.6,-3186.3,0.3,-96.3,-43.8,-9830.1,-8813.7,-3681.9,-3025.5,-6.3,-6.0,-53.7,67.2,-0.6,58.5,195.9,342.6,0,552,33554432,112,0, 
0.3100,-137.7,-126.3,-2244.3,-116.7,-160.2,-163.8,-108.3,-279.0,-2148.9,-2.1,-105.6,-49.2,-9779.4,-8604.9,-2600.7,-3335.4,-7.5,-6.3,-58.5,70.8,-1.2,60.9,194.1,340.2,0,558,33554432,113,0, 
0.3133,-136.2,-128.4,829.8,-117.0,-51.9,-167.4,-76.8,-272.4,-1704.3,5.1,-98.1,-40.5,-8769.3,-7044.3,198.6,-1846.8,-6.9,-5.7,-51.9,72.3,-0.9,50.7,200.4,345.9,0,564,33554432,114,0, 
0.3167,-135.3,-129.9,2928.3,-123.0,-28.8,-176.7,-72.6,-278.7,-2297.1,-2.7,-109.8,-54.0,-8424.3,-6252.6,933.6,-618.3,-6.9,-6.0,-63.0,65.1,-0.6,48.6,199.2,347.1,0,570,33554432,115,0, 
0.3200,-132.6,-132.0,1079.1,-123.9,-136.5,-180.0,-96.9,-279.3,-3260.4,-9.0,-114.3,-57.0,-9370.5,-7437.6,-1434.3,-1387.8,-6.9,-6.3,-66.6,57.6,-0.6,42.6,187.2,341.4,0,576,33554432,116,0, 
0.3233,-135.3,-128.4,-2120.7,-124.2,-199.5,-180.6,-122.1,-284.7,-3186.3,-9.3,-105.6,-58.8,-9830.1,-8887.2,-3713.7,-3013.8,-6.9,-6.0,-60.9,62.1,-0.3,45.6,179.7,315.9,0,582,33554432,117,0, 
0.3267,-138.0,-134.1,-2226.6,-126.3,-154.2,-184.5,-105.6,-290.1,-2148.9,-8.7,-109.8,-56.4,-9731.7,-8636.7,-2550.9,-3320.1,-6.6,-6.0,-66.9,62.1,-0.9,42.6,181.5,317.4,0,588,33554432,118,0, 
0.3300,-145.2,-144.0,843.9,-134.7,-59.7,-193.5,-85.8,-293.1,-1630.2,-18.9,-123.0,-69.0,-8703.6,-7104.6,254.7,-1912.2,-6.9,-6.3,-78.3,57.6,-1.2,39.0,183.0,322.8,0,594,33554432,119,0, 
0.3333,-141.9,-137.1,2936.7,-129.9,-48.0,-187.2,-72.0,-289.2,-2297.1,-13.8,-112.5,-60.6,-8422.5,-6387.6,906.9,-635.1,-6.9,-6.0,-69.6,59.7,-0.9,49.2,195.6,344.1,0,600,33554432,120,0, 
0.3367,-138.0,-137.7,1026.6,-125.1,-135.9,-178.8,-96.9,-286.8,-3112.2,-6.3,-100.5,-52.8,-9382.5,-7511.4,-1566.6,-1371.9,-7.5,-5.7,-57.6,64.2,-0.9,49.2,192.9,340.2,0,606,33554432,121,0, 
0.3400,-139.5,-138.0,-2087.1,-135.3,-205.2,-183.6,-122.4,-296.1,-3112.2,-14.4,-121.5,-67.2,-9830.1,-8928.9,-3747.9,-2994.0,-6.9,-5.7,-74.1,52.5,-0.9,37.8,176.7,320.7,0,612,33554432,122,0, 
0.3433,-135.3,-138.0,-2184.6,-134.1,-161.1,-184.5,-113.1,-291.0,-2148.9,-6.0,-116.4,-60.9,-9787.2,-8730.9,-2654.1,-3293.4,-6.9,-5.7,-70.2,56.7,-0.9,49.5,174.9,320.4,0,618,33554432,123,0, 
0.3467,-139.5,-142.8,879.0,-141.3,-73.5,-188.1,-81.9,-297.9,-1704.3,-20.7,-130.8,-76.2,-8819.4,-7119.0,150.0,-1822.5,-6.6,-6.0,-86.1,45.6,-1.2,39.3,190.5,337.2,0,624,33554432,124,0, 
0.3500,-138.0,-145.8,2981.7,-144.6,-46.2,-182.1,-72.0,-290.7,-2297.1,-16.2,-133.2,-82.8,-8524.5,-6372.6,918.6,-627.9,-7.2,-6.0,-85.8,41.1,-0.9,48.0,198.3,349.5,0,630,33554432,125,0, 
0.3533,-138.0,-142.5,1095.6,-142.2,-131.7,-180.6,-99.9,-288.6,-3260.4,-8.1,-125.4,-77.7,-9506.1,-7568.1,-1578.6,-1384.5,-6.6,-6.0,-77.1,45.0,-0.9,51.9,191.1,344.7,0,636,33554432,126,0, 
0.3567,-140.4,-142.5,-2089.2,-142.5,-217.8,-189.3,-129.0,-292.8,-3186.3,-6.0,-116.1,-72.0,-9830.1,-8925.9,-3684.6,-2956.2,-6.9,-6.3,-72.6,42.6,-0.9,44.1,178.8,324.3,0,642,33554432,127,0, 
0.3600,-140.4,-133.8,-2187.3,-139.5,-154.8,-185.7,-116.1,-295.2,-2297.1,-7.2,-120.3,-64.5,-9785.1,-8724.6,-2613.3,-3285.3,-6.6,-6.0,-70.8,44.7,-0.9,42.0,174.9,315.6,0,648,33554432,128,0, 
0.3633,-140.1,-129.9,902.7,-133.5,-37.8,-181.5,-79.2,-292.5,-1704.3,12.9,-98.7,-45.6,-8796.6,-7115.1,242.7,-1803.6,-6.9,-5.7,-53.1,61.2,-0.9,59.4,186.3,345.6,0,654,33554432,129,0, 
0.3667,-143.4,-134.7,2937.6,-137.4,-21.6,-183.6,-77.4,-293.1,-2371.2,-1.2,-118.5,-66.6,-8535.3,-6417.9,871.8,-712.8,-6.6,-6.3,-68.1,49.2,-0.9,50.4,192.0,352.5,0,660,33554432,130,0, 
0.3700,-136.8,-134.4,1086.3,-133.5,-126.6,-176.1,-99.0,-285.3,-3260.4,16.5,-117.9,-60.0,-9447.0,-7494.0,-1510.8,-1371.6,-6.9,-6.0,-66.9,51.6,-0.9,60.3,191.4,354.9,0,666,33554432,131,0, 
0.3733,-135.9,-134.1,-2017.8,-139.5,-203.1,-181.2,-120.3,-290.7,-3112.2,1.8,-120.0,-72.6,-9830.1,-8951.7,-3604.8,-2989.8,-6.6,-6.0,-73.5,44.4,-0.3,52.8,187.5,334.5,0,672,33554432,132,0, 
0.3767,-135.0,-130.5,-2165.4,-138.0,-161.7,-179.1,-116.7,-285.9,-2223.0,5.1,-123.6,-73.8,-9815.7,-8664.3,-2655.6,-3332.1,-7.2,-6.0,-73.8,42.9,-0.9,47.7,184.5,329.1,0,678,33554432,133,0, 
0.3800,-135.0,-129.9,891.0,-138.6,-57.6,-181.8,-76.2,-286.8,-1630.2,3.6,-121.5,-67.2,-8841.6,-7073.7,229.5,-1887.6,-7.2,-5.7,-72.0,51.6,-0.6,53.1,199.2,346.8,0,684,33554432,134,0, 
0.3833,-138.3,-135.9,2887.2,-140.4,-35.4,-180.6,-74.1,-291.3,-2297.1,2.7,-122.7,-69.3,-8502.9,-6333.6,885.3,-673.2,-6.9,-6.0,-71.7,42.6,-0.9,42.3,198.9,356.7,0,690,33554432,135,0, 
0.3867,-135.6,-135.9,1090.2,-138.3,-134.4,-180.3,-92.7,-290.1,-3186.3,2.4,-118.5,-69.9,-9405.0,-7452.6,-1551.6,-1377.0,-6.3,-6.0,-69.6,45.0,-0.6,43.5,192.9,351.6,0,696,33554432,136,0, 
0.3900,-130.5,-131.1,-2006.7,-134.4,-197.1,-182.1,-121.5,-288.0,-3186.3,11.7,-121.8,-69.9,-9830.1,-8889.3,-3674.4,-3037.5,-6.9,-6.0,-73.8,45.3,-0.9,48.6,177.3,335.4,0,702,33554432,137,0, 
0.3933,-138.9,-131.1,-2133.3,-139.8,-148.5,-179.4,-105.6,-290.4,-2297.1,-2.4,-129.3,-76.5,-9756.0,-8672.1,-2608.5,-3327.9,-6.6,-5.4,-81.9,45.6,-0.6,40.5,175.5,329.4,0,708,33554432,138,0, 
0.3967,-141.3,-138.6,918.0,-143.1,-55.5,-171.6,-80.4,-297.0,-1704.3,-2.7,-126.6,-77.1,-8716.5,-7129.2,243.0,-1913.4,-6.9,-6.0,-79.2,38.4,-0.6,42.6,187.2,349.5,0,714,33554432,139,0, 
0.4000,-137.4,-138.9,2946.6,-138.0,-32.1,-185.7,-69.0,-288.6,-2297.1,-5.4,-124.2,-70.2,-8442.9,-6372.9,869.7,-668.7,-6.9,-5.7,-74.4,54.9,-0.9,44.7,191.4,361.8,0,720,33554432,140,0, 
0.4033,-134.4,-126.6,1079.1,-134.1,-122.7,-181.5,-93.3,-285.6,-3186.3,3.9,-124.5,-70.8,-9374.7,-7571.4,-1569.0,-1380.9,-6.9,-6.0,-79.2,42.9,-0.9,46.5,183.0,354.9,0,726,33554432,141,0, 
0.4067,-138.3,-128.4,-2020.2,-136.5,-201.9,-183.3,-130.8,-287.1,-3186.3,2.4,-115.2,-66.0,-9830.1,-8964.9,-3734.7,-3022.2,-6.6,-5.7,-66.0,43.5,-0.9,37.8,171.9,329.7,0,732,33554432,142,0, 
0.4100,-135.9,-130.2,-2143.2,-134.4,-153.6,-178.5,-109.8,-287.1,-2148.9,-1.2,-126.0,-65.1,-9758.1,-8703.0,-2588.4,-3305.1,-6.6,-6.3,-79.5,45.0,-0.9,42.9,177.9,336.3,0,738,33554432,143,0, 
0.4133,-136.8,-119.1,870.0,-129.3,-48.6,-180.3,-84.6,-283.8,-1778.4,3.0,-110.1,-57.0,-8765.1,-7133.4,272.1,-1859.1,-6.9,-6.0,-63.6,50.1,-0.9,48.3,188.7,343.2,0,744,33554432,144,0, 
0.4167,-133.8,-121.8,2906.4,-128.7,-24.3,-181.2,-64.8,-283.5,-2297.1,5.1,-114.6,-67.2,-8518.8,-6436.5,970.8,-652.8,-6.6,-6.0,-68.7,44.4,-0.9,47.7,193.8,356.7,0,750,33554432,145,0, 
0.4200,-137.1,-125.7,1088.4,-132.0,-129.3,-184.5,-94.8,-283.8,-3334.5,6.9,-117.9,-70.8,-9435.9,-7540.8,-1515.6,-1341.3,-6.9,-6.0,-70.5,42.3,-1.2,45.0,188.7,338.4,0,756,33554432,146,0, 
0.4233,-140.4,-126.0,-2094.0,-131.4,-216.3,-191.4,-115.2,-289.5,-3260.4,-0.6,-114.0,-66.9,-9830.1,-9018.9,-3741.0,-2974.2,-6.9,-6.3,-69.9,40.2,-1.2,39.6,173.4,319.2,0,762,33554432,147,0, 
0.4267,-142.5,-129.3,-2235.3,-135.9,-176.1,-191.1,-113.1,-288.0,-2297.1,-9.6,-127.2,-75.9,-9815.7,-8741.7,-2627.1,-3242.7,-6.6,-6.0,-76.5,33.6,-0.6,40.5,174.3,313.2,0,768,33554432,148,0, 
0.4300,-140.4,-126.0,880.8,-134.1,-54.6,-192.0,-76.5,-285.9,-1704.3,-6.0,-131.7,-75.0,-8865.0,-7155.3,318.0,-1842.0,-7.2,-6.3,-80.1,35.1,-0.9,40.5,176.1,328.2,0,774,33554432,149,0, 
0.4333,-139.5,-129.3,2956.8,-130.2,-42.9,-184.2,-71.1,-280.8,-2297.1,2.4,-118.2,-68.1,-8546.4,-6408.0,995.7,-591.3,-7.2,-5.7,-73.2,42.0,-0.9,42.3,189.9,347.4,0,780,33554432,150,0, 
0.4367,-136.5,-120.9,1060.5,-126.3,-137.4,-181.5,-99.6,-280.5,-3260.4,-3.9,-120.0,-75.3,-9515.7,-7664.1,-1511.1,-1351.2,-6.6,-6.3,-75.3,31.5,-0.9,44.1,180.6,334.2,0,786,33554432,151,0, 
0.4400,-141.3,-128.4,-2066.1,-130.5,-208.2,-183.9,-129.3,-283.5,-3038.1,-0.3,-123.0,-73.5,-9830.1,-9027.6,-3564.9,-2838.6,-7.2,-6.0,-72.9,36.3,-0.6,42.6,169.2,316.5,0,792,33554432,152,0, 
0.4433,-145.5,-133.8,-2247.6,-135.6,-172.2,-187.5,-102.0,-291.9,-2148.9,-9.3,-128.7,-77.4,-9830.1,-8804.7,-2543.1,-3223.5,-6.9,-6.3,-78.6,26.1,-0.6,37.5,168.3,312.9,0,798,33554432,153,0, 
0.4467,-143.4,-134.4,909.0,-142.2,-71.1,-184.8,-82.8,-296.4,-1630.2,-1.8,-126.9,-84.0,-8936.1,-7209.0,417.9,-1745.1,-6.9,-5.7,-74.1,18.6,-0.3,33.6,180.6,331.8,0,804,33554432,154,0, 
0.4500,-139.8,-129.0,2901.6,-135.6,-31.5,-187.5,-76.5,-292.2,-2371.2,0.6,-125.1,-73.2,-8634.6,-6525.6,1054.5,-592.8,-6.9,-6.0,-71.4,31.8,-0.6,52.2,190.8,348.6,0,810,33554432,155,0, 
0.4533,-142.2,-133.2,1035.6,-143.7,-132.3,-192.0,-109.2,-297.9,-3186.3,1.5,-137.4,-83.7,-9522.9,-7621.5,-1385.4,-1234.8,-6.9,-6.0,-85.8,20.7,-0.6,43.2,182.7,326.7,0,816,33554432,156,0, 
0.4567,-135.6,-132.0,-2113.8,-142.5,-216.3,-191.1,-119.4,-300.0,-3186.3,7.2,-133.5,-81.9,-9830.1,-9128.7,-3607.8,-2862.3,-6.6,-6.0,-80.1,25.8,-0.6,41.7,167.4,316.2,0,822,33554432,157,0, 
0.4600,-134.7,-128.7,-2263.8,-142.2,-163.8,-189.6,-114.3,-296.4,-2371.2,-0.9,-125.4,-82.8,-9830.1,-8847.0,-2521.2,-3225.3,-6.9,-6.3,-77.1,31.2,-0.9,53.7,172.2,316.2,0,828,33554432,158,0, 
0.4633,-130.8,-128.4,847.2,-141.6,-56.7,-194.4,-79.5,-300.0,-1852.5,2.4,-140.1,-86.7,-8975.4,-7206.6,341.7,-1724.7,-6.9,-6.3,-81.3,25.2,-0.9,35.7,178.5,324.0,0,834,33554432,159,0, 
0.4667,-136.5,-133.8,2855.1,-146.7,-55.2,-204.0,-88.5,-304.2,-2297.1,3.0,-140.7,-92.7,-8660.1,-6576.3,935.4,-576.9,-6.9,-6.0,-82.8,22.5,-0.6,31.8,173.1,324.6,0,840,33554432,160,0, 
0.4700,-132.6,-126.9,1127.7,-133.5,-122.7,-195.9,-91.2,-293.4,-3334.5,0.0,-135.0,-77.4,-9524.4,-7611.0,-1326.6,-1140.0,-6.9,-6.3,-81.9,32.7,-0.9,43.5,176.4,326.4,0,846,33554432,161,0, 
0.4733,-136.2,-127.8,-1688.4,-141.3,-180.3,-201.0,-124.5,-296.4,-3112.2,-6.9,-140.4,-81.0,-9822.0,-8918.1,-3114.9,-2577.3,-6.9,-6.3,-87.9,29.7,-0.3,36.3,161.7,299.7,0,852,33554432,162,0, 
0.4767,-137.1,-131.1,-2011.5,-145.8,-150.9,-206.7,-124.5,-297.6,-2223.0,-9.9,-144.9,-86.4,-9820.8,-8855.1,-2326.2,-3093.0,-6.9,-6.3,-91.2,20.7,-1.2,27.9,153.3,289.8,0,858,33554432,163,0, 
0.4800,-143.7,-140.7,1068.3,-151.2,-48.6,-212.1,-97.2,-302.1,-1630.2,-13.2,-147.0,-99.6,-8907.3,-7251.0,531.0,-1653.6,-6.6,-6.3,-97.2,20.4,-0.9,27.0,162.0,308.7,0,864,33554432,164,0, 
0.4833,-134.7,-141.3,2981.4,-140.1,-32.4,-205.5,-89.7,-288.0,-2445.3,-19.2,-139.5,-90.3,-8675.1,-6522.6,1062.9,-497.1,-6.9,-6.0,-87.9,21.3,-0.9,38.4,175.5,318.0,0,870,33554432,165,0, 
0.4867,-141.9,-154.5,1103.4,-147.6,-145.8,-209.1,-117.6,-291.0,-3334.5,-22.2,-145.5,-96.6,-9580.5,-7710.3,-1386.9,-1169.7,-6.6,-5.7,-96.3,18.0,-0.9,25.8,165.0,303.0,0,876,33554432,166,0, 
0.4900,-142.5,-149.4,-2049.6,-147.3,-210.3,-207.6,-142.2,-288.3,-3186.3,-22.2,-145.8,-94.2,-9830.1,-9168.3,-3606.0,-2852.1,-6.9,-6.0,-98.1,15.6,-0.9,27.0,151.2,285.0,0,882,33554432,167,0, 
0.4933,-142.5,-153.9,-2206.5,-145.2,-148.2,-199.5,-129.6,-290.4,-2223.0,-27.9,-147.6,-91.5,-9830.1,-8912.4,-2516.7,-3171.9,-7.2,-5.7,-100.5,18.3,-0.9,16.8,154.2,290.4,0,888,33554432,168,0, 
0.4967,-145.8,-154.5,846.3,-148.8,-68.4,-211.2,-100.8,-297.6,-1704.3,-33.6,-154.2,-94.8,-9100.5,-7351.8,250.5,-1770.6,-6.6,-6.0,-100.5,14.7,-0.6,12.3,155.1,288.9,0,894,33554432,169,0, 
0.5000,-148.8,-157.5,2876.1,-148.2,-59.1,-213.3,-91.8,-299.4,-2445.3,-28.5,-153.9,-93.3,-8730.9,-6615.9,972.0,-515.4,-6.6,-5.7,-101.1,8.7,-0.6,13.5,162.9,294.0,0,900,33554432,170,0, 
0.5033,-146.1,-153.0,1040.4,-137.4,-117.6,-196.2,-115.2,-280.2,-3112.2,-21.0,-138.0,-87.9,-9627.0,-7771.8,-1432.5,-1245.3,-6.6,-6.0,-88.8,14.4,-0.6,27.0,163.8,301.2,0,906,33554432,171,0, 
0.5067,-147.0,-156.6,-2055.6,-145.2,-206.4,-202.2,-136.5,-285.3,-3186.3,-30.9,-142.2,-93.3,-9830.1,-9207.9,-3621.9,-2872.5,-7.2,-6.3,-91.8,13.2,-0.3,15.6,150.0,282.0,0,912,33554432,172,0, 
0.5100,-150.0,-152.4,-2194.5,-148.5,-167.7,-198.6,-117.6,-290.1,-2223.0,-32.1,-150.9,-89.4,-9830.1,-8928.6,-2530.8,-3219.9,-6.9,-5.7,-101.4,10.2,-0.9,13.2,150.0,282.6,0,918,33554432,173,0, 
0.5133,-144.3,-142.5,945.3,-143.1,-60.6,-208.5,-90.0,-289.8,-1852.5,-27.6,-145.5,-90.6,-9171.3,-7358.7,297.3,-1727.4,-6.9,-5.7,-97.5,16.5,-1.2,19.2,164.1,304.5,0,924,33554432,174,0, 
0.5167,-150.6,-151.8,2969.7,-150.6,-51.9,-205.8,-89.1,-292.8,-2297.1,-34.8,-150.9,-99.6,-8803.2,-6626.7,1037.7,-553.8,-6.9,-5.7,-102.0,5.7,-0.9,17.7,171.9,317.7,0,930,33554432,175,0, 
0.5200,-143.1,-144.6,1114.5,-146.4,-136.2,-200.4,-105.0,-288.3,-3334.5,-27.3,-150.3,-88.5,-9678.3,-7758.9,-1413.9,-1256.4,-7.2,-6.0,-103.2,13.2,-0.6,19.5,171.0,316.5,0,936,33554432,176,0, 
0.5233,-141.6,-146.1,-2052.3,-146.1,-196.5,-201.6,-131.1,-283.5,-3334.5,-27.3,-147.3,-92.4,-9830.1,-9200.4,-3549.9,-2852.7,-6.6,-5.7,-99.0,4.2,-0.6,21.6,164.4,302.7,0,942,33554432,177,0, 
0.5267,-141.6,-136.2,-2122.5,-151.5,-168.0,-198.0,-113.4,-280.8,-2371.2,-32.4,-149.1,-102.3,-9830.1,-8955.3,-2462.4,-3167.4,-6.9,-6.0,-100.5,7.2,-0.9,16.5,160.5,301.2,0,948,33554432,178,0, 
0.5300,-141.3,-140.7,901.5,-152.4,-87.9,-200.7,-87.3,-288.3,-1630.2,-23.7,-151.5,-103.2,-9071.1,-7363.2,362.7,-1725.0,-6.6,-6.0,-100.5,-2.4,-0.6,18.6,177.0,322.5,0,954,33554432,179,0, 
0.5333,-142.2,-132.6,2940.6,-150.6,-60.6,-196.2,-78.6,-285.6,-2297.1,-33.3,-159.3,-98.4,-8669.1,-6635.7,1029.9,-492.9,-6.9,-6.0,-104.4,3.3,-0.9,24.0,182.1,332.7,0,960,33554432,180,0, 
0.5367,-143.7,-143.4,1014.3,-151.5,-169.8,-198.6,-104.7,-291.9,-3260.4,-25.5,-156.6,-98.4,-9620.4,-7810.2,-1414.5,-1234.8,-6.9,-6.0,-101.1,1.8,-0.9,27.3,174.3,316.5,0,966,33554432,181,0, 
0.5400,-141.0,-138.0,-2163.3,-146.4,-216.0,-193.2,-127.5,-287.1,-3112.2,-23.7,-152.4,-85.5,-9830.1,-9216.3,-3575.4,-2846.1,-7.2,-6.3,-101.4,12.9,-0.9,27.9,162.9,307.2,0,972,33554432,182,0, 
0.5433,-138.0,-145.2,-2268.3,-145.8,-171.6,-192.9,-124.2,-283.5,-2148.9,-15.6,-143.7,-80.7,-9830.1,-8966.7,-2544.6,-3150.3,-6.9,-6.0,-92.4,16.8,-0.6,37.5,174.0,319.5,0,978,33554432,183,0, 
0.5467,-134.4,-138.3,821.7,-147.6,-71.4,-194.4,-79.2,-284.1,-1630.2,-15.6,-146.1,-87.6,-9036.6,-7352.4,316.8,-1701.9,-6.9,-6.0,-93.9,21.6,-0.6,35.4,180.9,336.0,0,984,33554432,184,0, 
0.5500,-136.8,-143.4,2899.8,-150.3,-50.7,-186.9,-79.2,-284.7,-2297.1,-16.2,-148.8,-89.4,-8640.9,-6631.5,1024.2,-444.6,-7.2,-6.3,-95.7,14.4,-0.6,36.6,192.0,346.5,0,990,33554432,185,0, 
0.5533,-135.0,-144.9,1032.6,-148.8,-131.1,-191.1,-96.0,-287.1,-3260.4,-11.4,-143.1,-86.1,-9574.2,-7762.8,-1390.8,-1175.1,-7.2,-6.0,-89.7,19.2,-0.9,43.2,188.4,346.2,0,996,33554432,186,0, 
0.5567,-135.6,-144.3,-2115.9,-147.9,-204.6,-190.8,-123.9,-285.3,-3186.3,-9.9,-147.9,-92.7,-9830.1,-9210.6,-3644.1,-2854.5,-6.9,-6.0,-93.6,15.3,-0.6,39.6,178.5,330.9,0,1002,33554432,187,0, 
0.5600,-132.9,-133.5,-2183.1,-141.0,-161.1,-182.4,-110.4,-280.8,-2223.0,-7.5,-137.4,-83.4,-9830.1,-8944.8,-2511.0,-3193.8,-6.9,-6.0,-84.9,33.6,-0.9,39.3,183.9,334.5,0,1008,33554432,188,0, 
0.5633,-133.8,-132.9,904.5,-139.5,-56.4,-187.8,-85.8,-284.4,-1704.3,-7.8,-137.4,-87.3,-9010.8,-7353.3,338.7,-1705.5,-6.9,-6.3,-83.4,17.4,-0.6,45.0,190.8,348.6,0,1014,33554432,189,0, 
0.5667,-129.9,-134.1,2922.0,-145.5,-58.2,-191.4,-76.2,-285.3,-2371.2,-6.6,-142.2,-85.8,-8683.5,-6667.8,1037.4,-483.9,-6.6,-6.3,-87.0,15.9,-0.9,48.0,194.1,358.2,0,1020,33554432,190,0, 
0.5700,-127.8,-133.2,1107.9,-133.5,-129.6,-184.5,-94.5,-283.2,-3186.3,-3.0,-135.0,-74.7,-9589.5,-7782.0,-1391.7,-1168.5,-6.9,-6.0,-81.3,21.0,-0.9,45.3,187.8,350.4,0,1026,33554432,191,0, 
0.5733,-127.2,-134.4,-2121.3,-131.7,-213.0,-183.0,-120.9,-282.3,-3112.2,-6.0,-139.2,-85.8,-9830.1,-9233.1,-3650.7,-2805.0,-7.2,-6.6,-83.7,13.8,-0.6,41.7,175.5,333.6,0,1032,33554432,192,0, 
0.5767,-126.6,-136.8,-2190.6,-128.4,-144.0,-187.5,-116.7,-283.8,-2297.1,-12.3,-132.0,-86.7,-9830.1,-8992.5,-2535.9,-3123.6,-6.9,-5.7,-79.5,17.1,-0.9,34.2,172.2,326.4,0,1038,33554432,193,0, 
0.5800,-129.6,-141.3,877.5,-130.8,-64.8,-192.0,-84.0,-278.1,-1630.2,-12.3,-140.4,-84.3,-9068.1,-7437.9,274.2,-1692.6,-6.9,-6.3,-85.2,15.3,-0.6,38.1,185.4,338.1,0,1044,33554432,194,0, 
0.5833,-129.3,-142.2,2901.9,-131.7,-37.2,-191.7,-68.7,-280.8,-2297.1,-20.1,-149.4,-85.8,-8716.2,-6704.4,992.1,-478.5,-6.6,-6.0,-92.4,17.7,-0.9,30.6,192.3,342.9,0,1050,33554432,195,0, 
0.5867,-129.6,-145.5,1089.9,-135.0,-137.7,-193.8,-106.2,-276.9,-3186.3,-18.3,-146.1,-86.4,-9626.1,-7883.1,-1411.8,-1206.6,-6.6,-6.0,-93.6,16.5,-0.6,27.9,181.5,328.2,0,1056,33554432,196,0, 
0.5900,-128.1,-141.0,-2108.7,-129.6,-209.7,-189.9,-125.4,-269.1,-3186.3,-18.3,-140.4,-86.7,-9830.1,-9368.4,-3637.8,-2849.7,-6.6,-6.0,-88.2,22.8,-0.9,27.9,171.3,314.4,0,1062,33554432,197,0, 
0.5933,-136.8,-141.3,-2180.1,-137.4,-156.6,-197.4,-116.4,-272.7,-2223.0,-23.7,-146.1,-97.2,-9830.1,-9079.2,-2414.4,-3121.5,-6.9,-5.7,-88.2,21.0,-0.9,23.7,167.4,318.0,0,1068,33554432,198,0, 
0.5967,-135.9,-140.1,883.2,-138.6,-61.8,-199.8,-80.7,-277.2,-1778.4,-30.0,-149.4,-100.8,-9089.4,-7502.4,423.9,-1724.1,-6.9,-6.0,-91.8,8.7,-0.9,23.4,174.9,331.8,0,1074,33554432,199,0, 
0.6000,-132.0,-133.2,2941.5,-134.7,-50.4,-189.9,-69.9,-275.7,-2371.2,-20.7,-138.3,-86.4,-8737.5,-6775.5,1085.4,-540.3,-7.2,-5.7,-80.7,22.5,-1.2,27.9,185.4,344.7,0,1080,33554432,200,0, 
0.6033,-138.3,-142.8,1065.0,-141.6,-147.6,-192.3,-89.4,-282.0,-3334.5,-21.9,-155.1,-105.6,-9647.7,-7878.3,-1361.4,-1267.5,-7.2,-6.3,-101.4,3.6,-0.6,28.2,181.5,334.8,0,1086,33554432,201,0, 
0.6067,-135.6,-141.6,-2113.2,-144.6,-224.7,-200.7,-122.1,-283.5,-3186.3,-26.1,-175.2,-120.9,-9830.1,-9330.3,-3620.1,-2807.4,-6.9,-6.0,-116.4,-10.8,-0.9,28.5,174.3,323.1,0,1092,33554432,202,0, 
0.6100,-140.7,-150.0,-2304.0,-146.4,-188.1,-200.1,-121.2,-290.4,-2223.0,-33.6,-180.6,-131.1,-9830.1,-9080.1,-2585.7,-3149.4,-7.5,-5.7,-124.5,-23.1,-0.9,16.8,176.1,309.0,0,1098,33554432,203,0, 
0.6133,-144.9,-144.3,878.1,-141.6,-80.4,-201.6,-87.3,-287.4,-1704.3,-31.2,-140.1,-87.9,-9105.3,-7463.4,375.9,-1639.8,-6.6,-6.0,-87.0,12.6,-0.9,31.2,180.0,323.4,0,1104,33554432,204,0, 
0.6167,-143.7,-149.7,2930.7,-135.0,-41.4,-199.5,-88.5,-288.0,-2371.2,-21.0,-114.6,-55.2,-8725.2,-6713.4,1043.1,-438.6,-7.2,-6.3,-70.2,34.5,-0.6,27.3,185.4,331.2,0,1110,33554432,205,0, 
0.6200,-139.5,-143.7,1044.9,-127.5,-134.1,-191.4,-109.8,-282.0,-3260.4,-18.0,-101.1,-36.3,-9638.7,-7866.6,-1345.5,-1140.0,-6.6,-6.0,-58.8,48.6,-1.2,36.9,183.9,328.8,0,1116,33554432,206,0, 
0.6233,-141.6,-146.4,-2049.0,-120.9,-196.8,-192.6,-129.6,-282.9,-3186.3,-24.0,-93.3,-30.9,-9830.1,-9277.8,-3557.7,-2803.5,-6.9,-5.7,-56.7,45.0,-0.9,23.7,171.3,303.0,0,1122,33554432,207,0, 
0.6267,-137.4,-143.4,-2232.3,-118.2,-142.8,-192.3,-119.1,-282.9,-2148.9,-26.4,-82.2,-23.1,-9830.1,-9023.1,-2439.0,-3132.6,-6.9,-6.0,-48.6,52.8,-0.9,24.3,172.8,307.5,0,1128,33554432,208,0, 
0.6300,-143.4,-147.0,882.3,-115.8,-37.2,-195.3,-105.0,-287.7,-1630.2,-34.2,-74.1,-14.7,-9129.0,-7426.5,442.2,-1646.7,-6.6,-6.0,-44.4,53.4,-0.9,21.9,171.0,324.0,0,1134,33554432,209,0, 
0.6333,-144.6,-150.0,2943.0,-119.4,-44.7,-193.8,-90.6,-287.7,-2223.0,-38.7,-67.8,-6.9,-8778.0,-6698.4,1088.7,-441.9,-7.2,-6.0,-43.8,62.7,-0.6,23.1,177.9,335.4,0,1140,33554432,210,0, 
0.6367,-143.7,-145.8,1109.4,-118.8,-105.6,-198.9,-118.5,-281.7,-3112.2,-39.3,-66.6,-12.6,-9631.2,-7832.4,-1327.8,-1094.1,-6.9,-6.6,-41.1,51.6,-1.2,18.0,170.4,306.0,0,1146,33554432,211,0, 
0.6400,-138.3,-138.6,-2124.0,-117.0,-187.5,-198.3,-132.6,-283.8,-2889.9,-36.3,-60.0,-3.9,-9830.1,-9257.4,-3523.8,-2767.2,-6.9,-5.7,-38.4,60.0,-0.9,22.5,161.1,297.3,0,1152,33554432,212,0, 
0.6433,-145.8,-133.8,-2259.0,-117.9,-145.2,-197.7,-125.4,-289.2,-2148.9,-31.5,-59.7,10.5,-9830.1,-9022.8,-2450.1,-3081.6,-6.6,-6.3,-31.8,67.5,-1.2,23.1,157.5,301.8,0,1158,33554432,213,0, 
0.6467,-142.5,-138.6,862.5,-119.7,-39.9,-198.6,-85.5,-289.8,-1630.2,-39.9,-62.4,11.1,-9138.0,-7371.9,429.3,-1606.2,-6.9,-6.0,-33.6,65.1,-0.9,25.2,166.8,311.7,0,1164,33554432,214,0, 
0.6500,-139.5,-134.1,2882.1,-120.6,-32.4,-189.6,-87.0,-282.9,-2297.1,-40.5,-63.3,6.9,-8749.2,-6702.0,1113.3,-436.8,-6.9,-6.3,-35.1,60.0,-0.9,21.6,172.5,319.5,0,1170,33554432,215,0, 
0.6533,-140.7,-139.2,1004.4,-118.5,-106.5,-202.2,-115.2,-280.5,-3112.2,-26.7,-64.2,11.7,-9676.2,-7869.9,-1431.9,-1068.0,-6.6,-6.0,-40.5,68.4,-0.3,25.5,170.1,319.2,0,1176,33554432,216,0, 
0.6567,-141.6,-132.0,-2157.0,-117.0,-168.6,-195.6,-136.5,-281.7,-3186.3,-29.7,-57.0,18.3,-9830.1,-9275.1,-3466.5,-2692.5,-6.9,-6.0,-30.0,69.0,-0.9,21.9,161.1,306.3,0,1182,33554432,217,0, 
0.6600,-136.8,-133.8,-2271.9,-114.3,-128.7,-196.2,-126.9,-283.8,-2148.9,-24.9,-55.8,15.9,-9830.1,-9029.4,-2559.0,-2984.4,-6.9,-6.0,-34.2,76.5,-1.2,30.0,171.3,313.2,0,1188,33554432,218,0, 
0.6633,-137.1,-132.3,833.4,-115.2,-31.5,-198.3,-93.6,-284.7,-1556.1,-32.7,-57.0,7.5,-9082.5,-7446.6,356.1,-1540.5,-6.6,-5.7,-32.7,73.8,-0.6,26.1,181.2,319.5,0,1194,33554432,219,0, 
0.6667,-136.8,-138.3,2850.9,-114.9,-20.1,-195.6,-84.6,-278.7,-2297.1,-24.3,-59.4,5.4,-8762.4,-6756.6,1080.9,-337.5,-6.9,-5.7,-35.1,66.6,-1.2,27.9,193.2,339.6,0,1200,33554432,220,0, 
0.6700,-140.4,-133.8,1006.8,-116.7,-120.3,-198.6,-109.8,-280.5,-3112.2,-29.4,-57.0,3.0,-9636.9,-7874.4,-1362.0,-1023.0,-6.6,-6.0,-32.1,66.0,-0.9,27.9,176.4,317.7,0,1206,33554432,221,0, 
0.6733,-142.2,-139.8,-2167.8,-121.5,-185.4,-203.4,-129.9,-283.5,-3038.1,-26.4,-61.8,5.4,-9830.1,-9296.1,-3581.7,-2668.2,-7.2,-6.0,-41.1,67.5,-1.2,26.4,162.0,301.2,0,1212,33554432,222,0, 
0.6767,-141.6,-137.7,-2248.2,-116.7,-148.2,-198.0,-117.3,-279.6,-2074.8,-30.3,-61.8,5.4,-9830.1,-8995.2,-2428.8,-3007.5,-6.9,-6.0,-35.4,67.5,-1.2,28.5,162.0,303.9,0,1218,33554432,223,0, 
0.6800,-141.9,-147.6,752.4,-124.8,-61.5,-209.1,-99.3,-284.7,-1778.4,-36.9,-73.8,-7.5,-9057.6,-7428.3,416.7,-1584.3,-6.6,-5.7,-46.8,58.2,-0.9,15.0,164.1,310.5,0,1224,33554432,224,0, 
0.6833,-139.5,-141.0,2783.7,-116.4,-21.9,-202.2,-78.9,-275.7,-2223.0,-28.5,-67.2,0.9,-8696.7,-6656.4,1133.7,-377.1,-6.6,-6.0,-37.5,66.0,-0.6,24.3,176.4,332.7,0,1230,33554432,225,0, 
0.6867,-141.0,-146.4,924.0,-120.9,-126.3,-204.9,-117.3,-277.5,-3112.2,-32.4,-69.6,0.6,-9622.8,-7837.8,-1277.1,-1096.8,-7.2,-6.3,-43.2,63.0,-0.9,23.4,165.6,324.6,0,1236,33554432,226,0, 
0.6900,-139.8,-139.2,-2212.5,-120.6,-195.3,-201.9,-129.3,-276.6,-3038.1,-31.5,-71.4,-2.4,-9830.1,-9256.8,-3388.8,-2715.6,-6.6,-6.3,-45.3,64.5,-0.9,20.7,153.9,310.2,0,1242,33554432,227,0, 
0.6933,-139.2,-137.1,-2361.9,-122.4,-149.4,-199.5,-118.8,-276.6,-2223.0,-30.6,-71.4,-6.3,-9830.1,-8993.7,-2335.5,-3084.0,-6.9,-6.3,-45.9,59.4,-0.9,22.5,154.2,310.8,0,1248,33554432,228,0, 
0.6967,-139.8,-138.3,741.9,-117.3,-57.3,-205.2,-86.7,-274.8,-1630.2,-28.8,-68.1,-1.5,-9078.9,-7392.3,509.1,-1627.5,-6.6,-6.3,-43.5,66.9,-0.3,24.0,165.6,335.7,0,1254,33554432,229,0, 
0.7000,-135.9,-138.3,2785.2,-116.1,-34.8,-201.0,-85.8,-276.0,-2223.0,-33.6,-66.0,-5.4,-8688.3,-6676.8,1222.5,-449.4,-7.5,-6.0,-43.2,61.8,-0.9,21.3,171.3,336.3,0,1260,33554432,230,0, 
0.7033,-135.9,-132.3,927.6,-113.7,-129.9,-197.1,-108.3,-268.8,-3112.2,-36.9,-72.3,3.6,-9600.0,-7837.8,-1276.5,-1149.6,-6.9,-6.3,-44.7,64.5,-0.9,19.2,170.7,327.3,0,1266,33554432,231,0, 
0.7067,-140.1,-134.4,-2209.5,-116.7,-212.7,-200.4,-132.3,-273.3,-3112.2,-36.6,-77.1,1.2,-9830.1,-9223.5,-3468.6,-2795.7,-6.9,-6.6,-47.1,57.0,-0.9,16.8,155.4,302.1,0,1272,33554432,232,0, 
0.7100,-141.6,-139.8,-2323.8,-114.3,-181.2,-194.1,-119.4,-273.9,-2223.0,-42.3,-76.2,3.9,-9830.1,-8964.9,-2368.8,-3051.3,-6.6,-6.0,-48.3,54.9,-0.9,12.3,153.3,297.9,0,1278,33554432,233,0, 
0.7133,-136.2,-137.1,685.2,-116.1,-72.3,-199.2,-90.0,-270.3,-1556.1,-42.0,-74.1,-3.0,-9062.7,-7436.1,436.5,-1692.3,-7.2,-6.3,-47.4,60.6,-0.9,18.6,166.2,321.6,0,1284,33554432,234,0, 
0.7167,-137.4,-140.7,2723.7,-117.6,-53.4,-193.2,-74.4,-268.5,-2297.1,-42.0,-77.4,-10.5,-8705.1,-6703.8,1105.8,-489.6,-6.9,-6.0,-46.5,57.9,-0.9,13.2,181.8,322.2,0,1290,33554432,235,0, 
0.7200,-137.4,-142.5,926.4,-116.4,-131.7,-198.6,-102.3,-270.3,-3112.2,-38.1,-73.2,-7.2,-9570.0,-7824.3,-1310.1,-1169.1,-6.9,-6.3,-46.8,61.8,-1.5,24.6,173.7,316.5,0,1296,33554432,236,0, 
0.7233,-136.8,-141.0,-2274.6,-118.5,-214.8,-197.7,-117.3,-271.8,-3186.3,-41.1,-77.1,-11.4,-9830.1,-9291.9,-3532.5,-2815.8,-6.9,-5.7,-51.3,50.7,-1.2,11.7,162.3,297.9,0,1302,33554432,237,0, 
0.7267,-142.2,-143.1,-2362.8,-124.5,-161.1,-203.1,-118.8,-277.2,-2223.0,-41.7,-77.4,-14.1,-9830.1,-9020.7,-2477.1,-3126.0,-6.6,-6.3,-55.2,45.6,-0.9,16.2,157.5,298.5,0,1308,33554432,238,0, 
0.7300,-137.7,-140.4,741.0,-128.1,-61.5,-203.1,-89.1,-276.6,-1630.2,-45.0,-78.3,-15.9,-9037.2,-7461.3,400.8,-1708.2,-6.9,-6.0,-55.2,46.5,-0.9,14.4,172.2,314.7,0,1314,33554432,239,0, 
0.7333,-141.3,-150.9,2770.8,-126.0,-39.0,-198.0,-80.1,-273.6,-2297.1,-45.6,-70.5,-9.6,-8678.1,-6750.3,1008.9,-567.6,-6.9,-5.7,-49.2,55.5,-0.6,29.1,185.4,330.9,0,1320,33554432,240,0, 
0.7367,-134.1,-140.1,897.3,-118.8,-136.5,-195.6,-101.1,-266.1,-3112.2,-39.0,-67.8,2.1,-9627.0,-7917.6,-1493.4,-1322.4,-6.9,-5.7,-42.6,57.0,-0.6,29.7,178.2,320.1,0,1326,33554432,241,0, 
0.7400,-137.1,-145.5,-2248.8,-122.4,-191.1,-194.4,-129.9,-267.0,-3186.3,-27.9,-78.3,-3.3,-9830.1,-9307.2,-3660.6,-2913.0,-6.9,-6.3,-49.8,49.2,-0.6,28.5,167.4,301.5,0,1332,33554432,242,0, 
0.7433,-132.9,-142.5,-2397.9,-122.4,-159.9,-193.5,-126.3,-263.1,-2148.9,-39.9,-79.8,-4.2,-9830.1,-9070.2,-2529.6,-3203.1,-6.9,-6.3,-53.1,46.8,-0.6,21.3,170.1,312.9,0,1338,33554432,243,0, 
0.7467,-137.1,-145.8,649.5,-126.0,-59.7,-201.0,-91.2,-267.3,-1630.2,-52.5,-80.1,-11.7,-9004.5,-7469.7,261.3,-1802.4,-6.9,-5.7,-56.1,44.7,-0.6,14.7,174.9,314.1,0,1344,33554432,244,0, 
0.7500,-134.7,-141.0,2655.6,-119.7,-55.2,-201.3,-89.7,-263.7,-2148.9,-45.6,-82.8,-10.8,-8678.7,-6786.9,942.6,-620.1,-6.9,-6.0,-53.4,45.3,-0.9,0.3,183.6,322.8,0,1350,33554432,245,0, 
0.7533,-131.7,-136.5,863.4,-105.6,-127.2,-186.3,-105.6,-251.4,-3112.2,-34.2,-67.8,2.7,-9569.1,-7917.0,-1496.7,-1326.9,-7.2,-6.0,-40.5,58.5,-0.6,22.8,177.0,321.3,0,1356,33554432,246,0, 
0.7567,-132.9,-137.1,-2313.9,-112.8,-196.8,-188.7,-123.3,-255.9,-3112.2,-53.4,-74.4,-9.9,-9830.1,-9396.6,-3682.2,-3019.8,-6.6,-5.7,-48.0,52.8,-0.6,10.5,162.3,302.4,0,1362,33554432,247,0, 
0.7600,-137.4,-140.4,-2430.0,-124.8,-163.8,-208.2,-111.9,-266.7,-2148.9,-54.6,-83.4,-19.5,-9830.1,-9116.7,-2661.9,-3305.4,-7.5,-5.7,-55.8,41.4,-0.9,2.1,160.2,297.6,0,1368,33554432,248,0, 
0.7633,-133.8,-139.5,621.0,-123.3,-60.0,-206.1,-82.2,-268.2,-1630.2,-49.8,-81.3,-13.5,-9140.7,-7495.5,189.6,-1851.0,-6.6,-5.7,-53.1,38.4,-0.6,5.7,173.1,309.3,0,1374,33554432,249,0, 
0.7667,-130.2,-144.0,2627.4,-122.1,-41.4,-197.7,-77.7,-270.9,-2297.1,-46.8,-81.9,-10.5,-8766.6,-6782.7,853.8,-664.8,-6.9,-6.0,-51.9,44.4,-0.3,6.0,183.3,328.2,0,1380,33554432,250,0, 
0.7700,-130.5,-138.0,710.1,-122.7,-132.6,-202.5,-110.4,-267.6,-3186.3,-39.6,-80.1,-14.1,-9629.4,-7933.5,-1565.1,-1392.3,-6.6,-6.0,-51.3,41.7,-0.3,12.9,169.5,323.4,0,1386,33554432,251,0, 
0.7733,-128.7,-132.0,-2381.7,-120.9,-204.6,-196.5,-131.7,-258.6,-3112.2,-49.2,-76.5,-18.3,-9830.1,-9368.7,-3723.0,-3062.1,-7.2,-6.3,-47.4,38.1,-0.9,8.7,171.9,310.2,0,1392,33554432,252,0, 
0.7767,-133.5,-138.0,-2531.7,-124.5,-154.2,-201.9,-122.1,-264.0,-2148.9,-48.3,-75.6,-19.5,-9830.1,-9077.1,-2626.2,-3348.3,-6.6,-5.7,-47.7,40.2,-0.9,2.1,169.5,300.6,0,1398,33554432,253,0, 
0.7800,-134.4,-137.4,589.5,-125.7,-64.5,-199.8,-89.1,-270.0,-1704.3,-47.4,-81.9,-19.2,-9143.4,-7503.3,233.1,-1971.9,-6.9,-6.0,-50.1,39.0,-0.6,7.8,185.7,316.2,0,1404,33554432,254,0, 
0.7833,-133.8,-140.7,2551.5,-124.2,-42.9,-198.3,-80.7,-265.8,-2297.1,-48.0,-85.2,-12.9,-8801.7,-6858.9,752.1,-811.2,-6.6,-6.0,-51.0,44.1,-0.9,10.2,190.2,324.0,0,1410,33554432,255,0, 
0.7867,-136.8,-141.6,706.8,-117.9,-135.3,-195.0,-114.6,-264.0,-3186.3,-37.2,-73.5,-6.6,-9669.3,-7967.4,-1675.5,-1492.8,-7.2,-5.7,-40.8,45.9,-0.3,16.8,186.6,324.9,0,1416,33554432,0,0, 
0.7900,-132.9,-131.4,-2433.9,-114.0,-200.7,-190.2,-127.8,-260.1,-3112.2,-38.7,-68.4,-1.2,-9830.1,-9351.0,-3908.4,-3155.4,-6.6,-6.3,-38.4,51.6,-0.6,19.2,179.7,302.1,0,1422,33554432,1,0, 
0.7933,-130.8,-129.3,-2469.3,-111.3,-162.0,-192.0,-122.4,-257.7,-2148.9,-36.9,-62.1,-1.2,-9830.1,-9100.8,-2799.0,-3443.4,-7.2,-6.0,-36.0,52.2,-0.9,19.5,174.9,304.8,0,1428,33554432,2,0, 
0.7967,-134.4,-145.5,593.1,-117.9,-67.2,-195.0,-88.2,-264.0,-1630.2,-39.6,-79.2,-15.3,-9159.9,-7490.4,47.1,-2049.3,-6.6,-6.0,-48.9,42.0,-0.9,18.0,186.0,319.2,0,1434,33554432,3,0, 
0.8000,-132.3,-146.1,2546.4,-118.8,-43.5,-188.7,-85.5,-258.6,-2371.2,-34.5,-78.3,-10.2,-8882.1,-6797.7,729.3,-854.4,-6.6,-5.7,-48.6,50.4,-0.9,16.2,194.7,323.7,0,1440,33554432,4,0, 
0.8033,-131.1,-147.0,682.8,-122.1,-123.6,-193.5,-113.1,-260.7,-3112.2,-36.0,-72.6,-8.7,-9684.0,-7974.9,-1771.5,-1510.5,-6.9,-5.7,-43.8,44.4,-0.9,19.2,183.9,313.8,0,1446,33554432,5,0, 
0.8067,-129.6,-138.6,-2698.2,-114.3,-227.7,-196.2,-137.1,-259.2,-3186.3,-29.1,-63.0,1.8,-9830.1,-9521.4,-4272.9,-3381.9,-6.9,-5.7,-33.6,54.6,-0.9,27.3,172.5,303.3,0,1452,33554432,6,0, 
0.8100,-125.4,-141.0,-2859.3,-116.1,-166.2,-194.4,-126.0,-257.4,-2148.9,-28.8,-65.4,-6.6,-9830.1,-9139.2,-3099.9,-3637.8,-6.9,-6.0,-35.1,45.0,-0.9,16.5,175.5,302.4,0,1458,33554432,7,0, 
0.8133,-122.7,-135.9,325.8,-114.6,-61.2,-184.8,-89.1,-255.3,-1556.1,-25.8,-68.4,-2.4,-9305.1,-7537.8,-119.1,-2086.8,-6.6,-5.7,-34.2,52.5,-0.6,31.8,189.9,319.5,0,1464,33554432,8,0, 
0.8167,-121.8,-143.1,2374.8,-116.7,-30.3,-180.0,-83.7,-262.2,-2297.1,-18.9,-69.6,1.8,-8845.8,-6764.7,554.1,-923.4,-6.6,-6.3,-36.3,62.1,-0.6,33.3,195.3,329.7,0,1470,33554432,9,0, 
0.8200,-122.1,-139.2,536.1,-114.6,-125.4,-182.7,-100.2,-263.7,-3260.4,-20.1,-64.5,3.0,-9743.1,-7911.9,-1800.3,-1612.5,-6.9,-6.0,-33.6,52.5,-0.3,38.7,187.2,320.7,0,1476,33554432,10,0, 
0.8233,-123.6,-140.4,-2599.2,-119.1,-196.5,-186.0,-135.3,-271.8,-3112.2,-26.1,-70.5,-3.0,-9822.9,-9318.0,-3986.4,-3226.2,-6.9,-5.7,-37.5,55.2,-0.6,26.7,174.3,300.6,0,1482,33554432,11,0, 
0.8267,-120.3,-126.9,-2632.2,-111.9,-160.5,-186.0,-119.1,-266.1,-2223.0,-25.2,-60.0,1.2,-9830.1,-9079.5,-2818.8,-3523.2,-6.6,-6.0,-27.6,54.9,-0.6,32.4,170.7,306.0,0,1488,33554432,12,0, 
0.8300,-125.1,-132.0,501.0,-117.9,-68.4,-191.4,-94.8,-273.3,-1630.2,-28.8,-70.2,-3.0,-9219.9,-7451.7,-50.4,-2058.3,-6.9,-6.0,-35.7,54.6,-1.2,31.5,176.7,321.3,0,1494,33554432,13,0, 
0.8333,-126.3,-133.5,2505.9,-111.0,-52.8,-189.9,-80.7,-267.9,-2148.9,-22.5,-63.3,1.8,-8859.3,-6743.7,601.8,-869.1,-6.9,-6.0,-30.3,59.7,-0.6,31.2,178.8,330.9,0,1500,33554432,14,0, 
0.8367,-126.9,-130.8,682.2,-111.6,-144.3,-193.8,-100.2,-267.0,-3038.1,-21.6,-66.0,1.8,-9740.1,-7833.3,-1891.2,-1548.3,-6.9,-6.0,-31.2,53.7,-0.9,29.7,174.9,324.9,0,1506,33554432,15,0, 
0.8400,-121.2,-125.7,-2451.9,-102.0,-183.9,-186.6,-128.4,-258.6,-3112.2,-12.9,-52.2,11.7,-9826.2,-9281.7,-4009.8,-3155.4,-6.6,-6.6,-24.6,59.1,-0.6,33.6,164.7,314.1,0,1512,33554432,16,0, 
0.8433,-131.4,-134.7,-2568.6,-111.6,-146.7,-195.6,-120.6,-261.9,-2297.1,-27.0,-66.3,4.5,-9830.1,-9018.9,-2975.1,-3446.1,-6.9,-6.3,-33.3,54.9,-1.2,28.5,160.2,303.0,0,1518,33554432,17,0, 
0.8467,-130.2,-135.3,526.8,-111.6,-51.6,-196.2,-91.5,-261.9,-1630.2,-27.3,-63.3,10.5,-9127.8,-7423.8,-136.2,-1977.0,-6.9,-6.0,-30.6,52.8,-0.9,24.3,172.5,316.2,0,1524,33554432,18,0, 
0.8500,-130.8,-128.4,2550.6,-111.0,-26.7,-192.9,-72.6,-257.4,-2223.0,-34.5,-67.2,1.8,-8805.3,-6689.7,531.3,-816.6,-6.9,-6.3,-34.2,54.0,-0.9,30.3,183.6,341.4,0,1530,33554432,19,0, 
0.8533,-131.7,-131.4,650.1,-111.6,-139.5,-189.6,-109.8,-255.6,-3186.3,-30.3,-69.6,-6.0,-9703.8,-7865.7,-1882.8,-1498.2,-6.3,-6.0,-43.2,50.1,-0.9,31.5,174.3,329.7,0,1536,33554432,20,0, 
0.8567,-129.9,-128.4,-2534.4,-110.7,-202.2,-195.3,-124.8,-252.9,-3112.2,-26.1,-67.8,-5.1,-9827.1,-9304.8,-4094.4,-3120.9,-6.6,-6.0,-40.5,48.0,-0.6,29.7,164.1,309.9,0,1542,33554432,21,0, 
0.8600,-129.6,-130.5,-2581.5,-108.3,-163.8,-194.4,-118.2,-252.9,-2223.0,-34.8,-60.0,3.6,-9830.1,-9029.1,-3012.6,-3430.8,-6.9,-5.7,-30.3,54.6,-0.6,28.8,169.2,309.3,0,1548,33554432,22,0, 
0.8633,-122.7,-123.3,564.6,-107.7,-43.5,-189.9,-68.4,-251.7,-1482.0,-28.5,-63.0,0.0,-9124.5,-7427.1,-219.9,-1899.9,-7.5,-6.0,-32.1,49.8,-0.9,27.6,189.3,323.1,0,1554,33554432,23,0, 
0.8667,-123.9,-126.6,2564.7,-104.1,-34.2,-183.9,-65.4,-247.8,-2297.1,-35.7,-64.5,4.2,-8826.6,-6664.2,403.2,-735.9,-6.9,-5.7,-36.0,57.0,-0.9,26.4,196.5,344.4,0,1560,33554432,24,0, 
0.8700,-126.6,-122.4,727.2,-105.0,-114.3,-189.3,-83.4,-250.8,-3334.5,-29.4,-59.7,0.3,-9692.7,-7824.3,-1976.4,-1471.5,-6.9,-6.0,-32.7,58.5,-1.2,31.8,190.2,332.7,0,1566,33554432,25,0, 
0.8733,-129.0,-130.8,-2384.7,-109.8,-189.3,-188.1,-114.3,-261.6,-2889.9,-32.7,-58.5,0.0,-9830.1,-9249.0,-4170.6,-3061.2,-6.6,-6.0,-33.6,51.3,-0.3,24.9,177.6,314.4,0,1572,33554432,26,0, 
0.8767,-134.4,-129.6,-2430.3,-114.9,-158.1,-189.0,-112.5,-268.2,-2223.0,-36.0,-67.5,-5.4,-9830.1,-8963.4,-3028.5,-3277.8,-6.6,-6.0,-36.6,47.1,-0.6,25.5,179.4,311.4,0,1578,33554432,27,0, 
0.8800,-132.0,-125.4,668.1,-113.1,-45.6,-184.8,-68.7,-267.0,-1556.1,-32.1,-65.1,0.0,-9126.6,-7366.8,-166.2,-1921.8,-6.9,-6.3,-33.0,57.6,-0.9,27.9,190.5,329.1,0,1584,33554432,28,0, 
0.8833,-128.7,-126.3,2697.0,-108.9,-28.2,-189.3,-62.7,-265.2,-2223.0,-30.3,-60.0,6.6,-8859.6,-6651.9,503.7,-699.0,-6.6,-6.0,-29.4,60.9,-1.2,29.1,193.2,330.9,0,1590,33554432,29,0, 
0.8867,-129.3,-126.6,822.6,-105.9,-126.6,-184.8,-86.1,-261.9,-3186.3,-29.7,-60.0,5.4,-9721.8,-7840.2,-1993.8,-1432.2,-6.9,-6.0,-32.7,59.7,-0.6,27.6,180.0,320.1,0,1596,33554432,30,0, 
0.8900,-131.1,-126.9,-2305.2,-110.4,-202.8,-187.5,-116.1,-263.1,-3186.3,-35.4,-64.8,-3.6,-9830.1,-9272.1,-4107.9,-3002.7,-6.6,-6.0,-42.6,57.6,-1.2,20.7,167.1,300.9,0,1602,33554432,31,0, 
0.8933,-132.6,-123.6,-2373.6,-111.3,-171.9,-186.0,-102.3,-269.4,-2074.8,-39.0,-64.8,3.6,-9830.1,-8946.9,-3036.9,-3333.6,-6.9,-6.0,-37.2,50.4,-0.9,19.5,168.3,304.8,0,1608,33554432,32,0, 
0.8967,-136.5,-129.0,685.2,-118.2,-63.6,-195.9,-70.8,-272.7,-1482.0,-43.5,-65.4,3.9,-9252.3,-7395.3,-195.6,-1875.6,-6.6,-6.0,-34.2,55.8,-0.6,21.0,176.4,322.8,0,1614,33554432,33,0, 
0.9000,-140.1,-132.6,2654.4,-117.9,-31.2,-192.6,-56.7,-267.0,-2223.0,-46.8,-67.2,-2.7,-8937.3,-6646.8,512.1,-667.8,-7.2,-6.3,-35.7,47.7,-0.9,24.3,179.1,329.7,0,1620,33554432,34,0, 
0.9033,-136.2,-135.6,798.3,-119.1,-129.3,-192.0,-88.8,-261.6,-3186.3,-43.2,-71.4,-8.7,-9746.4,-7817.7,-1939.2,-1370.7,-6.6,-6.0,-39.9,45.6,-0.6,17.7,174.3,328.2,0,1626,33554432,35,0, 
0.9067,-141.3,-143.4,-2369.4,-126.0,-217.8,-198.3,-129.6,-266.7,-3112.2,-53.1,-79.5,-13.2,-9830.1,-9255.6,-4157.7,-3006.0,-6.9,-6.0,-54.3,40.2,-0.9,17.1,156.9,301.2,0,1632,33554432,36,0, 
0.9100,-136.5,-138.0,-2391.6,-126.9,-161.4,-192.6,-108.9,-270.3,-2297.1,-56.1,-82.2,-15.9,-9830.1,-8974.8,-3012.0,-3264.3,-7.2,-6.0,-52.8,35.7,-1.2,10.5,156.6,298.2,0,1638,33554432,37,0, 
0.9133,-139.5,-144.6,653.4,-135.3,-83.7,-209.1,-90.6,-279.0,-1482.0,-49.8,-92.7,-18.3,-9333.0,-7428.0,-193.8,-1846.5,-6.9,-6.3,-63.6,39.3,-0.6,20.1,165.9,317.4,0,1644,33554432,38,0, 
0.9167,-136.2,-140.1,2721.0,-126.9,-55.2,-200.1,-72.0,-270.3,-2371.2,-39.0,-72.3,-8.1,-8934.0,-6648.6,489.0,-576.3,-6.6,-5.7,-45.0,51.6,-0.6,22.5,178.8,333.0,0,1650,33554432,39,0, 
0.9200,-136.5,-137.1,888.6,-125.4,-137.1,-200.7,-92.7,-270.9,-3186.3,-43.8,-73.8,-13.5,-9764.4,-7834.5,-1926.3,-1317.3,-6.9,-6.0,-43.8,49.8,-0.3,20.1,172.2,326.4,0,1656,33554432,40,0, 
0.9233,-134.4,-133.5,-2197.8,-125.7,-193.8,-195.9,-124.2,-273.0,-3038.1,-43.2,-76.5,-9.9,-9822.9,-9246.3,-4040.7,-2911.2,-6.6,-6.3,-46.8,49.5,-1.2,28.5,164.1,309.9,0,1662,33554432,41,0, 
0.9267,-135.6,-141.6,-2280.9,-128.1,-164.4,-196.2,-115.8,-272.4,-2148.9,-33.6,-81.3,-7.5,-9830.1,-8953.8,-2825.7,-3183.6,-6.9,-6.3,-48.0,46.8,-0.9,19.2,167.1,305.4,0,1668,33554432,42,0, 
0.9300,-131.7,-132.6,823.8,-122.1,-43.2,-191.4,-76.8,-268.5,-1556.1,-26.7,-68.4,-2.4,-9342.6,-7358.7,23.1,-1713.3,-7.2,-5.7,-38.1,52.5,-0.9,27.3,181.8,321.9,0,1674,33554432,43,0, 
0.9333,-134.4,-130.5,2796.9,-121.5,-36.6,-194.7,-68.1,-265.2,-2297.1,-25.2,-71.7,-3.9,-8942.4,-6678.9,618.9,-530.7,-6.9,-6.0,-37.5,55.5,-0.6,26.7,189.0,333.0,0,1680,33554432,44,0, 
0.9367,-130.8,-129.0,910.2,-121.5,-104.1,-195.0,-106.8,-267.3,-3260.4,-28.5,-73.5,-3.9,-9743.4,-7804.5,-1813.2,-1225.8,-6.9,-5.7,-38.4,56.7,-1.2,31.8,180.9,321.3,0,1686,33554432,45,0, 
0.9400,-139.2,-136.5,-2188.8,-127.5,-186.0,-196.8,-122.1,-274.2,-3260.4,-23.4,-72.6,-11.1,-9823.8,-9217.2,-3880.8,-2833.2,-6.6,-6.0,-38.7,58.8,-0.9,24.6,172.5,302.1,0,1692,33554432,46,0, 
0.9433,-132.9,-131.1,-2295.6,-128.1,-152.1,-196.5,-112.2,-275.1,-2223.0,-29.7,-72.0,-11.7,-9830.1,-8945.1,-2820.3,-3123.6,-6.6,-6.3,-38.7,46.8,-0.6,23.7,170.7,303.0,0,1698,33554432,47,0, 
0.9467,-131.7,-123.3,858.0,-124.5,-45.6,-192.9,-82.8,-271.8,-1778.4,-20.4,-72.6,-2.1,-9312.6,-7310.7,114.6,-1605.9,-6.9,-6.0,-37.8,55.8,-0.3,27.9,183.9,329.4,0,1704,33554432,48,0, 
0.9500,-119.4,-115.8,2797.2,-111.0,-7.2,-179.1,-64.2,-258.6,-2297.1,-18.6,-63.0,10.8,-8913.0,-6604.2,784.8,-399.6,-6.9,-6.0,-32.1,68.7,-0.3,36.6,193.8,346.2,0,1710,33554432,49,0, 
0.9533,-114.3,-108.6,973.8,-109.5,-92.4,-179.7,-84.9,-252.6,-3260.4,-4.2,-53.4,4.8,-9747.3,-7788.0,-1577.7,-1122.9,-6.9,-5.7,-24.6,55.8,-0.9,44.1,190.5,338.7,0,1716,33554432,50,0, 
0.9567,-119.4,-105.9,-2129.4,-113.7,-174.0,-179.7,-105.9,-246.0,-2964.0,-12.3,-62.7,-5.4,-9816.6,-9196.5,-3732.9,-2694.0,-6.9,-6.0,-26.1,46.5,-0.9,31.5,174.6,315.6,0,1722,33554432,51,0, 
0.9600,-123.0,-114.0,-2256.6,-117.6,-135.9,-186.6,-83.1,-245.4,-2297.1,-10.8,-71.1,-11.4,-9830.1,-8945.1,-2676.9,-2993.7,-7.2,-5.7,-35.4,45.9,-0.6,36.3,174.0,323.1,0,1728,33554432,52,0, 
0.9633,-121.8,-113.4,878.1,-112.8,-32.7,-187.5,-64.2,-244.5,-1630.2,-15.9,-69.6,-0.3,-9260.1,-7330.8,159.3,-1503.6,-6.9,-6.0,-36.6,52.8,-0.6,35.1,190.5,334.8,0,1734,33554432,53,0, 
0.9667,-121.2,-114.3,2965.2,-105.9,-2.4,-178.5,-47.7,-242.1,-2223.0,-8.1,-52.8,23.1,-8901.0,-6651.9,759.9,-304.8,-6.6,-6.0,-19.8,74.4,-0.9,53.4,197.4,354.3,0,1740,33554432,54,0, 
0.9700,-119.1,-106.8,1125.0,-96.0,-89.1,-178.8,-67.2,-237.6,-3186.3,-12.6,-29.7,30.9,-9707.1,-7748.7,-1525.2,-1001.7,-6.9,-6.0,-3.0,82.2,-0.9,43.8,191.4,351.6,0,1746,33554432,55,0, 
0.9733,-127.8,-109.2,-2047.8,-99.0,-176.7,-181.8,-93.0,-237.6,-3112.2,-14.7,-41.4,19.5,-9830.1,-9243.6,-3779.4,-2635.5,-6.6,-5.7,-14.1,70.8,-0.9,45.9,184.5,331.2,0,1752,33554432,56,0, 
0.9767,-122.4,-110.1,-2088.3,-101.7,-102.6,-178.2,-88.8,-237.0,-2074.8,-20.1,-48.3,21.3,-9830.1,-8868.6,-2530.5,-2865.9,-6.9,-6.3,-19.5,77.7,-0.9,51.0,182.7,330.9,0,1758,33554432,57,0, 
0.9800,-119.4,-110.4,1049.4,-100.2,-7.5,-177.0,-61.8,-237.0,-1630.2,-15.9,-42.6,28.8,-9302.1,-7262.7,352.2,-1388.7,-6.6,-6.0,-18.9,78.0,-1.2,46.8,196.5,341.4,0,1764,33554432,58,0, 
0.9833,-121.2,-121.5,2998.8,-104.4,6.3,-181.8,-53.1,-243.0,-2223.0,-18.6,-49.5,16.5,-8838.9,-6603.3,1067.7,-233.4,-6.6,-5.7,-29.1,65.4,-0.9,38.4,205.2,336.6,0,1770,33554432,59,0, 
0.9867,-122.4,-119.4,1155.3,-104.4,-82.8,-175.2,-69.6,-240.3,-3186.3,-19.8,-51.6,18.9,-9690.9,-7719.6,-1325.7,-922.2,-6.9,-5.7,-26.7,66.3,-0.9,50.1,204.6,332.1,0,1776,33554432,60,0, 
0.9900,-126.9,-119.7,-1986.0,-109.2,-151.5,-180.9,-103.5,-247.2,-3038.1,-22.8,-52.8,16.5,-9830.1,-9172.5,-3443.1,-2529.0,-7.2,-6.0,-30.0,61.5,-0.9,41.7,190.2,321.3,0,1782,0,61,0, 
0.9933,-129.6,-120.0,-2079.6,-107.7,-112.2,-183.9,-101.7,-249.9,-2223.0,-30.6,-52.8,12.0,-9830.1,-8897.1,-2376.9,-2743.8,-6.9,-6.0,-30.6,57.9,-1.2,32.4,192.6,313.8,0,1788,33554432,62,0, 
0.9967,-130.8,-123.3,1008.6,-111.3,-16.5,-186.6,-69.9,-255.6,-1556.1,-35.1,-59.7,7.8,-9139.5,-7318.5,413.4,-1310.7,-6.6,-6.0,-30.6,56.4,-1.2,38.4,195.3,322.5,0,1794,33554432,63,0, 
1.0000,-131.1,-128.7,3007.8,-114.9,-4.2,-190.8,-66.3,-255.9,-2148.9,-34.8,-64.5,1.8,-8700.6,-6579.6,1047.3,-123.9,-6.9,-6.3,-37.2,53.4,-0.9,36.0,199.8,337.5,0,1800,33554432,64,0, 
1.0033,-130.5,-127.8,1140.6,-113.4,-108.9,-187.5,-89.4,-253.2,-3186.3,-40.2,-66.0,-0.9,-9659.4,-7765.2,-1351.5,-864.0,-6.9,-6.3,-38.7,48.0,-0.9,27.3,185.1,326.4,0,1806,33554432,65,0, 
1.0067,-127.5,-122.1,-1989.0,-111.3,-168.9,-184.2,-105.6,-248.1,-2889.9,-30.9,-56.4,9.6,-9830.1,-9179.7,-3462.9,-2474.7,-6.9,-6.3,-30.9,55.5,-0.9,34.8,184.5,317.4,0,1812,33554432,66,0, 
1.0100,-128.1,-115.2,-2031.6,-105.9,-99.0,-177.9,-99.0,-248.4,-2148.9,-35.1,-54.9,12.9,-9830.1,-8875.5,-2223.3,-2740.2,-6.6,-6.0,-26.7,63.0,-0.6,31.8,185.7,318.3,0,1818,33554432,67,0, 
1.0133,-129.0,-118.8,1050.6,-106.8,-9.9,-179.1,-62.4,-250.5,-1556.1,-37.8,-61.8,8.1,-9050.4,-7247.7,601.8,-1258.8,-6.9,-6.0,-39.0,58.2,-0.6,33.9,194.1,340.2,0,1824,33554432,68,0, 
1.0167,-123.9,-121.5,3086.7,-109.8,10.5,-190.2,-72.3,-251.7,-2148.9,-33.3,-64.2,11.7,-8697.6,-6532.8,1332.9,-25.8,-6.9,-6.0,-38.4,66.3,-0.6,30.6,193.2,347.7,0,1830,33554432,69,0, 
1.0200,-128.1,-121.8,1237.2,-107.1,-87.6,-186.3,-91.2,-247.5,-3112.2,-26.7,-58.5,9.3,-9580.2,-7680.3,-1125.6,-709.5,-6.9,-6.3,-34.5,61.5,-1.2,37.8,191.4,333.6,0,1836,33554432,70,0, 
1.0233,-125.1,-122.7,-1869.3,-112.5,-165.6,-189.0,-131.7,-249.9,-3112.2,-35.4,-69.6,-0.6,-9830.1,-9075.9,-3245.1,-2348.1,-6.9,-6.3,-47.4,51.9,-0.9,29.7,176.4,306.9,0,1842,33554432,71,0, 
1.0267,-126.3,-120.3,-1934.1,-114.3,-128.7,-194.4,-108.9,-246.0,-2074.8,-36.6,-69.0,-9.0,-9830.1,-8770.2,-2064.9,-2616.0,-7.2,-6.0,-46.5,44.7,-0.9,14.1,181.2,307.8,0,1848,33554432,72,0, 
1.0300,-122.4,-128.7,1135.5,-116.1,-16.2,-191.4,-85.5,-257.1,-1630.2,-45.0,-67.8,-1.5,-8967.3,-7210.2,763.5,-1187.1,-7.2,-6.0,-41.1,49.8,-0.9,24.0,178.2,329.4,0,1854,33554432,73,0, 
1.0333,-128.1,-136.2,3188.1,-121.2,-4.2,-201.9,-72.9,-259.2,-2297.1,-46.2,-81.9,-14.1,-8645.7,-6527.4,1463.4,34.5,-6.9,-6.3,-54.3,39.3,-0.6,19.5,181.8,332.7,0,1860,33554432,74,0, 
1.0367,-127.8,-131.7,1294.8,-126.9,-99.6,-198.9,-110.4,-257.1,-3334.5,-43.8,-81.3,-16.2,-9500.4,-7677.6,-1009.8,-725.7,-6.9,-6.0,-53.4,34.5,-0.9,10.2,173.4,322.5,0,1866,33554432,75,0, 
1.0400,-131.7,-135.3,-1400.4,-128.1,-137.1,-200.4,-117.6,-260.1,-3038.1,-44.4,-70.5,-14.1,-9830.1,-8779.2,-2545.8,-1966.8,-7.2,-6.0,-45.6,38.7,-0.6,11.7,169.2,302.7,0,1872,33554432,76,0, 
1.0433,-136.8,-138.6,-1459.5,-134.1,-109.8,-203.4,-118.5,-263.1,-2148.9,-45.0,-77.7,-20.7,-9647.1,-8591.4,-1471.5,-2302.5,-6.9,-5.7,-52.8,30.6,-1.2,6.0,158.7,297.9,0,1878,33554432,77,0, 
1.0467,-132.3,-136.2,1491.0,-133.8,-21.0,-197.4,-80.7,-262.2,-1630.2,-44.7,-89.7,-21.6,-8553.9,-7059.3,1118.4,-969.6,-6.6,-6.0,-57.3,27.3,-0.6,10.5,173.4,325.2,0,1884,33554432,78,0, 
1.0500,-130.5,-132.0,3444.9,-127.2,-24.0,-203.7,-73.5,-259.8,-2223.0,-35.1,-77.4,-10.5,-8359.5,-6358.8,1743.9,194.7,-6.9,-6.6,-51.9,36.9,-0.6,17.4,176.1,330.9,0,1890,33554432,79,0, 
1.0533,-133.8,-129.3,1573.8,-128.1,-103.5,-201.6,-102.3,-258.6,-3112.2,-41.1,-79.8,-6.9,-9250.8,-7532.4,-667.5,-456.6,-6.6,-6.3,-55.5,34.5,-0.6,13.2,169.8,325.8,0,1896,33554432,80,0, 
1.0567,-132.6,-133.8,-1573.8,-130.5,-175.8,-203.4,-127.8,-260.1,-2889.9,-42.9,-86.7,-11.7,-9830.1,-8955.3,-2866.5,-2109.9,-7.2,-6.3,-59.1,34.5,-0.9,8.4,158.1,308.7,0,1902,33554432,81,0, 
1.0600,-130.8,-126.9,-1646.4,-130.8,-134.1,-199.8,-110.4,-266.4,-2297.1,-41.4,-82.5,-12.0,-9630.0,-8598.6,-1692.9,-2337.3,-7.2,-6.0,-52.5,30.3,-0.6,7.8,161.1,301.8,0,1908,33554432,82,0, 
1.0633,-123.3,-128.7,1508.4,-125.7,-11.4,-201.3,-74.4,-265.5,-1556.1,-44.7,-79.8,-14.7,-8450.4,-6969.3,1220.4,-830.7,-6.9,-6.0,-49.8,33.9,-1.2,12.3,173.4,327.6,0,1914,33554432,83,0, 
1.0667,-126.0,-129.3,3494.7,-122.4,-8.7,-202.5,-71.7,-266.1,-2371.2,-35.4,-74.1,-8.7,-8249.4,-6281.4,1874.1,379.2,-6.6,-5.7,-47.4,38.7,-0.9,25.8,176.1,334.2,0,1920,33554432,84,0, 
1.0700,-126.3,-132.3,1665.6,-119.7,-81.0,-193.8,-93.6,-263.1,-3186.3,-38.4,-72.3,-8.1,-9076.2,-7411.2,-498.0,-311.1,-7.2,-6.3,-45.6,41.1,-0.9,24.3,174.9,332.1,0,1926,33554432,85,0, 
1.0733,-122.1,-123.3,-1474.8,-110.7,-160.8,-190.8,-115.2,-258.0,-3260.4,-22.8,-54.0,7.2,-9830.1,-8810.4,-2604.9,-1895.1,-6.9,-5.7,-28.5,53.7,-0.6,42.3,168.0,320.4,0,1932,33554432,86,0, 
1.0767,-122.1,-120.6,-1488.6,-108.9,-109.8,-196.2,-111.6,-260.1,-2074.8,-19.8,-52.2,5.1,-9342.9,-8444.7,-1409.4,-2127.0,-7.2,-5.7,-28.8,57.0,-0.6,40.8,163.8,315.9,0,1938,33554432,87,0, 
1.0800,-119.7,-120.0,1608.3,-112.5,-0.6,-192.0,-73.2,-258.0,-1482.0,-18.6,-62.1,4.2,-8239.2,-6806.7,1469.1,-640.2,-6.9,-6.3,-29.1,58.8,-0.3,46.8,174.0,334.2,0,1944,33554432,88,0, 
1.0833,-114.6,-124.2,3636.9,-107.7,24.6,-184.2,-59.1,-249.3,-2223.0,-5.7,-58.2,17.7,-7975.8,-6104.7,2143.2,581.4,-6.9,-6.3,-30.3,69.0,-0.6,54.6,191.1,354.6,0,1950,33554432,89,0, 
1.0867,-118.2,-124.2,1764.3,-113.7,-82.5,-189.0,-89.4,-249.9,-3186.3,-18.9,-65.4,8.4,-8855.7,-7317.0,-256.5,-100.5,-7.5,-6.3,-39.9,57.9,-0.9,43.2,179.7,336.9,0,1956,33554432,90,0, 
1.0900,-117.9,-123.0,-1364.7,-112.2,-143.4,-189.6,-108.9,-246.6,-2964.0,-11.7,-56.4,9.0,-9633.0,-8703.3,-2394.9,-1673.7,-6.9,-6.0,-31.2,54.9,-0.6,44.7,172.2,321.3,0,1962,33554432,91,0, 
1.0933,-120.3,-126.9,-1377.6,-118.5,-104.1,-192.6,-100.8,-251.1,-2148.9,-24.6,-72.3,-6.3,-9178.8,-8372.1,-1144.2,-1956.9,-6.9,-6.0,-42.9,46.8,-0.6,28.8,174.0,317.4,0,1968,33554432,92,0, 
1.0967,-120.3,-127.5,1772.1,-125.4,-15.3,-197.4,-64.8,-252.9,-1556.1,-21.0,-75.6,-8.7,-8016.3,-6658.8,1936.8,-367.5,-6.9,-6.3,-46.8,44.7,-1.2,37.2,181.5,336.9,0,1974,33554432,93,0, 
1.1000,-109.5,-116.1,3785.7,-119.7,1.5,-197.1,-55.8,-248.1,-2223.0,-27.0,-70.5,-2.4,-7722.6,-5907.0,2558.4,895.2,-6.6,-6.0,-39.3,54.6,-0.6,39.3,192.6,339.0,0,1980,33554432,94,0, 
1.1033,-113.4,-119.7,1904.4,-109.8,-86.4,-192.0,-84.0,-236.7,-3186.3,-5.1,-51.9,9.6,-8631.6,-7173.0,133.2,202.8,-6.6,-6.3,-25.8,67.8,-0.9,62.7,192.3,337.8,0,1986,33554432,95,0, 
1.1067,-113.1,-122.1,-1533.0,-115.5,-161.4,-193.8,-102.3,-242.1,-3038.1,-21.0,-61.2,-0.6,-9651.3,-8853.6,-2251.8,-1612.2,-6.9,-6.0,-36.0,52.5,-0.9,39.3,183.9,315.9,0,1992,33554432,96,0, 
1.1100,-116.7,-123.6,-1562.1,-113.7,-106.8,-189.6,-83.4,-244.5,-2074.8,-18.3,-58.8,6.9,-9156.0,-8563.5,-865.8,-1809.0,-6.9,-6.0,-33.3,53.4,-0.6,42.9,188.4,315.9,0,1998,33554432,97,0, 
1.1133,-115.5,-120.3,1878.3,-111.9,-3.6,-197.7,-56.7,-244.5,-1556.1,-18.3,-67.2,4.5,-7993.5,-6676.2,2312.7,-225.9,-6.6,-6.3,-28.8,58.8,-0.9,42.6,194.4,337.8,0,2004,33554432,98,0, 
1.1167,-109.5,-114.3,4052.7,-100.8,25.8,-187.2,-37.5,-232.2,-2223.0,-3.6,-52.8,15.0,-7663.5,-5775.6,2966.4,996.0,-6.9,-5.4,-19.8,67.5,-0.6,46.5,205.2,361.8,0,2010,33554432,99,0, 
1.1200,-105.3,-114.0,1934.7,-93.9,-100.8,-182.4,-69.3,-224.1,-3334.5,-6.3,-44.7,16.8,-8705.4,-7246.2,269.1,236.7,-6.9,-6.3,-19.8,71.7,-1.2,52.5,204.0,355.5,0,2016,33554432,100,0, 
1.1233,-111.0,-115.5,-1626.0,-93.9,-160.8,-182.7,-103.5,-224.7,-3112.2,-4.5,-52.8,16.5,-9706.8,-8995.2,-2117.7,-1523.1,-6.3,-6.0,-24.9,66.6,-0.9,54.0,186.3,332.1,0,2022,33554432,101,0, 
1.1267,-114.9,-114.0,-1588.5,-99.3,-115.8,-185.7,-86.1,-229.5,-2148.9,-14.7,-59.7,9.3,-9240.3,-8634.3,-602.4,-1783.2,-6.9,-6.0,-29.1,62.7,-0.6,45.3,187.5,331.5,0,2028,33554432,102,0, 
1.1300,-115.5,-116.1,1849.2,-97.2,9.3,-181.5,-57.3,-230.7,-1482.0,-9.0,-56.4,10.2,-8010.6,-6687.0,2608.8,-174.0,-6.6,-6.0,-30.0,63.9,-0.9,45.6,199.5,348.6,0,2034,33554432,103,0, 
1.1333,-122.1,-117.6,4086.3,-103.5,-1.2,-185.7,-54.9,-232.8,-2223.0,-21.6,-64.2,6.9,-7662.0,-5816.1,3286.8,1079.4,-6.6,-5.7,-37.2,61.8,-0.6,47.7,198.6,354.0,0,2040,33554432,104,0, 
1.1367,-121.2,-118.2,1903.5,-106.8,-87.3,-193.2,-75.9,-234.9,-3260.4,-13.2,-60.9,8.1,-8768.7,-7251.3,492.6,239.4,-6.9,-6.6,-33.0,59.7,-0.6,40.2,189.9,330.0,0,2046,33554432,105,0, 
1.1400,-123.6,-118.8,-1654.2,-107.7,-171.6,-190.2,-96.0,-236.1,-3334.5,-22.8,-62.4,-1.2,-9828.0,-9081.9,-1856.1,-1523.7,-6.9,-6.0,-38.4,52.2,-0.6,32.1,180.3,320.4,0,2052,33554432,106,0, 
1.1433,-123.0,-119.4,-1698.0,-111.6,-104.7,-198.6,-93.9,-241.5,-2074.8,-33.3,-73.8,-5.1,-9388.5,-8733.6,-436.5,-1807.5,-7.5,-6.0,-43.5,47.7,-0.9,29.7,176.1,322.2,0,2058,33554432,107,0, 
1.1467,-126.6,-124.2,1880.1,-110.4,1.2,-195.9,-60.6,-237.9,-1556.1,-27.0,-71.7,-0.3,-8176.2,-6775.8,2870.1,-160.8,-6.9,-6.0,-43.2,49.5,-0.9,33.6,186.9,338.1,0,2064,33554432,108,0, 
1.1500,-129.9,-126.9,4065.6,-110.1,8.4,-202.8,-50.7,-233.7,-2297.1,-34.2,-73.2,-4.8,-7837.2,-5859.6,3564.0,1125.9,-7.2,-5.7,-45.9,48.6,-0.9,27.9,190.8,344.1,0,2070,33554432,109,0, 
1.1533,-127.2,-120.0,1842.3,-104.7,-84.6,-189.6,-69.3,-231.0,-3334.5,-28.2,-68.1,-1.2,-9000.6,-7372.2,618.9,311.1,-7.2,-6.0,-43.8,50.7,-0.6,36.3,194.1,347.4,0,2076,33554432,110,0, 
1.1567,-130.8,-125.4,-1675.5,-114.6,-177.3,-205.5,-107.4,-235.8,-3112.2,-35.4,-77.7,-14.7,-9830.1,-9174.9,-1621.8,-1355.1,-6.6,-6.0,-51.9,36.9,-1.2,22.8,175.8,313.2,0,2082,33554432,111,0, 
1.1600,-126.9,-117.0,-1732.5,-108.0,-108.3,-195.6,-93.0,-231.3,-2074.8,-30.9,-68.4,-5.7,-9668.1,-8870.1,-225.0,-1724.7,-6.9,-6.3,-42.9,42.9,-0.6,24.3,178.5,321.6,0,2088,33554432,112,0, 
1.1633,-120.9,-118.2,1831.2,-103.8,7.2,-198.9,-61.5,-228.3,-1630.2,-26.1,-66.0,-4.2,-8353.5,-6852.6,3090.9,-99.6,-6.6,-6.3,-37.5,47.7,-0.6,36.0,190.5,344.1,0,2094,33554432,113,0, 
1.1667,-125.4,-114.9,4143.3,-105.3,18.0,-192.3,-46.8,-225.6,-2148.9,-34.2,-69.6,-6.6,-7952.4,-5918.1,3833.7,1193.1,-6.9,-6.3,-42.3,42.6,-0.3,26.4,196.5,344.7,0,2100,33554432,114,0, 
1.1700,-119.4,-120.9,1930.8,-108.6,-76.2,-194.7,-72.6,-225.0,-3334.5,-23.7,-76.8,-5.4,-9121.2,-7443.6,919.5,321.9,-6.9,-6.0,-44.4,42.9,-0.9,26.7,190.8,338.7,0,2106,33554432,115,0, 
1.1733,-114.6,-116.7,-1601.1,-108.9,-159.6,-197.1,-89.4,-223.8,-3186.3,-21.6,-75.3,-12.6,-9830.1,-9189.9,-1457.1,-1397.1,-6.6,-5.7,-43.8,40.5,-0.9,28.2,177.3,320.1,0,2112,33554432,116,0, 
1.1767,-117.0,-114.9,-1674.6,-112.2,-108.6,-196.5,-87.3,-227.1,-2074.8,-29.7,-76.2,-6.9,-9714.9,-8828.4,-3.0,-1721.4,-6.6,-6.0,-43.8,49.5,-0.6,32.7,179.7,321.9,0,2118,33554432,117,0, 
1.1800,-120.3,-121.2,1920.9,-114.6,3.9,-196.8,-53.4,-224.1,-1704.3,-20.4,-73.2,-6.9,-8387.7,-6849.6,3237.0,-70.2,-6.9,-6.0,-41.4,46.2,-0.6,42.3,193.2,336.0,0,2124,33554432,118,0, 
1.1833,-123.6,-122.7,4135.2,-118.2,10.5,-196.2,-53.7,-234.0,-2297.1,-25.2,-76.5,-7.5,-8043.9,-5946.3,3867.0,1167.3,-6.9,-6.3,-45.0,44.7,-0.9,33.9,196.2,347.4,0,2130,33554432,119,0, 
1.1867,-129.0,-130.8,1920.3,-118.8,-103.5,-200.4,-76.8,-234.9,-3260.4,-25.2,-75.6,-7.8,-9154.8,-7388.4,1044.6,293.7,-6.9,-6.6,-43.8,47.4,-0.9,42.3,184.8,340.2,0,2136,33554432,120,0, 
1.1900,-132.3,-129.3,-1693.2,-121.8,-177.6,-201.9,-107.7,-239.1,-3112.2,-30.0,-81.3,-11.1,-9830.1,-9223.5,-1244.4,-1469.7,-7.2,-6.0,-51.0,46.5,-0.6,36.0,170.1,315.6,0,2142,33554432,121,0, 
1.1933,-127.8,-125.4,-1750.5,-124.2,-114.3,-203.4,-88.5,-238.2,-2148.9,-36.6,-87.3,-18.9,-9710.7,-8918.7,164.4,-1786.8,-6.9,-6.0,-60.6,39.6,-0.9,24.3,170.7,325.8,0,2148,33554432,122,0, 
1.1967,-127.5,-126.0,1814.7,-115.5,-3.9,-201.0,-59.4,-238.2,-1556.1,-24.6,-69.3,-8.7,-8416.8,-6826.5,3571.8,-96.3,-6.9,-5.7,-47.1,43.2,-0.3,32.4,188.1,348.3,0,2154,33554432,123,0, 
1.2000,-123.0,-129.6,4016.4,-112.8,17.1,-193.8,-53.1,-234.0,-2371.2,-20.4,-77.1,-3.6,-8030.1,-6004.2,4168.5,1062.0,-6.9,-6.0,-45.9,57.3,-0.9,41.7,192.0,363.3,0,2160,33554432,124,0, 
1.2033,-127.8,-119.7,1858.2,-106.5,-66.9,-190.2,-78.0,-227.1,-3260.4,-10.8,-66.9,0.9,-9186.0,-7469.4,1286.7,294.0,-7.5,-6.0,-42.9,55.2,-0.9,41.7,183.9,357.3,0,2166,33554432,125,0, 
1.2067,-126.3,-124.5,-1692.3,-112.5,-154.2,-193.2,-103.2,-228.3,-3260.4,-20.4,-74.4,-9.9,-9830.1,-9317.7,-1122.9,-1555.2,-6.9,-5.7,-51.0,54.9,-0.9,39.3,179.4,329.1,0,2172,33554432,126,0, 
1.2100,-125.7,-120.3,-1759.8,-111.0,-81.0,-189.6,-97.2,-226.2,-2000.7,-19.2,-78.0,-2.7,-9736.2,-8888.7,370.2,-1799.1,-7.2,-6.3,-49.5,55.2,-0.9,40.2,181.8,339.0,0,2178,33554432,127,0, 
1.2133,-122.4,-119.4,1849.2,-119.1,14.4,-200.4,-54.9,-228.6,-1482.0,-17.4,-75.6,-3.6,-8500.2,-6874.8,3652.8,-119.1,-7.2,-6.0,-46.8,52.5,-0.9,38.7,187.5,352.8,0,2184,33554432,128,0, 
1.2167,-117.9,-114.9,4005.9,-114.0,28.2,-191.1,-44.7,-222.0,-2074.8,-9.3,-69.3,5.4,-8128.8,-6036.9,4198.2,1108.5,-6.9,-6.0,-40.8,64.5,-0.6,46.2,203.4,372.0,0,2190,33554432,129,0, 
1.2200,-120.6,-107.1,1877.4,-114.6,-77.4,-198.0,-63.9,-220.5,-3334.5,-10.2,-66.0,2.1,-9296.4,-7542.3,1331.4,274.8,-6.6,-5.7,-37.2,64.2,-0.6,42.9,197.7,349.2,0,2196,33554432,130,0, 
1.2233,-126.9,-118.8,-1754.7,-122.4,-153.6,-198.3,-86.7,-229.5,-3112.2,-9.9,-74.1,-3.6,-9830.1,-9411.6,-982.8,-1507.8,-6.9,-6.0,-49.2,56.4,-0.6,51.6,188.7,326.7,0,2202,33554432,131,0, 
1.2267,-126.0,-119.4,-1797.6,-129.0,-111.3,-202.8,-89.4,-237.3,-2223.0,-18.0,-81.9,-11.1,-9824.7,-9122.4,463.8,-1782.6,-6.9,-6.0,-51.6,56.4,-0.3,45.6,186.0,319.8,0,2208,33554432,132,0, 
1.2300,-122.4,-114.6,1758.0,-127.5,3.3,-202.2,-51.6,-240.3,-1556.1,-18.0,-72.0,-3.9,-8732.1,-7068.6,3726.3,-158.7,-6.6,-6.0,-46.2,58.2,-1.2,45.6,193.5,334.5,0,2214,33554432,133,0, 
1.2333,-123.0,-116.1,3976.5,-124.5,21.3,-197.1,-42.0,-231.9,-2371.2,-5.4,-69.6,1.8,-8331.3,-6210.0,4266.9,1075.5,-6.9,-6.3,-44.1,63.0,-0.9,50.1,195.6,345.3,0,2220,33554432,134,0, 
1.2367,-124.5,-115.8,1819.2,-130.5,-84.0,-203.4,-69.6,-238.5,-3260.4,-18.3,-90.0,-16.8,-9468.3,-7690.5,1461.9,240.6,-6.6,-6.0,-56.1,55.2,-1.2,34.2,185.4,326.7,0,2226,33554432,135,0, 
1.2400,-127.2,-115.5,-1806.0,-135.3,-180.3,-204.6,-100.8,-239.1,-3260.4,-13.2,-84.6,-16.5,-9830.1,-9529.2,-978.9,-1611.3,-7.2,-6.3,-50.4,54.0,-0.9,38.1,171.9,307.5,0,2232,33554432,136,0, 
1.2433,-133.2,-120.6,-1789.2,-137.4,-124.5,-210.3,-90.9,-242.4,-2074.8,-27.6,-91.2,-24.9,-9830.1,-9221.7,604.2,-1790.7,-6.6,-5.7,-57.6,39.3,-0.9,24.6,168.9,296.7,0,2238,33554432,137,0, 
1.2467,-135.0,-125.4,1839.3,-135.6,-10.8,-204.0,-51.9,-243.3,-1630.2,-27.0,-89.7,-21.9,-8854.2,-7136.4,3798.3,-171.3,-6.6,-6.0,-57.6,45.9,-0.6,22.5,181.2,313.8,0,2244,33554432,138,0, 
1.2500,-133.8,-131.1,4060.5,-132.3,9.3,-203.7,-57.3,-235.5,-2223.0,-27.9,-84.6,-20.4,-8426.1,-6222.6,4389.3,1030.5,-6.9,-5.7,-52.2,42.0,-0.9,24.3,183.0,320.1,0,2250,33554432,139,0, 
1.2533,-133.5,-129.0,1860.0,-132.0,-98.4,-195.9,-84.6,-233.4,-3334.5,-29.7,-86.7,-19.5,-9551.7,-7721.4,1510.2,179.1,-7.2,-6.3,-54.0,43.8,-0.9,24.3,179.1,314.7,0,2256,33554432,140,0, 
1.2567,-135.6,-123.6,-1743.6,-126.9,-169.2,-202.5,-105.0,-232.5,-3260.4,-28.2,-74.1,-17.1,-9830.1,-9575.4,-845.1,-1626.3,-6.6,-6.0,-46.2,45.6,-1.2,28.2,168.6,299.4,0,2262,33554432,141,0, 
1.2600,-133.5,-122.1,-1793.4,-132.0,-102.0,-205.8,-100.8,-236.1,-2074.8,-26.7,-83.1,-11.7,-9830.1,-9171.9,602.1,-1842.3,-7.2,-6.0,-54.6,51.6,-0.6,24.6,161.4,296.1,0,2268,33554432,142,0, 
1.2633,-133.2,-123.3,1789.8,-134.1,-3.0,-207.3,-67.8,-239.7,-1704.3,-28.8,-85.8,-15.0,-8853.3,-7148.7,3851.7,-241.5,-6.9,-5.7,-54.9,45.6,-0.9,21.3,171.6,314.1,0,2274,33554432,143,0, 
1.2667,-131.7,-122.7,3955.8,-134.7,8.1,-202.2,-63.3,-241.2,-2297.1,-29.7,-87.6,-27.6,-8392.2,-6262.2,4392.6,955.5,-6.9,-6.0,-55.8,42.0,-0.6,18.6,182.7,324.9,0,2280,33554432,144,0, 
1.2700,-137.4,-124.8,1844.4,-136.8,-92.1,-209.4,-85.8,-244.5,-3334.5,-36.9,-96.9,-25.5,-9512.1,-7724.7,1639.5,126.9,-7.2,-6.0,-63.6,35.1,-0.6,23.4,168.3,318.0,0,2286,33554432,145,0, 
1.2733,-129.3,-120.9,-1757.7,-131.4,-179.1,-207.3,-113.7,-238.5,-3186.3,-31.5,-87.0,-15.9,-9830.1,-9536.1,-763.8,-1665.6,-6.9,-6.3,-54.6,40.5,-0.9,26.4,162.9,304.8,0,2292,33554432,146,0, 
1.2767,-135.0,-113.7,-1752.0,-140.4,-106.8,-214.5,-98.4,-240.9,-2074.8,-30.9,-98.4,-23.4,-9830.1,-9138.9,609.6,-1924.2,-6.6,-5.7,-63.3,33.9,-0.6,19.8,161.1,300.0,0,2298,33554432,147,0, 
1.2800,-135.6,-118.8,1825.2,-144.6,-15.3,-213.6,-76.8,-246.9,-1482.0,-33.9,-101.1,-33.6,-8846.4,-7121.7,3906.6,-323.4,-6.9,-5.7,-65.1,27.0,-0.6,9.6,172.5,314.4,0,2304,33554432,148,0, 
1.2833,-137.1,-118.8,4079.1,-141.3,9.0,-216.3,-68.7,-247.5,-2223.0,-25.8,-91.2,-22.5,-8339.7,-6250.8,4492.2,957.0,-6.9,-5.7,-60.6,37.8,-0.9,20.4,177.0,326.4,0,2310,33554432,149,0, 
1.2867,-139.8,-115.8,1923.0,-138.6,-79.8,-203.4,-91.5,-242.1,-3186.3,-30.0,-91.5,-23.1,-9451.2,-7719.0,1685.4,183.0,-6.9,-6.3,-58.2,28.8,-0.9,19.8,175.5,321.0,0,2316,33554432,150,0, 
1.2900,-134.4,-119.4,-1607.7,-137.1,-159.3,-209.4,-112.2,-242.1,-3260.4,-21.3,-84.9,-14.7,-9830.1,-9556.5,-632.1,-1636.5,-7.2,-6.3,-53.7,34.8,-0.9,27.6,164.1,304.5,0,2322,33554432,151,0, 
1.2933,-136.2,-116.1,-1546.2,-139.8,-99.3,-215.4,-101.1,-244.2,-2148.9,-32.4,-82.8,-20.1,-9819.9,-9153.3,848.7,-1863.3,-6.9,-6.3,-53.1,32.4,-0.6,16.5,162.6,292.5,0,2328,33554432,152,0, 
1.2967,-135.0,-117.3,1860.6,-139.8,-2.1,-213.6,-81.0,-236.4,-1556.1,-24.3,-79.8,-22.2,-8900.7,-7233.9,3924.9,-398.4,-7.2,-6.0,-51.0,33.3,-1.2,21.6,169.2,311.7,0,2334,33554432,153,0, 
1.3000,-140.1,-123.6,3904.8,-144.6,-15.9,-215.4,-78.6,-242.7,-2223.0,-38.4,-95.4,-31.2,-8562.3,-6370.2,4380.9,805.8,-7.2,-6.0,-63.0,21.0,-0.9,15.3,175.2,325.5,0,2340,33554432,154,0, 
1.3033,-142.5,-124.8,1897.5,-144.9,-100.8,-218.7,-105.6,-243.3,-3334.5,-30.9,-98.7,-32.4,-9552.9,-7816.5,1743.9,42.9,-6.9,-5.7,-69.3,20.1,-1.2,15.3,164.7,306.0,0,2346,33554432,155,0, 
1.3067,-147.6,-124.8,-1626.3,-139.5,-179.1,-208.8,-130.8,-243.0,-3260.4,-32.4,-98.4,-27.0,-9830.1,-9580.5,-583.8,-1680.6,-6.6,-6.0,-66.3,26.4,-0.6,9.0,151.8,294.6,0,2352,33554432,156,0, 
1.3100,-143.1,-124.2,-1584.9,-141.3,-120.3,-221.1,-110.7,-245.1,-2148.9,-30.9,-94.2,-26.7,-9830.1,-9189.9,919.2,-1955.7,-6.6,-5.7,-61.5,23.1,-0.6,20.4,158.4,297.3,0,2358,33554432,157,0, 
1.3133,-141.9,-122.7,2088.0,-135.3,-22.2,-215.1,-78.9,-243.0,-1556.1,-31.5,-95.7,-26.1,-8716.2,-7146.6,4273.2,-306.0,-6.6,-5.7,-62.7,27.0,-0.9,15.6,162.9,309.9,0,2364,33554432,158,0, 
1.3167,-140.7,-122.4,4289.7,-130.2,25.5,-209.1,-66.3,-241.2,-2371.2,-21.0,-87.9,-17.7,-8314.5,-6308.1,4900.5,952.8,-6.6,-5.7,-57.3,39.0,-0.6,18.3,170.1,328.5,0,2370,33554432,159,0, 
1.3200,-141.9,-126.3,2216.7,-130.2,-78.6,-210.0,-93.9,-240.9,-3408.6,-35.1,-89.4,-17.1,-9411.9,-7745.1,2052.0,213.9,-6.9,-6.3,-57.9,36.6,-0.6,27.3,163.5,323.7,0,2376,33554432,160,0, 
1.3233,-140.1,-123.6,-1311.0,-130.2,-163.5,-208.2,-111.6,-242.4,-3186.3,-28.8,-74.7,-17.1,-9830.1,-9534.0,-277.5,-1604.4,-6.9,-5.7,-45.9,29.7,-0.6,27.9,158.7,309.9,0,2382,33554432,161,0, 
1.3267,-141.3,-132.0,-1361.7,-134.7,-95.4,-208.8,-100.5,-245.4,-2074.8,-29.7,-91.2,-27.0,-9805.8,-9123.0,1120.5,-1896.9,-6.9,-6.3,-63.3,25.5,-0.9,18.9,160.2,306.6,0,2388,33554432,162,0, 
1.3300,-143.4,-129.6,2230.5,-134.7,18.6,-207.9,-71.1,-246.6,-1630.2,-39.3,-102.0,-30.3,-8649.9,-7068.3,4406.1,-226.8,-6.6,-5.7,-70.8,23.4,-0.6,20.1,168.9,324.9,0,2394,33554432,163,0, 
1.3333,-141.3,-140.1,4492.5,-134.4,23.7,-205.5,-49.5,-244.8,-2223.0,-39.9,-100.5,-26.4,-8164.2,-6226.5,5046.0,1052.1,-6.9,-6.0,-75.9,36.9,-0.6,19.5,177.3,335.1,0,2400,33554432,164,0, 
1.3367,-137.7,-132.6,2213.1,-130.2,-81.3,-201.6,-80.1,-243.0,-3408.6,-24.6,-93.0,-26.4,-9324.9,-7714.5,2074.5,190.2,-6.9,-6.6,-66.9,23.4,-0.9,27.9,170.1,327.0,0,2406,33554432,165,0, 
1.3400,-137.4,-131.4,-1320.9,-132.9,-151.5,-206.1,-106.5,-245.7,-3260.4,-34.2,-99.9,-28.8,-9830.1,-9495.9,-169.2,-1528.8,-6.9,-5.4,-69.3,28.8,-0.9,22.2,160.5,306.0,0,2412,33554432,166,0, 
1.3433,-138.6,-127.8,-1268.7,-130.5,-91.2,-207.3,-90.0,-243.3,-2074.8,-32.7,-99.0,-19.2,-9747.6,-9110.1,1243.8,-1729.8,-6.9,-6.0,-64.2,30.9,-0.6,21.3,167.4,301.5,0,2418,33554432,167,0, 
1.3467,-136.5,-124.2,2383.2,-126.6,32.7,-199.8,-52.2,-242.4,-1407.9,-27.3,-92.1,-14.4,-8523.6,-7081.5,4558.5,-100.8,-6.9,-6.3,-63.3,35.7,-0.9,26.1,174.0,322.2,0,2424,33554432,168,0, 
1.3500,-132.3,-120.9,4602.3,-120.6,37.2,-194.1,-50.1,-240.0,-2297.1,-18.9,-86.4,-16.5,-8171.1,-6217.8,5136.6,1155.9,-6.9,-6.3,-56.4,35.1,-0.6,28.8,181.2,339.0,0,2430,33554432,169,0, 
1.3533,-129.0,-121.5,2410.8,-115.2,-52.8,-193.2,-70.8,-234.6,-3334.5,-20.7,-78.0,-8.4,-9320.4,-7668.9,2289.6,326.7,-6.6,-6.3,-47.7,40.8,-0.6,32.4,177.6,343.5,0,2436,33554432,170,0, 
1.3567,-128.7,-116.7,-1194.6,-115.5,-123.6,-189.0,-103.2,-235.5,-3260.4,-14.4,-75.0,-9.6,-9830.1,-9486.0,-4.5,-1419.3,-7.2,-6.3,-44.4,39.3,-0.9,37.8,172.5,323.7,0,2442,33554432,171,0, 
1.3600,-130.5,-111.9,-1196.4,-111.3,-76.5,-187.5,-87.3,-234.6,-2074.8,-21.3,-74.4,-12.3,-9756.6,-9139.8,1337.1,-1733.1,-6.9,-6.3,-38.4,38.4,-1.2,37.8,173.4,324.0,0,2448,33554432,172,0, 
1.3633,-129.0,-115.8,2412.9,-112.2,41.1,-186.6,-49.2,-235.5,-1556.1,-16.5,-77.1,-9.0,-8490.0,-7128.0,4682.1,-69.0,-6.9,-6.0,-40.5,40.2,-0.9,36.0,179.4,336.9,0,2454,33554432,173,0, 
1.3667,-127.8,-120.3,4583.1,-114.0,39.0,-190.8,-56.7,-236.7,-2371.2,-19.8,-79.2,-8.1,-8120.4,-6219.6,5224.5,1174.5,-6.9,-5.7,-44.1,47.1,-0.6,31.2,183.9,343.8,0,2460,33554432,174,0, 
1.3700,-126.6,-126.0,2367.9,-113.7,-52.2,-195.3,-78.9,-237.9,-3334.5,-18.6,-84.9,-13.5,-9229.2,-7701.6,2400.0,349.5,-6.9,-5.7,-51.0,34.5,-0.9,30.9,174.6,334.5,0,2466,33554432,175,0, 
1.3733,-127.8,-123.3,-1165.8,-115.8,-129.3,-195.6,-103.8,-234.6,-3408.6,-26.4,-83.7,-16.2,-9830.1,-9530.7,88.5,-1410.3,-7.2,-6.0,-54.6,32.7,-0.9,26.4,158.7,315.0,0,2472,33554432,176,0, 
1.3767,-127.5,-123.9,-1137.3,-118.8,-64.2,-204.0,-83.7,-240.9,-2148.9,-23.7,-82.8,-16.2,-9729.3,-9158.7,1569.0,-1701.0,-6.9,-6.3,-50.1,29.1,-0.9,31.2,153.9,305.4,0,2478,33554432,177,0, 
1.3800,-128.4,-117.0,2427.6,-116.7,35.7,-194.7,-57.3,-238.2,-1482.0,-25.2,-86.1,-18.6,-8460.3,-7140.3,4843.2,-65.1,-7.2,-6.3,-52.5,26.4,-0.9,26.1,168.9,323.4,0,2484,33554432,178,0, 
1.3833,-127.2,-121.5,4540.8,-111.3,48.6,-199.8,-49.2,-237.6,-2223.0,-23.7,-81.6,-14.4,-8109.6,-6279.3,5396.4,1165.5,-6.9,-5.7,-43.8,34.2,-0.6,32.7,178.5,336.9,0,2490,33554432,179,0, 
1.3867,-125.4,-117.9,2436.3,-103.8,-34.2,-193.2,-69.0,-230.7,-3260.4,-14.1,-61.5,-9.6,-9228.0,-7762.2,2600.1,315.9,-7.2,-6.0,-36.9,36.0,-0.6,36.3,180.0,336.0,0,2496,33554432,180,0, 
1.3900,-129.6,-123.6,-1155.6,-113.4,-130.8,-197.1,-96.3,-234.9,-3038.1,-12.0,-73.8,-17.7,-9830.1,-9620.7,195.0,-1469.4,-6.9,-6.3,-40.2,26.4,-0.6,35.1,165.6,317.7,0,2502,33554432,181,0, 
1.3933,-130.2,-126.9,-1145.1,-114.0,-76.2,-193.8,-79.8,-239.1,-2148.9,-20.7,-88.5,-16.8,-9752.4,-9248.4,1662.9,-1732.8,-6.6,-6.0,-49.5,30.6,-0.6,23.4,168.3,316.2,0,2508,33554432,182,0, 
1.3967,-130.2,-123.6,2394.0,-111.6,42.9,-189.0,-45.3,-241.2,-1482.0,-11.4,-75.3,-10.5,-8523.6,-7165.8,4954.2,-83.7,-6.6,-6.0,-40.5,36.6,-0.6,39.6,177.3,336.6,0,2514,33554432,183,0, 
1.4000,-137.1,-126.0,4536.0,-105.9,55.2,-189.9,-44.4,-239.7,-2297.1,-25.2,-76.5,-12.6,-8157.3,-6303.6,5546.7,1117.5,-6.9,-5.7,-42.0,37.2,-0.6,33.0,177.6,342.9,0,2520,33554432,184,0, 
1.4033,-134.7,-130.2,2330.7,-109.8,-51.3,-190.8,-66.0,-240.0,-3186.3,-25.5,-89.4,-16.2,-9285.9,-7821.9,2676.6,283.5,-6.9,-6.3,-49.5,26.1,-0.9,30.0,171.0,338.7,0,2526,33554432,185,0, 
1.4067,-136.5,-135.6,-1182.6,-113.4,-115.2,-189.9,-97.2,-240.3,-3112.2,-21.9,-85.2,-10.8,-9830.1,-9645.3,378.3,-1513.2,-6.9,-5.4,-51.6,31.2,-0.6,19.8,160.5,318.9,0,2532,33554432,186,0, 
1.4100,-136.5,-133.8,-1288.2,-117.3,-73.8,-192.6,-88.5,-241.5,-2148.9,-27.3,-87.9,-13.8,-9756.6,-9269.7,1819.5,-1824.0,-6.6,-6.6,-53.4,30.0,-0.6,26.7,167.1,319.5,0,2538,33554432,187,0, 
1.4133,-135.3,-134.4,2280.6,-117.9,35.7,-196.8,-64.8,-244.5,-1556.1,-31.5,-87.3,-25.5,-8575.8,-7280.4,5031.6,-214.2,-6.9,-6.0,-55.5,23.7,-0.6,20.1,169.2,335.4,0,2544,33554432,188,0, 
1.4167,-135.0,-137.4,4532.1,-114.6,51.9,-193.5,-50.4,-240.3,-2371.2,-27.6,-84.9,-27.9,-8195.4,-6399.9,5560.5,1012.8,-6.9,-6.0,-51.3,26.7,-0.6,25.5,178.8,343.5,0,2550,33554432,189,0, 
1.4200,-131.7,-134.1,2285.7,-116.1,-54.0,-192.6,-88.8,-242.1,-3260.4,-28.5,-86.1,-25.2,-9349.5,-7865.1,2735.1,163.8,-6.9,-5.4,-55.5,23.7,-0.9,26.4,165.6,329.1,0,2556,33554432,190,0, 
1.4233,-138.6,-138.6,-1350.6,-124.2,-138.3,-194.4,-108.0,-248.4,-3408.6,-37.2,-108.6,-37.8,-9830.1,-9691.8,304.8,-1638.6,-6.9,-6.0,-72.6,16.8,-0.9,21.6,156.0,313.5,0,2562,33554432,191,0, 
1.4267,-137.7,-147.6,-1329.9,-131.1,-79.2,-195.9,-98.7,-249.3,-2148.9,-54.0,-126.9,-55.5,-9801.0,-9383.1,1804.2,-1910.1,-6.3,-6.0,-91.2,5.7,-0.6,14.1,150.9,303.6,0,2568,33554432,192,0, 
1.4300,-130.5,-141.0,2153.7,-125.4,22.5,-194.7,-71.4,-248.1,-1704.3,-42.0,-112.8,-53.4,-8644.8,-7322.7,5049.6,-306.9,-6.9,-5.7,-72.3,-0.9,-0.3,11.1,158.7,321.9,0,2574,33554432,193,0, 
1.4333,-133.8,-140.7,4366.8,-119.7,35.4,-198.9,-66.9,-243.0,-2223.0,-32.4,-85.8,-30.0,-8237.7,-6447.3,5605.8,929.7,-6.6,-6.0,-50.4,15.9,-0.6,12.3,161.1,327.0,0,2580,33554432,194,0, 
1.4367,-132.9,-135.0,2174.4,-115.2,-66.0,-193.8,-96.9,-231.9,-3408.6,-29.4,-78.6,-16.2,-9367.2,-7929.6,2777.7,118.8,-7.2,-5.7,-40.8,21.6,-0.6,12.0,153.3,312.0,0,2586,33554432,195,0, 
1.4400,-139.8,-144.0,-1427.4,-115.2,-135.3,-197.7,-124.8,-234.9,-3186.3,-32.1,-74.1,-18.9,-9830.1,-9726.6,386.1,-1709.4,-6.9,-6.0,-39.6,15.0,-0.6,15.3,137.4,297.3,0,2592,33554432,196,0, 
1.4433,-141.0,-144.9,-1489.2,-117.9,-80.7,-198.6,-110.7,-236.4,-2074.8,-37.2,-77.1,-17.4,-9822.0,-9379.5,1788.9,-2003.7,-6.6,-6.0,-43.2,17.7,-0.6,14.7,142.5,295.5,0,2598,33554432,197,0, 
1.4467,-134.1,-140.7,2496.6,-115.5,75.9,-196.2,-63.3,-235.2,-1482.0,-39.9,-78.9,-24.9,-8390.1,-7120.8,5563.2,-69.9,-6.9,-6.3,-43.2,10.8,-0.3,6.6,157.8,312.3,0,2604,33554432,198,0, 
1.4500,-135.6,-140.4,4583.7,-118.5,32.1,-204.6,-63.3,-241.8,-2371.2,-40.8,-81.3,-24.9,-8035.8,-6373.2,5999.4,987.3,-6.9,-6.0,-42.0,8.1,-0.9,1.8,152.1,307.5,0,2610,33554432,199,0, 
1.4533,-141.6,-144.3,2296.2,-121.2,-61.2,-201.9,-94.5,-244.2,-3186.3,-42.0,-86.4,-24.9,-9303.0,-7897.8,2975.4,70.2,-7.2,-5.7,-47.7,2.7,-0.9,7.2,145.2,293.1,0,2616,33554432,200,0, 
1.4567,-135.0,-141.0,-1359.9,-108.0,-129.6,-194.7,-118.8,-240.0,-3334.5,-25.2,-71.1,-10.5,-9830.1,-9711.6,426.3,-1795.5,-7.2,-6.0,-34.2,20.1,-0.9,12.9,144.0,288.6,0,2622,33554432,201,0, 
1.4600,-141.6,-141.9,-1370.7,-117.3,-91.8,-199.2,-108.9,-245.7,-2148.9,-34.8,-76.8,-15.9,-9790.2,-9417.6,1851.9,-2097.6,-6.6,-6.3,-43.8,10.2,-0.9,4.8,147.0,283.8,0,2628,33554432,202,0, 
1.4633,-134.7,-137.7,2081.7,-109.2,16.5,-194.1,-72.3,-237.9,-1630.2,-35.4,-66.6,-5.1,-8614.2,-7392.3,5106.3,-503.7,-6.6,-6.0,-27.3,22.5,-0.6,18.0,155.1,306.9,0,2634,33554432,203,0, 
1.4667,-129.0,-142.8,4329.3,-106.8,37.8,-183.9,-53.7,-230.4,-2297.1,-27.3,-68.4,-8.7,-8266.2,-6554.4,5604.9,727.8,-6.6,-6.3,-31.5,25.5,-0.9,30.6,166.2,321.0,0,2640,33554432,204,0, 
1.4700,-126.6,-124.8,2041.5,-95.4,-64.2,-175.5,-93.3,-224.4,-3260.4,-10.5,-56.7,-1.8,-9405.9,-8101.8,2664.3,-153.0,-6.9,-6.0,-21.6,36.0,-0.6,39.6,166.2,315.6,0,2646,33554432,205,0, 
1.4733,-126.0,-127.5,-1540.2,-98.7,-135.6,-180.6,-111.6,-227.4,-3186.3,-18.9,-63.6,0.6,-9830.1,-9781.2,354.3,-1896.6,-6.9,-6.3,-28.2,38.7,-0.9,36.0,157.5,298.2,0,2652,33554432,206,0, 
1.4767,-124.8,-121.2,-1544.7,-91.5,-72.6,-180.0,-79.8,-229.8,-2223.0,-12.0,-58.8,1.5,-9792.3,-9544.2,1773.9,-2149.2,-6.9,-6.0,-23.4,42.6,-0.6,31.8,157.8,300.6,0,2658,33554432,207,0, 
1.4800,-125.4,-124.2,1958.1,-95.4,21.0,-185.1,-50.1,-231.6,-1482.0,-14.7,-60.3,-1.5,-8668.8,-7520.4,5045.4,-589.5,-6.9,-6.0,-21.6,35.7,-0.9,30.3,169.8,315.9,0,2664,33554432,208,0, 
1.4833,-130.5,-127.2,4157.7,-93.9,46.2,-182.1,-51.3,-228.3,-2223.0,-7.2,-60.3,1.5,-8306.1,-6576.0,5581.2,624.9,-7.2,-6.0,-21.3,39.6,-0.6,37.2,172.2,327.9,0,2670,33554432,209,0, 
1.4867,-129.9,-125.4,1943.4,-93.0,-61.8,-180.3,-75.0,-218.7,-3334.5,-6.0,-56.1,6.3,-9426.9,-8097.3,2664.3,-198.9,-6.6,-6.0,-22.5,42.6,-0.3,30.9,164.4,321.6,0,2676,33554432,210,0, 
1.4900,-135.0,-131.1,-1614.0,-102.0,-132.0,-183.0,-109.5,-224.7,-3260.4,-12.3,-68.1,-2.7,-9830.1,-9736.5,360.6,-1953.9,-6.9,-5.4,-31.8,36.3,-0.6,27.0,152.4,302.1,0,2682,33554432,211,0, 
1.4933,-132.3,-129.9,-1612.8,-111.3,-97.5,-195.9,-96.9,-230.4,-1926.6,-33.0,-76.8,-17.1,-9830.1,-9538.2,1782.9,-2258.1,-6.9,-5.7,-40.5,19.2,-0.6,14.4,148.2,288.3,0,2688,33554432,212,0, 
1.4967,-137.7,-136.8,2011.5,-114.3,6.9,-194.4,-66.3,-228.6,-1482.0,-38.7,-87.3,-24.6,-8766.0,-7458.0,5149.8,-579.0,-6.9,-6.3,-45.9,6.9,-0.3,2.1,153.9,300.0,0,2694,33554432,213,0, 
1.5000,-136.5,-140.7,4134.9,-113.7,18.6,-192.6,-63.6,-231.6,-2297.1,-33.9,-83.1,-17.7,-8338.8,-6608.1,5754.3,620.1,-6.6,-6.0,-40.2,13.8,-1.2,1.8,155.7,315.3,0,2700,33554432,214,0, 
1.5033,-139.5,-151.2,1914.9,-115.5,-78.9,-200.1,-102.0,-233.7,-3260.4,-44.1,-82.5,-21.9,-9435.6,-8077.5,2821.8,-231.3,-6.9,-6.0,-41.4,17.7,-0.9,3.6,147.6,315.3,0,2706,33554432,215,0, 
1.5067,-133.2,-138.9,-1598.7,-112.2,-144.6,-197.4,-120.9,-227.7,-3112.2,-37.2,-81.9,-17.7,-9830.1,-9743.7,434.4,-2021.1,-6.9,-5.7,-42.9,14.1,-0.6,12.0,145.2,294.6,0,2712,33554432,216,0, 
1.5100,-138.3,-140.1,-1630.8,-122.7,-91.5,-195.0,-103.8,-236.7,-1926.6,-48.6,-94.8,-23.4,-9811.8,-9503.4,1760.1,-2299.2,-6.9,-5.7,-53.4,3.3,-0.6,1.5,142.2,287.7,0,2718,33554432,217,0, 
1.5133,-132.3,-139.2,1970.4,-123.3,8.7,-204.3,-76.5,-239.4,-1704.3,-51.9,-93.3,-30.0,-8678.1,-7409.1,5100.9,-642.0,-7.2,-6.6,-53.7,2.4,-0.9,-1.8,149.1,288.3,0,2724,33554432,218,0, 
1.5167,-135.3,-154.8,4125.0,-127.8,20.7,-204.3,-71.4,-240.9,-2297.1,-40.8,-93.9,-40.8,-8284.2,-6565.2,5703.0,634.2,-6.6,-6.0,-51.9,-3.3,-0.9,-4.2,155.7,303.0,0,2730,33554432,219,0, 
1.5200,-134.7,-145.8,1845.6,-118.8,-94.2,-203.1,-96.9,-238.2,-3186.3,-39.6,-94.5,-33.0,-9345.3,-8076.9,2811.6,-245.4,-6.9,-6.0,-54.9,0.6,-1.2,6.6,151.5,297.0,0,2736,33554432,220,0, 
1.5233,-133.2,-144.9,-1681.2,-115.2,-164.1,-202.8,-114.3,-237.6,-3186.3,-39.9,-90.9,-27.0,-9830.1,-9756.0,411.6,-2020.5,-7.2,-6.3,-52.8,2.7,-0.9,7.5,146.4,279.0,0,2742,33554432,221,0, 
1.5267,-129.6,-137.4,-1635.0,-109.8,-96.3,-197.4,-106.8,-235.8,-2074.8,-37.2,-81.0,-19.2,-9745.8,-9503.7,1823.7,-2322.9,-6.6,-6.3,-42.9,15.0,-0.6,9.0,150.3,287.4,0,2748,33554432,222,0, 
1.5300,-129.0,-141.3,1900.5,-111.0,16.5,-200.4,-68.7,-240.9,-1556.1,-36.6,-81.0,-21.3,-8559.9,-7423.5,5062.2,-677.4,-6.6,-5.7,-45.0,12.9,-0.9,8.4,157.5,305.4,0,2754,33554432,223,0, 
1.5333,-119.7,-130.5,4108.8,-93.9,27.6,-192.0,-53.1,-228.6,-2371.2,-27.0,-72.0,-12.6,-8177.4,-6552.3,5619.3,616.8,-7.5,-6.0,-30.9,22.2,-0.9,22.5,170.1,321.6,0,2760,33554432,224,0, 
1.5367,-118.8,-134.4,1893.6,-102.0,-76.5,-193.8,-84.9,-230.7,-3334.5,-22.8,-66.3,-11.7,-9298.5,-8072.4,2679.9,-309.6,-6.6,-6.0,-32.1,24.6,-0.9,16.8,161.4,317.4,0,2766,33554432,225,0, 
1.5400,-121.8,-132.9,-1663.8,-104.7,-149.1,-194.1,-96.0,-230.4,-3112.2,-26.7,-63.3,-11.1,-9830.1,-9774.9,374.1,-2080.8,-6.9,-6.0,-27.0,24.0,-0.9,20.4,150.6,304.2,0,2772,33554432,226,0, 
1.5433,-129.6,-135.3,-1670.4,-113.4,-98.1,-198.9,-102.0,-235.2,-2074.8,-30.3,-73.5,-21.6,-9767.7,-9513.0,1766.7,-2337.0,-6.9,-6.0,-31.5,21.9,-0.6,15.6,150.0,293.4,0,2778,33554432,227,0, 
1.5467,-123.3,-133.8,1915.5,-111.3,24.9,-199.8,-66.0,-233.1,-1556.1,-29.4,-74.1,-15.3,-8541.9,-7468.5,5112.6,-677.1,-6.6,-6.0,-33.3,24.3,-0.6,18.3,161.4,309.6,0,2784,33554432,228,0, 
1.5500,-123.9,-135.6,4045.2,-110.1,21.9,-201.0,-63.0,-235.2,-2223.0,-25.2,-72.3,-14.4,-8186.4,-6641.7,5521.8,446.7,-6.9,-5.4,-35.7,21.3,-0.6,18.9,164.7,319.2,0,2790,33554432,229,0, 
1.5533,-120.0,-132.9,1908.6,-102.9,-69.6,-188.4,-76.2,-227.7,-3186.3,-14.1,-68.1,-7.5,-9345.0,-8118.0,2710.8,-340.8,-6.9,-5.7,-30.6,29.4,-0.6,27.9,164.1,313.8,0,2796,33554432,230,0, 
1.5567,-118.8,-128.1,-1697.4,-99.3,-135.9,-192.0,-111.0,-224.7,-3112.2,-16.2,-70.5,-8.1,-9830.1,-9774.6,285.9,-2129.4,-7.2,-6.3,-27.0,26.7,-0.6,25.5,152.7,297.0,0,2802,33554432,231,0, 
1.5600,-118.2,-131.1,-1690.2,-100.5,-85.8,-191.7,-90.3,-224.1,-2000.7,-15.0,-60.6,4.2,-9732.9,-9529.2,1809.9,-2366.4,-7.2,-6.0,-27.9,38.7,-0.6,32.7,154.2,295.2,0,2808,33554432,232,0, 
1.5633,-120.0,-130.2,1925.1,-101.1,16.8,-192.9,-60.3,-228.9,-1556.1,-31.5,-71.1,-0.6,-8520.3,-7491.9,5061.9,-841.8,-7.2,-6.3,-32.7,36.3,-0.3,21.3,162.3,316.5,0,2814,33554432,233,0, 
1.5667,-117.9,-131.1,4041.9,-99.3,28.8,-190.2,-52.2,-230.4,-2148.9,-16.5,-65.7,-2.7,-8174.4,-6604.5,5442.3,391.5,-6.9,-5.7,-28.5,37.5,-0.6,26.7,167.1,320.7,0,2820,33554432,234,0, 
1.5700,-122.7,-136.8,1810.5,-108.9,-87.6,-202.8,-84.6,-237.0,-3186.3,-23.1,-65.7,-17.1,-9306.9,-8188.8,2537.7,-488.1,-6.9,-6.0,-31.2,31.2,-0.6,26.1,157.8,302.7,0,2826,33554432,235,0, 
1.5733,-123.9,-137.4,-1755.0,-107.4,-140.7,-197.7,-109.5,-236.4,-3186.3,-27.0,-68.7,-12.9,-9830.1,-9765.9,167.1,-2336.1,-6.9,-6.0,-33.9,31.5,-0.6,22.5,150.6,287.1,0,2832,33554432,236,0, 
1.5767,-130.5,-138.0,-1741.8,-115.2,-98.4,-209.4,-108.3,-246.6,-2074.8,-27.9,-71.7,-19.2,-9744.0,-9640.2,1661.1,-2572.5,-6.9,-5.7,-36.0,25.5,-0.6,8.7,137.1,272.7,0,2838,33554432,237,0, 
1.5800,-133.5,-141.3,1724.1,-114.3,6.6,-209.4,-66.0,-246.9,-1556.1,-28.2,-71.4,-16.2,-8597.7,-7674.0,4738.8,-1008.9,-6.9,-6.3,-33.9,36.6,-0.9,12.0,153.9,283.5,0,2844,33554432,238,0, 
1.5833,-130.2,-140.1,3879.9,-112.5,29.7,-201.3,-60.6,-241.2,-2297.1,-26.7,-81.6,-11.1,-8197.8,-6748.8,5311.5,179.7,-6.9,-6.0,-38.1,36.0,-0.6,9.9,160.5,303.6,0,2850,33554432,239,0, 
1.5867,-123.0,-138.3,1743.0,-110.4,-88.8,-203.1,-86.7,-240.6,-3334.5,-17.7,-73.5,-3.9,-9312.3,-8304.9,2356.5,-692.1,-7.2,-6.3,-39.6,40.8,-1.2,22.5,150.9,290.1,0,2856,33554432,240,0, 
1.5900,-123.9,-141.9,-1846.2,-113.1,-157.2,-193.2,-114.6,-235.8,-3186.3,-30.9,-81.6,-12.9,-9830.1,-9807.0,-6.9,-2494.5,-6.6,-6.0,-43.2,37.8,-0.6,17.4,139.5,277.2,0,2862,33554432,241,0, 
1.5933,-118.5,-137.4,-1886.1,-115.5,-104.1,-202.8,-97.8,-234.3,-1926.6,-32.7,-80.1,-15.6,-9754.8,-9646.2,1413.6,-2846.4,-7.2,-6.3,-42.0,38.1,-0.6,9.6,141.6,279.3,0,2868,33554432,242,0, 
1.5967,-123.3,-140.1,1686.3,-111.3,1.5,-198.3,-64.8,-232.8,-1556.1,-35.1,-74.4,-14.7,-8528.4,-7691.1,4628.7,-1227.9,-6.9,-6.3,-36.0,41.7,-0.9,12.6,156.6,295.8,0,2874,33554432,243,0, 
1.6000,-116.1,-144.3,3756.6,-113.1,0.6,-200.4,-57.0,-235.2,-2371.2,-32.4,-69.6,-10.5,-8180.7,-6787.8,5087.1,-103.2,-6.9,-6.0,-34.5,37.8,-0.6,19.5,157.5,297.9,0,2880,33554432,244,0, 
1.6033,-121.2,-144.0,1537.5,-110.4,-101.1,-195.0,-88.2,-237.9,-3186.3,-28.5,-69.6,-6.3,-9327.0,-8325.6,2178.0,-930.0,-6.9,-5.7,-34.2,44.4,-0.3,22.5,147.6,298.8,0,2886,33554432,245,0, 
1.6067,-120.0,-138.0,-2048.7,-112.5,-172.2,-189.0,-113.1,-230.4,-3186.3,-23.4,-75.9,-5.1,-9830.1,-9816.6,-239.7,-2771.4,-6.3,-6.0,-35.1,41.4,-1.2,23.1,138.3,284.1,0,2892,33554432,246,0, 
1.6100,-122.1,-140.4,-2016.0,-114.6,-105.0,-199.5,-104.1,-237.3,-2000.7,-27.6,-75.6,-5.1,-9737.1,-9663.3,1125.0,-3030.0,-6.3,-6.3,-39.9,45.3,-0.6,13.2,136.5,288.0,0,2898,33554432,247,0, 
1.6133,-119.4,-141.3,1546.8,-118.8,1.2,-201.0,-82.5,-237.3,-1556.1,-26.4,-76.2,-11.4,-8516.4,-7773.9,4377.6,-1421.4,-6.6,-5.7,-36.6,43.5,-0.9,10.5,147.9,298.5,0,2904,33554432,248,0, 
1.6167,-121.2,-142.8,3677.1,-116.7,28.5,-198.9,-75.9,-235.8,-2223.0,-20.4,-75.6,-12.3,-8130.3,-6884.4,4763.1,-266.4,-6.6,-6.0,-35.1,44.4,-0.9,23.1,155.7,308.7,0,2910,33554432,249,0, 
1.6200,-123.3,-141.0,1484.7,-111.0,-80.7,-190.2,-99.0,-228.6,-3112.2,-18.3,-71.1,-5.4,-9332.4,-8470.2,1941.3,-1168.8,-6.9,-5.7,-33.6,56.7,-0.6,30.9,158.1,300.9,0,2916,33554432,250,0, 
1.6233,-117.0,-131.4,-2094.3,-106.5,-141.6,-189.9,-120.6,-232.8,-3186.3,-17.7,-66.3,1.8,-9830.1,-9827.4,-473.4,-2928.9,-6.9,-6.3,-33.6,57.3,-0.6,29.1,150.9,290.4,0,2922,33554432,251,0, 
1.6267,-120.9,-140.4,-2095.5,-116.4,-95.7,-197.1,-102.9,-238.8,-2074.8,-18.6,-76.8,-4.5,-9754.2,-9707.1,898.5,-3199.5,-6.9,-5.7,-39.6,54.6,-0.6,24.9,147.6,284.7,0,2928,33554432,252,0, 
1.6300,-118.8,-140.7,1413.3,-117.3,3.6,-201.9,-68.1,-239.7,-1556.1,-20.1,-71.7,-6.9,-8552.7,-7884.3,4070.4,-1557.6,-6.9,-6.0,-32.7,44.7,-0.9,31.8,156.0,303.9,0,2934,33554432,253,0, 
1.6333,-117.3,-135.6,3558.0,-108.9,23.4,-195.0,-69.6,-232.2,-2297.1,-15.6,-61.2,2.1,-8160.0,-6883.5,4597.8,-376.8,-6.6,-6.0,-27.0,54.3,-0.9,35.7,170.4,318.6,0,2940,33554432,254,0, 
1.6367,-117.9,-136.8,1353.3,-107.1,-79.2,-196.8,-90.3,-235.8,-3334.5,-8.1,-60.9,6.6,-9350.4,-8510.7,1617.0,-1293.6,-6.6,-5.7,-25.8,56.1,-0.9,37.8,158.1,303.9,0,2946,33554432,255,0, 
1.6400,-117.0,-140.4,-2134.5,-113.1,-141.9,-200.1,-121.5,-234.9,-3260.4,-13.5,-71.7,-5.4,-9830.1,-9827.4,-780.6,-3128.7,-6.9,-5.7,-33.6,55.8,-1.2,37.5,151.2,297.9,0,2952,33554432,0,0, 
1.6433,-115.8,-138.0,-2246.4,-110.7,-95.7,-203.1,-96.0,-235.8,-2074.8,-12.6,-59.7,-7.2,-9784.8,-9708.6,561.0,-3400.8,-6.9,-6.0,-22.8,57.0,0.0,33.3,151.2,290.7,0,2958,33554432,1,0, 
1.6467,-115.2,-133.8,1292.1,-107.7,6.3,-202.8,-75.6,-232.2,-1482.0,-11.7,-59.7,-1.5,-8583.9,-7957.5,3826.8,-1789.5,-6.6,-6.0,-19.5,66.6,-0.9,37.8,164.4,310.5,0,2964,33554432,2,0, 
1.6500,-115.8,-140.4,3402.0,-104.4,16.5,-201.0,-68.7,-234.3,-2148.9,-12.6,-64.2,3.3,-8230.5,-7036.8,4200.6,-519.0,-6.3,-5.7,-25.5,66.6,-0.9,37.5,166.5,311.4,0,2970,33554432,3,0, 
1.6533,-117.0,-142.2,1235.1,-109.5,-74.1,-200.4,-105.0,-232.8,-3260.4,-10.5,-66.0,2.4,-9360.9,-8582.7,1290.3,-1434.0,-7.2,-6.0,-31.8,64.5,-0.9,40.5,162.3,305.7,0,2976,33554432,4,0, 
1.6567,-113.7,-141.9,-2300.4,-108.6,-153.3,-191.1,-128.4,-235.5,-3186.3,-9.0,-63.3,3.9,-9830.1,-9827.4,-1142.7,-3225.6,-7.2,-6.3,-31.5,64.8,-0.9,40.5,150.6,286.8,0,2982,33554432,5,0, 
1.6600,-116.4,-138.6,-2325.6,-113.7,-87.0,-201.9,-120.3,-239.1,-2148.9,-19.5,-67.5,-3.3,-9828.0,-9759.0,286.8,-3494.7,-6.9,-6.3,-33.3,53.7,-0.9,31.8,147.6,285.0,0,2988,33554432,6,0, 
1.6633,-114.0,-137.1,1217.7,-110.4,10.8,-204.0,-80.7,-234.9,-1630.2,-16.8,-67.2,-11.1,-8747.7,-8059.2,3564.0,-1873.8,-6.6,-6.0,-28.2,49.8,-0.9,33.3,159.0,304.5,0,2994,33554432,7,0, 
1.6667,-116.1,-143.4,3360.0,-116.4,0.9,-207.9,-77.1,-231.6,-2297.1,-15.0,-66.6,-8.7,-8432.4,-7086.0,4007.7,-714.3,-6.9,-6.3,-30.9,41.4,-0.6,27.9,155.4,305.1,0,3000,33554432,8,0, 
1.6700,-107.1,-136.8,1064.1,-112.2,-105.0,-200.1,-102.9,-228.3,-3334.5,-14.1,-74.1,-4.2,-9522.3,-8712.0,988.8,-1595.7,-6.6,-6.0,-33.0,44.4,-0.9,32.4,150.9,300.9,0,3006,33554432,9,0, 
1.6733,-111.0,-136.5,-2458.5,-117.0,-176.4,-202.2,-135.9,-230.7,-3186.3,-12.3,-78.0,-11.4,-9830.1,-9827.4,-1328.7,-3405.9,-6.6,-6.0,-39.3,31.5,-0.6,22.2,136.8,279.9,0,3012,33554432,10,0, 
1.6767,-112.8,-147.0,-2682.6,-117.6,-125.7,-202.8,-131.7,-232.8,-2148.9,-23.7,-75.0,-12.9,-9830.1,-9827.4,-280.5,-3827.4,-7.2,-6.0,-36.0,43.2,-0.9,16.2,135.9,276.3,0,3018,33554432,11,0, 
1.6800,-107.4,-136.5,795.6,-116.1,-33.3,-206.7,-106.2,-236.7,-1482.0,-15.0,-69.9,-7.2,-9200.4,-8322.6,2875.2,-2214.0,-6.9,-5.7,-32.1,38.4,-1.2,28.8,145.2,284.1,0,3024,33554432,12,0, 
1.6833,-110.7,-144.0,3002.7,-119.1,-6.0,-210.6,-91.5,-240.6,-2223.0,-28.2,-74.7,-15.0,-8732.1,-7278.3,3506.4,-991.8,-6.9,-5.7,-35.4,35.1,-1.2,18.0,150.3,292.5,0,3030,33554432,13,0, 
1.6867,-121.8,-146.1,844.2,-121.5,-123.6,-211.2,-123.0,-243.3,-3260.4,-29.1,-81.0,-15.3,-9703.2,-8899.2,631.5,-1840.2,-6.9,-5.7,-40.2,30.9,-0.9,18.9,143.7,284.1,0,3036,33554432,14,0, 
1.6900,-120.9,-144.0,-2656.2,-123.9,-184.2,-209.4,-136.5,-236.7,-3112.2,-21.9,-78.3,-14.1,-9828.6,-9827.4,-1843.2,-3611.7,-7.2,-6.3,-43.2,30.3,-1.2,23.1,127.2,272.7,0,3042,33554432,15,0, 
1.6933,-121.8,-147.9,-2660.1,-123.6,-144.3,-210.9,-129.9,-237.3,-2074.8,-24.0,-75.0,-19.2,-9830.1,-9827.4,-424.8,-3896.4,-6.9,-5.7,-38.7,32.1,-0.6,13.8,126.6,273.9,0,3048,33554432,16,0, 
1.6967,-120.6,-142.2,798.6,-124.8,-13.5,-211.2,-98.7,-236.7,-1482.0,-29.4,-75.0,-20.7,-9356.7,-8463.9,2650.8,-2288.1,-7.2,-6.6,-39.6,28.2,-0.6,13.2,138.0,275.4,0,3054,33554432,17,0, 
1.7000,-116.7,-142.2,2943.0,-123.9,-21.0,-206.1,-97.2,-234.9,-2445.3,-24.6,-78.0,-20.7,-8994.6,-7472.7,3099.6,-1102.8,-6.9,-5.7,-43.2,20.7,-0.6,12.3,150.3,295.5,0,3060,33554432,18,0, 
1.7033,-120.3,-147.6,718.5,-121.2,-124.2,-201.6,-117.6,-231.0,-3334.5,-20.4,-83.1,-13.5,-9803.4,-9078.9,237.9,-1983.3,-6.9,-6.0,-41.1,29.1,-0.6,18.6,139.2,282.6,0,3066,33554432,19,0, 
1.7067,-117.9,-145.8,-2833.5,-116.4,-184.2,-198.3,-132.9,-230.1,-3260.4,-20.1,-78.0,-8.7,-9828.6,-9827.4,-2093.1,-3769.2,-6.9,-5.7,-38.7,31.2,-0.3,19.8,132.3,284.4,0,3072,33554432,20,0, 
1.7100,-121.2,-144.6,-2844.3,-119.4,-126.0,-209.1,-127.5,-231.9,-2074.8,-23.4,-77.1,-21.9,-9830.1,-9827.4,-866.7,-4035.0,-6.9,-5.7,-37.8,30.0,-0.6,16.5,132.0,274.8,0,3078,33554432,21,0, 
1.7133,-121.8,-147.6,602.7,-117.9,-19.8,-203.7,-99.9,-230.7,-1630.2,-22.2,-77.7,-25.8,-9630.9,-8681.4,2244.9,-2515.2,-7.2,-6.0,-36.9,26.1,-0.3,15.0,145.8,295.8,0,3084,33554432,22,0, 
1.7167,-126.3,-146.4,2700.0,-119.1,-27.3,-206.1,-91.2,-234.6,-2371.2,-20.4,-76.8,-23.1,-9346.2,-7686.6,2661.6,-1323.3,-6.9,-6.3,-39.0,34.8,-0.9,21.0,153.0,302.4,0,3090,33554432,23,0, 
1.7200,-124.2,-142.2,456.0,-111.3,-114.0,-201.3,-112.5,-231.9,-3334.5,-20.4,-68.7,-15.6,-9830.1,-9223.8,-197.4,-2178.0,-6.9,-6.0,-30.9,37.5,-0.3,24.0,147.0,291.0,0,3096,33554432,24,0, 
1.7233,-129.3,-140.4,-2938.5,-114.6,-171.0,-202.8,-140.1,-233.4,-3112.2,-18.6,-74.4,-14.7,-9821.1,-9827.4,-2547.0,-3939.9,-7.2,-6.9,-35.7,35.1,-0.9,23.7,141.0,272.7,0,3102,33554432,25,0, 
1.7267,-123.3,-139.8,-3000.6,-112.5,-125.7,-198.9,-121.8,-234.6,-2074.8,-27.3,-72.6,-15.0,-9830.1,-9827.4,-1223.1,-4224.3,-6.9,-6.0,-38.1,39.6,-0.6,27.0,143.7,274.8,0,3108,33554432,26,0, 
1.7300,-120.9,-131.4,439.5,-114.3,-30.6,-201.3,-88.8,-234.9,-1556.1,-25.2,-72.9,-15.3,-9753.3,-8860.5,1892.7,-2674.5,-7.2,-6.3,-36.6,36.9,-0.6,23.4,151.2,287.7,0,3114,33554432,27,0, 
1.7333,-122.4,-141.3,2598.3,-112.8,-14.7,-198.9,-89.4,-233.7,-2297.1,-28.2,-72.0,-15.0,-9528.0,-7801.8,2385.6,-1385.4,-7.2,-6.3,-35.7,39.9,-0.9,25.5,160.5,307.2,0,3120,33554432,28,0, 
1.7367,-120.0,-132.0,416.1,-111.3,-115.8,-196.5,-100.5,-233.4,-3260.4,-19.5,-73.8,-15.3,-9830.1,-9317.1,-492.9,-2223.0,-7.2,-6.3,-32.1,34.2,-0.6,26.7,147.9,294.3,0,3126,33554432,29,0, 
1.7400,-123.6,-138.3,-3117.3,-109.8,-174.3,-197.4,-151.5,-230.1,-3186.3,-31.2,-87.0,-25.8,-9828.9,-9827.4,-2976.9,-4002.3,-6.3,-5.7,-45.9,23.4,-0.6,9.6,142.2,273.6,0,3132,33554432,30,0, 
1.7433,-123.0,-133.2,-3102.3,-116.4,-140.4,-208.2,-122.1,-230.4,-2148.9,-34.8,-90.6,-36.0,-9830.1,-9827.4,-1609.5,-4212.6,-6.9,-6.3,-45.9,13.5,-0.9,12.0,138.0,267.6,0,3138,33554432,31,0, 
1.7467,-114.6,-124.8,341.7,-107.7,-21.6,-200.7,-86.1,-225.9,-1556.1,-30.9,-78.9,-20.1,-9792.6,-8878.5,1533.9,-2694.6,-7.2,-6.0,-35.7,25.2,-0.9,12.3,156.0,290.4,0,3144,33554432,32,0, 
1.7500,-115.8,-131.1,2483.7,-103.5,-1.8,-192.3,-85.8,-225.0,-2371.2,-24.6,-70.2,-8.7,-9589.2,-7857.9,2019.3,-1527.0,-7.2,-6.0,-30.3,40.2,-0.6,26.1,162.0,309.0,0,3150,33554432,33,0, 
1.7533,-114.6,-129.0,369.6,-97.8,-114.0,-196.8,-102.9,-224.1,-3334.5,-14.7,-54.6,6.3,-9830.1,-9336.3,-852.0,-2307.0,-7.2,-6.0,-16.8,52.5,-0.6,32.4,153.9,296.1,0,3156,33554432,34,0, 
1.7567,-114.0,-127.8,-3157.8,-106.2,-200.4,-198.3,-128.1,-224.4,-3260.4,-20.4,-64.8,-9.9,-9824.4,-9827.1,-3291.6,-4155.9,-6.6,-6.0,-28.2,44.1,-0.6,20.7,146.1,281.1,0,3162,33554432,35,0, 
1.7600,-112.2,-126.9,-3180.6,-106.5,-138.6,-196.5,-120.9,-225.9,-2000.7,-15.9,-62.7,-11.4,-9830.1,-9827.4,-2007.6,-4357.5,-6.9,-5.7,-24.6,49.2,-0.6,33.0,148.5,282.0,0,3168,33554432,36,0, 
1.7633,-111.0,-126.6,323.1,-105.3,-27.0,-196.2,-95.7,-219.9,-1630.2,-15.3,-66.0,-13.5,-9830.1,-8940.3,1217.4,-2726.1,-6.6,-5.7,-28.8,53.4,-0.9,29.1,160.2,303.3,0,3174,33554432,37,0, 
1.7667,-110.1,-120.9,2462.4,-106.5,-34.5,-194.4,-85.5,-221.1,-2297.1,-16.5,-71.1,-22.8,-9830.1,-7925.4,1590.6,-1529.7,-7.2,-6.3,-31.5,38.7,-1.2,26.7,161.1,305.7,0,3180,33554432,38,0, 
1.7700,-109.2,-123.6,343.2,-107.1,-132.0,-192.0,-117.6,-221.4,-3260.4,-6.9,-77.4,-21.0,-9830.1,-9376.8,-1253.1,-2340.9,-6.9,-6.3,-31.8,39.0,-0.9,32.1,152.1,299.1,0,3186,33554432,39,0, 
1.7733,-108.0,-117.6,-3188.1,-107.4,-213.0,-198.6,-142.5,-224.1,-3112.2,-9.0,-77.4,-18.0,-9830.1,-9827.4,-3645.3,-4171.5,-7.2,-6.0,-29.4,32.4,-0.6,27.0,145.8,280.5,0,3192,33554432,40,0, 
1.7767,-110.7,-119.7,-3129.6,-107.4,-139.8,-198.0,-121.8,-223.5,-2148.9,-9.0,-77.4,-13.8,-9830.1,-9827.4,-2250.3,-4401.3,-6.6,-6.0,-31.5,41.4,-0.6,29.7,143.1,278.7,0,3198,33554432,41,0, 
1.7800,-111.6,-117.3,396.3,-105.3,-33.6,-192.3,-91.2,-214.8,-1556.1,-9.3,-72.9,-19.8,-9830.1,-8970.9,878.4,-2759.4,-6.9,-6.0,-25.8,32.7,-0.6,28.8,150.9,294.6,0,3204,33554432,42,0, 
1.7833,-110.1,-120.3,2502.6,-109.5,-44.4,-199.5,-81.0,-216.9,-2223.0,-9.0,-73.8,-21.9,-9830.1,-7946.1,1444.5,-1528.2,-7.2,-6.3,-30.6,37.5,-0.9,21.0,154.5,300.9,0,3210,33554432,43,0, 
1.7867,-109.8,-118.5,358.2,-101.1,-143.1,-190.8,-106.2,-209.4,-3334.5,-0.9,-64.2,-9.3,-9830.1,-9399.9,-1474.2,-2387.1,-6.6,-6.3,-22.2,40.2,-0.9,31.2,151.2,299.1,0,3216,33554432,44,0, 
1.7900,-108.9,-116.4,-3211.5,-104.4,-207.9,-191.1,-129.3,-207.6,-3186.3,-6.6,-63.0,-16.5,-9830.1,-9827.4,-3938.7,-4167.3,-6.3,-6.0,-23.1,35.7,-0.9,28.8,140.4,278.7,0,3222,33554432,45,0, 
1.7933,-109.2,-118.2,-3186.3,-105.9,-159.0,-189.9,-125.1,-208.2,-2074.8,-8.7,-67.2,-22.5,-9830.1,-9827.4,-2489.7,-4369.2,-7.2,-6.3,-22.5,33.9,-0.6,28.2,142.8,278.1,0,3228,33554432,46,0, 
1.7967,-108.6,-114.3,338.4,-107.4,-52.2,-192.6,-87.3,-204.6,-1556.1,-9.6,-76.5,-19.8,-9830.1,-8967.6,742.2,-2669.7,-6.9,-6.0,-29.7,36.9,-1.2,25.5,151.8,281.7,0,3234,33554432,47,0, 
1.8000,-109.5,-128.1,2551.5,-113.1,-40.8,-193.2,-92.7,-210.0,-2297.1,-13.2,-84.6,-27.0,-9830.1,-7840.5,1297.5,-1405.5,-7.2,-6.0,-38.4,25.2,-0.9,8.1,153.3,284.1,0,3240,33554432,48,0, 
1.8033,-117.3,-132.6,420.9,-115.8,-141.6,-199.2,-121.8,-212.7,-3408.6,-23.7,-84.0,-24.6,-9830.1,-9399.6,-1590.6,-2234.1,-6.9,-6.0,-44.1,23.4,-0.9,14.7,139.2,272.4,0,3246,33554432,49,0, 
1.8067,-117.9,-128.1,-3095.7,-116.1,-198.3,-192.9,-135.9,-213.9,-3112.2,-22.2,-84.0,-26.1,-9830.1,-9817.2,-3968.4,-3994.2,-7.2,-6.0,-40.8,26.7,-0.9,10.8,131.4,261.9,0,3252,33554432,50,0, 
1.8100,-112.2,-125.1,-3019.8,-120.6,-168.3,-195.0,-119.1,-213.9,-2000.7,-25.5,-84.3,-40.5,-9830.1,-9827.4,-2533.2,-4188.6,-6.9,-6.3,-38.7,15.3,-0.6,8.4,135.0,257.4,0,3258,33554432,51,0, 
1.8133,-115.2,-130.2,460.8,-127.2,-61.5,-197.1,-89.4,-220.2,-1556.1,-31.2,-96.9,-42.0,-9830.1,-8906.7,602.7,-2542.8,-6.9,-5.7,-53.4,22.2,-0.9,8.4,139.8,269.4,0,3264,33554432,52,0, 
1.8167,-119.4,-139.5,2581.5,-132.0,-62.4,-201.6,-88.5,-220.8,-2223.0,-34.5,-95.7,-47.4,-9830.1,-7864.8,1088.4,-1349.1,-6.9,-6.6,-55.2,12.3,-0.9,5.4,141.9,279.0,0,3270,33554432,53,0, 
1.8200,-124.2,-141.3,418.5,-139.5,-156.0,-200.4,-112.2,-219.9,-3334.5,-36.0,-96.0,-47.7,-9830.1,-9368.4,-1761.9,-2120.4,-6.9,-6.0,-57.0,11.1,-0.6,4.8,138.3,269.4,0,3276,33554432,54,0, 
1.8233,-125.7,-142.8,-3069.0,-134.4,-229.5,-199.5,-130.8,-221.7,-3260.4,-32.1,-94.8,-46.2,-9830.1,-9819.6,-4085.7,-3886.5,-6.6,-6.3,-53.4,11.7,-0.6,9.0,127.2,250.2,0,3282,33554432,55,0, 
1.8267,-121.8,-136.8,-3056.7,-129.6,-161.1,-210.6,-123.0,-217.2,-2223.0,-23.7,-101.1,-40.8,-9830.1,-9827.4,-2729.7,-4092.3,-6.6,-6.3,-53.1,21.3,-0.6,12.6,120.3,260.1,0,3288,33554432,56,0, 
1.8300,-117.6,-134.4,543.3,-131.4,-60.6,-208.2,-81.0,-223.2,-1407.9,-34.2,-101.1,-42.9,-9830.1,-8814.0,575.4,-2405.7,-6.9,-6.0,-51.3,19.5,-1.2,9.9,135.0,274.8,0,3294,33554432,57,0, 
1.8333,-118.8,-135.0,2784.0,-130.8,-58.8,-210.0,-78.9,-224.4,-2297.1,-27.6,-99.3,-39.0,-9830.1,-7740.6,1079.1,-1125.9,-6.9,-5.7,-55.8,19.5,-0.9,11.1,146.1,282.6,0,3300,33554432,58,0, 
1.8367,-113.7,-135.0,560.7,-130.2,-148.8,-206.4,-119.7,-226.2,-3334.5,-28.8,-93.9,-42.3,-9830.1,-9357.6,-1845.6,-1944.3,-6.9,-6.3,-50.1,13.8,-1.2,21.6,143.4,282.0,0,3306,33554432,59,0, 
1.8400,-118.8,-135.6,-2929.8,-131.7,-203.4,-204.3,-132.9,-226.2,-3186.3,-19.2,-98.1,-39.0,-9830.1,-9827.1,-4071.6,-3676.8,-6.9,-5.7,-52.5,20.1,-0.6,28.2,135.9,269.7,0,3312,33554432,60,0, 
1.8433,-116.4,-126.0,-2926.2,-123.9,-133.8,-197.7,-123.3,-228.3,-2074.8,-27.3,-87.3,-32.4,-9830.1,-9827.4,-2737.2,-3907.5,-6.9,-6.0,-41.1,27.0,-0.9,23.4,134.7,269.1,0,3318,33554432,61,0, 
1.8467,-115.8,-126.9,650.1,-123.9,-31.8,-199.5,-84.6,-227.1,-1556.1,-25.2,-91.5,-35.7,-9830.1,-8793.6,593.7,-2206.5,-6.6,-5.4,-46.2,26.4,-0.6,22.8,146.1,286.5,0,3324,33554432,62,0, 
1.8500,-114.9,-132.6,2849.1,-123.6,-34.5,-201.6,-76.8,-230.7,-2223.0,-24.6,-92.4,-38.7,-9719.4,-7655.7,1110.9,-1001.1,-6.9,-6.3,-48.6,24.3,-0.9,23.4,157.8,295.2,0,3330,33554432,63,0, 
1.8533,-111.6,-128.7,615.0,-111.9,-119.1,-193.5,-109.5,-223.2,-3334.5,-15.9,-81.0,-23.4,-9830.1,-9259.8,-1707.6,-1734.6,-6.9,-6.0,-41.1,36.9,-0.6,29.7,153.0,284.4,0,3336,33554432,64,0, 
1.8567,-107.7,-124.2,-2984.4,-116.4,-199.2,-199.5,-133.8,-223.2,-3260.4,-16.2,-85.5,-24.9,-9830.1,-9827.4,-4052.7,-3498.6,-6.9,-6.0,-40.8,30.0,-0.9,21.9,140.7,264.6,0,3342,33554432,65,0, 
1.8600,-109.2,-120.3,-2902.2,-110.4,-153.6,-199.2,-114.9,-217.8,-2000.7,-17.7,-80.1,-18.9,-9830.1,-9827.4,-2634.3,-3697.2,-6.6,-6.0,-36.3,40.5,-0.9,31.2,147.3,269.7,0,3348,33554432,66,0, 
1.8633,-110.7,-123.0,667.2,-120.0,-32.7,-194.7,-76.2,-223.5,-1704.3,-20.1,-84.6,-28.5,-9798.6,-8656.2,625.8,-2041.5,-7.2,-6.0,-42.9,34.2,-1.2,30.3,158.1,291.3,0,3354,33554432,67,0, 
1.8667,-114.0,-122.7,2841.3,-117.0,-19.8,-195.6,-75.6,-228.3,-2297.1,-20.4,-80.4,-26.1,-9642.3,-7619.7,1257.0,-712.8,-6.9,-5.7,-37.5,41.7,-0.9,31.2,159.6,297.9,0,3360,33554432,68,0, 
1.8700,-107.1,-118.8,573.0,-113.7,-132.0,-196.8,-104.1,-226.5,-3186.3,-4.5,-76.2,-16.2,-9830.1,-9218.4,-1731.6,-1680.0,-6.9,-6.0,-33.6,44.7,-0.6,39.6,159.3,286.2,0,3366,33554432,69,0, 
1.8733,-110.7,-119.7,-2950.5,-113.7,-204.6,-188.1,-124.2,-229.2,-3038.1,-6.9,-73.5,-16.8,-9830.1,-9827.4,-4062.6,-3393.0,-6.6,-5.7,-31.2,42.6,-0.9,37.2,148.2,262.2,0,3372,33554432,70,0, 
1.8767,-111.0,-121.5,-2881.2,-119.7,-150.6,-192.3,-109.2,-233.1,-2074.8,-17.1,-83.1,-27.6,-9830.1,-9827.4,-2538.0,-3554.4,-6.6,-5.7,-38.1,34.8,-0.6,30.3,150.3,265.2,0,3378,33554432,71,0, 
1.8800,-106.5,-114.6,662.4,-117.3,-26.1,-196.2,-83.7,-223.8,-1482.0,-14.1,-74.1,-23.7,-9817.8,-8689.5,711.9,-1897.5,-7.2,-6.0,-36.0,42.6,-0.6,30.6,162.3,285.0,0,3384,33554432,72,0, 
1.8833,-104.1,-124.2,2877.9,-115.8,-22.5,-192.6,-69.0,-218.4,-2223.0,-6.9,-73.8,-21.0,-9671.1,-7566.3,1184.7,-690.6,-6.9,-6.6,-31.8,39.0,-0.6,35.4,165.0,292.8,0,3390,33554432,73,0, 
1.8867,-108.9,-130.8,633.3,-117.9,-137.1,-194.1,-103.5,-219.0,-3334.5,-6.0,-79.8,-18.6,-9830.1,-9207.3,-1668.6,-1535.4,-6.9,-6.0,-33.3,40.8,-0.6,39.6,161.7,291.9,0,3396,33554432,74,0, 
1.8900,-115.2,-122.4,-2849.1,-118.8,-196.2,-194.1,-125.7,-218.4,-3112.2,-13.5,-84.3,-23.4,-9830.1,-9827.4,-3850.2,-3282.6,-6.9,-5.7,-37.8,35.7,-0.9,34.8,149.1,275.4,0,3402,33554432,75,0, 
1.8933,-114.9,-130.8,-2808.3,-123.0,-159.6,-197.1,-120.3,-221.7,-2074.8,-14.1,-87.6,-29.4,-9830.1,-9827.4,-2395.5,-3553.2,-6.9,-6.0,-41.1,28.5,-0.3,30.0,146.4,267.9,0,3408,33554432,76,0, 
1.8967,-110.7,-126.9,783.6,-114.9,-38.7,-195.9,-69.0,-214.2,-1556.1,-5.1,-81.3,-24.3,-9774.3,-8593.8,936.3,-1844.1,-6.6,-5.7,-30.9,36.3,-0.9,32.7,168.9,287.4,0,3414,33554432,77,0, 
1.9000,-107.1,-126.6,3015.9,-117.6,-13.8,-189.6,-72.0,-213.3,-2148.9,-9.6,-73.2,-19.5,-9586.8,-7564.8,1452.0,-570.6,-6.9,-6.0,-30.6,40.8,-0.9,39.0,168.3,294.6,0,3420,33554432,78,0, 
1.9033,-110.7,-124.5,712.5,-114.0,-126.6,-190.5,-103.2,-212.7,-3260.4,-4.5,-74.7,-17.7,-9830.1,-9244.8,-1608.9,-1496.7,-6.9,-5.7,-29.7,48.9,-0.9,36.3,168.6,286.8,0,3426,33554432,79,0, 
1.9067,-104.1,-111.6,-2457.9,-108.9,-140.4,-186.9,-113.7,-208.5,-3260.4,-5.7,-85.5,-16.5,-9825.9,-9827.4,-3382.5,-2859.9,-6.9,-6.6,-41.1,51.0,-0.9,33.3,156.0,275.4,0,3432,33554432,80,0, 
1.9100,-111.9,-123.3,-2492.1,-114.0,-118.2,-197.1,-103.8,-212.1,-2074.8,-5.1,-79.8,-24.3,-9830.1,-9827.4,-2029.5,-3275.1,-6.9,-5.7,-38.4,38.1,-0.9,35.4,151.5,269.1,0,3438,33554432,81,0, 
1.9133,-109.2,-124.8,1043.7,-114.0,-5.7,-194.7,-81.0,-210.3,-1704.3,-5.7,-78.9,-24.0,-9671.4,-8564.4,1124.7,-1588.5,-6.6,-6.6,-36.9,41.1,-0.6,27.9,159.9,291.6,0,3444,33554432,82,0, 
1.9167,-106.5,-125.4,3108.6,-104.4,-6.6,-192.9,-73.2,-210.3,-2371.2,-12.0,-69.9,-20.4,-9349.8,-7531.5,1542.3,-406.8,-6.9,-6.0,-29.1,44.1,-0.6,33.9,163.2,301.5,0,3450,33554432,83,0, 
1.9200,-106.5,-116.7,716.1,-101.1,-117.0,-194.4,-99.3,-207.3,-3334.5,-2.7,-68.7,-19.5,-9830.1,-9177.9,-1534.2,-1292.4,-6.9,-6.0,-28.2,45.3,-0.9,33.3,157.5,292.2,0,3456,33554432,84,0, 
1.9233,-105.9,-116.7,-2803.2,-96.3,-172.8,-183.0,-116.4,-204.0,-3112.2,-9.3,-71.7,-13.2,-9817.5,-9827.4,-3798.9,-3022.8,-7.2,-6.0,-26.1,54.9,-0.9,34.8,149.7,277.5,0,3462,33554432,85,0, 
1.9267,-107.7,-117.3,-2792.7,-96.0,-104.4,-185.4,-101.7,-207.9,-2148.9,-3.6,-70.8,-12.9,-9830.1,-9827.4,-2375.4,-3276.0,-6.9,-6.3,-20.1,52.5,-0.9,29.7,147.9,273.9,0,3468,33554432,86,0, 
1.9300,-103.8,-117.9,856.8,-92.4,-6.0,-190.5,-64.5,-207.0,-1630.2,1.5,-66.3,-5.7,-9738.3,-8637.0,899.1,-1569.9,-7.2,-6.0,-17.7,69.6,-0.9,35.1,158.1,295.2,0,3474,33554432,87,0, 
1.9333,-100.2,-116.7,2959.2,-85.8,-5.4,-183.9,-60.6,-198.9,-2371.2,-1.8,-64.2,-5.4,-9518.1,-7571.4,1396.8,-357.9,-6.9,-6.0,-20.1,65.1,-0.9,39.6,167.4,309.9,0,3480,33554432,88,0, 
1.9367,-100.2,-114.3,708.9,-80.7,-106.8,-184.5,-83.1,-193.5,-3260.4,6.9,-53.4,4.8,-9830.1,-9172.2,-1419.3,-1252.8,-7.2,-6.0,-12.3,66.9,-1.2,48.3,153.0,297.6,0,3486,33554432,89,0, 
1.9400,-99.9,-117.9,-2830.8,-85.8,-181.5,-186.9,-115.8,-197.7,-3112.2,-3.0,-63.3,-0.6,-9823.8,-9827.4,-3819.3,-3068.4,-6.9,-5.7,-21.3,62.1,-0.6,30.9,141.9,275.7,0,3492,33554432,90,0, 
1.9433,-105.3,-129.0,-2782.8,-95.4,-120.9,-189.0,-103.5,-209.1,-2000.7,-8.1,-72.6,-8.7,-9830.1,-9827.4,-2333.1,-3264.6,-6.9,-6.0,-28.8,60.0,-0.6,28.2,144.6,274.2,0,3498,33554432,91,0, 
1.9467,-108.6,-128.1,788.1,-94.2,-14.4,-195.3,-76.5,-214.8,-1556.1,-10.2,-66.9,-12.9,-9727.2,-8669.1,1011.3,-1574.1,-6.9,-6.3,-24.3,57.0,-0.9,28.8,151.2,281.1,0,3504,33554432,92,0, 
1.9500,-104.7,-126.6,2943.0,-91.5,-9.0,-189.3,-61.8,-213.3,-2371.2,-5.7,-59.7,-7.5,-9488.1,-7541.4,1607.4,-278.4,-7.2,-6.6,-20.7,62.1,-0.9,40.8,164.1,299.1,0,3510,33554432,93,0, 
1.9533,-109.2,-128.4,625.8,-92.4,-115.5,-189.0,-96.6,-213.0,-3334.5,-7.2,-62.7,-12.0,-9830.1,-9192.9,-1329.6,-1230.6,-6.9,-5.4,-22.5,51.6,-0.6,42.9,158.4,291.6,0,3516,33554432,94,0, 
1.9567,-112.2,-132.6,-2953.2,-98.1,-202.5,-194.1,-123.9,-219.9,-3112.2,-6.9,-75.0,-14.1,-9825.6,-9827.4,-3648.9,-3048.0,-6.9,-5.7,-28.2,47.7,-0.9,29.7,143.1,267.9,0,3522,33554432,95,0, 
1.9600,-113.7,-129.6,-2916.9,-97.2,-143.4,-192.6,-115.5,-214.5,-2074.8,-8.7,-73.5,-13.2,-9830.1,-9827.4,-2198.7,-3213.3,-6.9,-6.0,-25.8,51.9,-0.3,37.8,147.6,275.4,0,3528,33554432,96,0, 
1.9633,-114.0,-124.2,683.7,-99.6,-35.7,-199.2,-78.0,-217.5,-1556.1,-18.9,-73.5,-10.8,-9786.3,-8675.7,1092.3,-1595.4,-6.9,-6.3,-27.0,56.7,-1.2,31.2,156.9,293.7,0,3534,33554432,97,0, 
1.9667,-110.4,-126.9,2869.2,-97.2,-30.0,-193.8,-61.5,-208.5,-2148.9,-14.4,-73.8,-13.2,-9576.0,-7606.8,1613.1,-309.3,-6.6,-6.0,-25.8,57.6,-0.6,33.3,166.8,311.1,0,3540,33554432,98,0, 
1.9700,-109.8,-127.2,603.9,-94.5,-121.2,-190.8,-88.5,-204.6,-3260.4,-6.9,-69.0,-14.1,-9830.1,-9218.4,-1260.9,-1185.3,-7.2,-6.0,-24.6,69.9,-0.3,35.7,161.4,301.5,0,3546,33554432,99,0, 
1.9733,-107.4,-120.3,-2942.7,-93.9,-210.9,-187.2,-106.2,-199.5,-3112.2,-1.5,-68.7,-13.8,-9826.8,-9827.4,-3581.7,-2964.6,-6.6,-6.3,-27.9,63.6,-0.9,36.6,150.3,289.2,0,3552,33554432,100,0, 
1.9767,-107.4,-113.7,-2904.9,-92.1,-145.2,-184.2,-104.1,-197.1,-2148.9,-10.5,-64.5,-7.2,-9830.1,-9827.4,-2084.1,-3190.8,-7.2,-6.0,-20.7,68.7,-0.6,34.8,156.6,288.0,0,3558,33554432,101,0, 
1.9800,-108.3,-117.6,726.0,-94.5,-25.8,-189.9,-76.5,-202.8,-1482.0,-4.2,-60.0,-6.9,-9783.0,-8679.9,1236.3,-1520.7,-7.2,-5.7,-19.2,69.3,-0.9,37.8,173.1,312.6,0,3564,33554432,102,0, 
1.9833,-99.3,-113.1,2826.3,-89.1,-14.4,-184.5,-63.3,-198.9,-2297.1,-3.3,-55.5,-5.4,-9615.9,-7693.8,1707.0,-348.9,-6.6,-6.0,-14.1,72.9,-1.2,49.5,173.4,318.9,0,3570,33554432,103,0, 
1.9867,-108.0,-116.7,545.1,-95.1,-111.9,-187.5,-94.2,-201.3,-3260.4,-12.9,-69.0,-9.0,-9830.1,-9255.3,-1203.9,-1221.9,-6.6,-6.0,-22.8,63.6,-0.6,47.4,162.3,305.7,0,3576,33554432,104,0, 
1.9900,-102.9,-111.0,-2991.3,-100.2,-200.7,-192.3,-118.8,-201.9,-3186.3,-10.5,-75.0,-9.3,-9828.0,-9827.4,-3555.0,-2979.9,-7.2,-5.7,-28.8,60.0,-0.6,39.0,150.3,277.2,0,3582,33554432,105,0, 
1.9933,-101.7,-112.2,-2982.9,-99.6,-130.5,-189.9,-99.9,-199.8,-1926.6,-12.3,-69.9,-8.7,-9830.1,-9827.4,-2074.8,-3195.0,-6.9,-5.7,-23.7,65.7,-0.9,41.7,159.9,281.4,0,3588,33554432,106,0, 
1.9967,-96.6,-98.1,604.5,-87.3,-12.6,-182.7,-71.1,-190.8,-1556.1,2.7,-56.1,-4.5,-9763.2,-8799.0,1231.8,-1560.0,-6.9,-6.0,-13.8,77.7,-0.9,51.0,173.1,289.2,0,3594,33554432,107,0, 
2.0000,-102.0,-101.4,2796.9,-85.2,-4.2,-187.2,-59.4,-193.5,-2223.0,-2.7,-62.1,-4.5,-9608.7,-7674.0,1891.2,-269.1,-6.9,-6.0,-18.6,74.1,-0.9,39.9,177.6,302.4,0,3600,33554432,108,0, 
2.0033,-99.6,-101.4,496.8,-84.9,-130.8,-184.5,-84.3,-191.4,-3408.6,0.0,-61.8,-5.1,-9830.1,-9291.3,-1138.5,-1199.4,-6.9,-6.0,-18.9,69.9,-0.9,41.7,165.9,290.1,0,3606,33554432,109,0, 
2.0067,-101.1,-100.5,-3012.6,-87.6,-197.4,-190.8,-105.0,-190.5,-3260.4,-6.6,-66.6,-12.9,-9830.1,-9827.4,-3457.2,-2990.1,-6.9,-6.0,-21.6,65.7,-0.9,38.4,152.4,273.0,0,3612,33554432,110,0, 
2.0100,-99.9,-102.9,-2953.8,-87.6,-140.4,-190.2,-99.0,-189.9,-2000.7,-5.7,-68.4,-12.6,-9830.1,-9827.4,-2029.2,-3232.5,-6.9,-6.0,-21.3,61.2,-0.9,35.1,156.9,267.6,0,3618,33554432,111,0, 
2.0133,-98.4,-99.6,630.6,-84.9,-28.2,-187.8,-57.3,-194.4,-1556.1,-7.8,-53.1,-12.9,-9789.3,-8702.7,1221.6,-1571.7,-6.9,-6.6,-12.6,63.9,-0.9,37.2,165.3,291.9,0,3624,33554432,112,0, 
2.0167,-95.4,-100.5,2862.0,-81.9,-6.6,-189.9,-58.2,-188.4,-2297.1,2.4,-48.6,-3.6,-9579.6,-7606.5,1871.1,-285.3,-6.9,-6.0,-6.3,68.4,-0.3,40.5,177.3,294.9,0,3630,33554432,113,0, 
2.0200,-94.5,-104.4,562.8,-81.9,-114.0,-187.8,-80.7,-187.2,-3334.5,-6.6,-66.0,-0.6,-9830.1,-9274.5,-1100.7,-1221.9,-6.9,-6.0,-18.3,70.8,-0.6,35.7,167.4,283.5,0,3636,33554432,114,0, 
2.0233,-98.7,-104.1,-3024.3,-89.7,-196.5,-194.7,-108.9,-191.7,-3112.2,-9.9,-65.7,-8.7,-9830.1,-9827.4,-3419.1,-3008.7,-6.9,-6.3,-15.3,61.5,-0.6,30.6,151.2,253.5,0,3642,33554432,115,0, 
2.0267,-104.1,-108.0,-2912.1,-96.9,-143.4,-193.5,-96.3,-195.9,-2074.8,-21.3,-72.9,-20.7,-9830.1,-9827.4,-1915.5,-3148.2,-6.9,-6.3,-20.4,51.6,-0.6,21.3,151.2,255.3,0,3648,33554432,116,0, 
2.0300,-105.3,-111.9,667.8,-101.1,-33.0,-203.7,-61.2,-197.4,-1556.1,-15.3,-75.9,-22.8,-9771.0,-8786.4,1330.5,-1523.4,-6.9,-6.3,-28.8,55.5,-0.3,26.1,158.7,275.4,0,3654,33554432,117,0, 
2.0333,-101.1,-111.0,2841.6,-97.5,-28.5,-202.8,-64.2,-195.3,-2297.1,-11.7,-69.0,-15.9,-9531.3,-7689.6,1843.8,-303.3,-7.2,-6.0,-24.0,55.8,-0.9,25.5,165.0,285.6,0,3660,33554432,118,0, 
2.0367,-101.1,-113.4,543.3,-93.0,-126.6,-201.6,-89.7,-192.0,-3260.4,-8.1,-69.6,-14.4,-9830.1,-9310.2,-1083.3,-1234.5,-6.9,-6.0,-24.9,61.8,-0.6,23.1,159.3,278.4,0,3666,33554432,119,0, 
2.0400,-101.4,-114.6,-3014.7,-102.0,-196.8,-204.6,-113.4,-195.3,-3038.1,-14.7,-76.8,-18.9,-9825.0,-9820.8,-3378.6,-2961.0,-6.6,-6.0,-30.3,48.0,-0.6,20.7,156.3,264.6,0,3672,33554432,120,0, 
2.0433,-99.6,-108.9,-2960.4,-101.1,-132.3,-199.5,-89.4,-196.5,-2074.8,-17.4,-78.9,-12.6,-9830.1,-9827.4,-1861.5,-3195.9,-6.9,-6.3,-35.4,55.8,-0.6,19.5,159.6,270.0,0,3678,33554432,121,0, 
2.0467,-97.8,-105.3,585.6,-99.3,-34.2,-198.3,-65.7,-200.7,-1556.1,-19.5,-70.8,-16.8,-9746.4,-8757.9,1350.6,-1548.3,-6.6,-6.0,-28.8,52.5,-0.3,22.8,163.5,289.2,0,3684,33554432,122,0, 
2.0500,-106.5,-115.2,2705.7,-107.7,-25.8,-204.6,-68.1,-208.2,-2297.1,-23.7,-86.4,-29.7,-9514.8,-7702.2,1918.5,-339.9,-7.2,-5.7,-39.3,45.0,-1.2,23.1,168.0,285.0,0,3690,33554432,123,0, 
2.0533,-102.6,-114.9,553.5,-110.1,-126.6,-202.8,-86.1,-203.4,-3334.5,-17.7,-88.8,-35.7,-9830.1,-9299.4,-949.2,-1201.5,-6.9,-6.3,-35.4,41.7,-0.9,16.2,159.9,280.2,0,3696,33554432,124,0, 
2.0567,-101.4,-120.0,-3035.1,-109.8,-193.8,-198.6,-103.2,-201.3,-3186.3,-21.0,-88.5,-33.9,-9828.9,-9827.4,-3286.2,-3063.0,-7.2,-6.0,-35.7,42.0,-0.9,20.1,155.7,261.0,0,3702,33554432,125,0, 
2.0600,-102.9,-117.3,-2922.3,-108.0,-139.2,-196.2,-85.5,-201.3,-2148.9,-15.0,-80.4,-18.0,-9830.1,-9827.4,-1863.3,-3198.6,-6.9,-6.3,-32.4,57.3,-1.2,30.9,157.5,268.8,0,3708,33554432,126,0, 
2.0633,-106.5,-123.9,591.0,-114.9,-36.0,-196.2,-57.3,-207.3,-1482.0,-29.7,-90.3,-29.4,-9765.6,-8815.8,1351.8,-1633.8,-7.2,-6.0,-42.3,45.9,-0.6,22.8,172.5,284.7,0,3714,0,127,0, 
2.0667,-105.6,-121.8,2738.1,-105.6,-21.9,-190.2,-42.6,-207.0,-2297.1,-15.9,-76.2,-13.8,-9474.6,-7745.4,1876.8,-360.9,-6.9,-5.7,-31.8,67.8,-0.9,38.1,178.2,306.3,0,3720,0,128,0, 
2.0700,-98.7,-117.3,520.5,-96.9,-100.5,-185.4,-74.7,-207.9,-3334.5,-5.4,-67.8,-2.4,-9830.1,-9303.6,-1000.2,-1199.1,-7.2,-5.7,-26.4,73.8,-0.9,47.1,164.4,298.8,0,3726,0,129,0, 
2.0733,-99.3,-114.3,-2990.1,-99.3,-194.4,-185.4,-92.7,-200.1,-3112.2,-6.3,-57.9,-6.9,-9828.9,-9827.4,-3346.8,-2969.1,-6.9,-6.0,-19.2,73.5,-0.6,45.3,155.1,279.0,0,3732,33554432,130,0, 
2.0767,-100.5,-114.9,-2959.5,-99.3,-137.7,-186.6,-76.8,-195.9,-2074.8,-4.8,-66.3,-9.9,-9830.1,-9827.4,-1862.1,-3174.6,-6.9,-5.7,-21.3,66.0,-0.9,45.0,156.3,285.9,0,3738,33554432,131,0, 
2.0800,-99.9,-111.0,613.5,-95.4,-30.6,-194.4,-40.8,-195.3,-1556.1,0.9,-69.0,-3.6,-9765.3,-8841.3,1297.2,-1579.5,-6.9,-5.7,-20.7,70.2,-0.6,44.7,164.7,302.7,0,3744,33554432,132,0, 
2.0833,-100.5,-110.7,2687.1,-90.9,-13.8,-185.1,-40.2,-198.6,-2297.1,10.2,-59.1,2.7,-9554.7,-7822.5,1895.4,-387.9,-6.3,-6.0,-14.4,73.8,-0.9,45.3,175.8,311.1,0,3750,33554432,133,0, 
2.0867,-98.7,-113.1,507.3,-92.1,-121.8,-190.8,-64.5,-199.5,-3112.2,9.6,-52.5,-3.0,-9830.1,-9349.8,-1019.7,-1290.0,-6.9,-6.0,-9.9,71.4,-0.6,54.3,167.7,302.4,0,3756,33554432,134,0, 
2.0900,-101.1,-111.3,-2965.5,-94.8,-193.8,-185.4,-87.9,-204.0,-3038.1,1.5,-66.0,-9.3,-9830.1,-9827.4,-3239.1,-2995.5,-6.9,-6.3,-20.4,59.7,-0.6,44.1,156.9,283.5,0,3762,33554432,135,0, 
2.0933,-100.5,-102.9,-2909.7,-94.2,-130.2,-189.6,-87.6,-204.3,-2148.9,2.7,-61.2,-3.9,-9830.1,-9827.4,-1864.2,-3249.3,-7.2,-6.3,-12.3,71.1,-1.2,50.7,164.1,282.9,0,3768,33554432,136,0, 
2.0967,-99.9,-113.4,599.7,-95.7,-26.1,-190.2,-45.0,-202.5,-1556.1,0.6,-62.1,-0.9,-9801.3,-8867.4,1291.5,-1669.8,-6.6,-6.0,-18.3,72.3,-0.9,47.1,175.8,299.1,0,3774,33554432,137,0, 
2.1000,-100.2,-113.1,2736.9,-94.2,-4.8,-192.6,-39.9,-199.2,-2297.1,6.3,-54.9,3.9,-9608.1,-7771.2,1815.6,-401.1,-6.6,-5.7,-10.8,78.0,-0.9,48.0,175.2,309.0,0,3780,33554432,138,0, 
2.1033,-101.1,-111.9,503.7,-93.0,-109.8,-191.4,-76.2,-197.1,-3186.3,5.1,-57.6,3.6,-9830.1,-9315.9,-1034.1,-1292.4,-6.6,-6.3,-14.4,70.8,-0.6,54.9,164.1,296.7,0,3786,33554432,139,0, 
2.1067,-96.6,-101.1,-2986.2,-88.8,-172.8,-191.4,-88.8,-191.4,-3334.5,4.8,-51.9,0.6,-9830.1,-9827.4,-3335.1,-3002.4,-6.9,-6.0,-9.0,71.1,-0.3,57.3,160.2,273.3,0,3792,33554432,140,0, 
2.1100,-98.4,-109.8,-2873.4,-94.8,-116.4,-192.0,-72.0,-196.5,-2000.7,2.1,-61.8,-7.2,-9830.1,-9827.4,-1902.9,-3259.2,-6.6,-5.4,-16.5,68.1,-0.6,50.1,165.9,280.8,0,3798,33554432,141,0, 
2.1133,-97.2,-103.5,586.5,-93.6,-24.3,-195.3,-47.4,-192.3,-1556.1,2.4,-63.9,-3.6,-9793.2,-8868.6,1351.2,-1639.5,-6.6,-6.0,-13.8,63.9,-0.6,39.0,168.9,290.4,0,3804,33554432,142,0, 
2.1167,-96.0,-103.8,2691.3,-86.4,-5.4,-187.8,-46.2,-186.0,-2297.1,-3.0,-58.5,-3.0,-9591.0,-7840.2,1838.1,-457.8,-7.2,-6.0,-13.8,65.1,-0.6,37.8,171.6,301.5,0,3810,33554432,143,0, 
2.1200,-92.4,-100.8,480.9,-84.3,-116.7,-189.6,-63.3,-183.9,-3408.6,1.2,-60.0,-5.4,-9830.1,-9376.8,-997.8,-1327.2,-6.9,-6.0,-13.8,63.9,-0.6,37.5,159.3,289.8,0,3816,33554432,144,0, 
2.1233,-92.1,-106.2,-2963.1,-83.1,-175.2,-190.2,-81.9,-184.5,-3112.2,7.8,-56.4,1.2,-9830.1,-9827.4,-3310.2,-3117.6,-6.9,-6.3,-9.3,54.9,-0.9,39.9,152.1,276.6,0,3822,33554432,145,0, 
2.1267,-101.1,-106.5,-2893.5,-91.5,-137.7,-200.1,-81.0,-193.2,-2000.7,-4.5,-66.9,-6.6,-9830.1,-9827.4,-1896.3,-3370.5,-6.9,-6.0,-20.4,54.6,-0.9,29.1,144.6,262.8,0,3828,33554432,146,0, 
2.1300,-105.3,-112.5,613.8,-102.3,-43.2,-202.8,-49.2,-201.3,-1704.3,-16.8,-73.5,-24.3,-9811.8,-8969.7,1299.3,-1707.9,-6.9,-6.3,-29.7,42.9,-0.3,24.0,149.7,266.1,0,3834,33554432,147,0, 
2.1333,-99.0,-107.1,2690.7,-95.7,-12.0,-205.5,-54.6,-200.4,-2297.1,-11.1,-75.0,-20.4,-9616.5,-7946.1,1856.1,-554.4,-6.6,-6.0,-26.1,50.1,-0.9,20.7,153.0,281.7,0,3840,33554432,148,0, 
2.1367,-105.0,-113.7,514.5,-96.3,-116.7,-200.1,-83.7,-199.8,-3334.5,-12.9,-71.1,-13.5,-9830.1,-9422.4,-1010.1,-1350.9,-6.9,-6.3,-27.3,50.1,-0.6,26.4,148.8,272.1,0,3846,33554432,149,0, 
2.1400,-104.1,-110.7,-2979.6,-96.9,-199.8,-206.1,-98.4,-198.0,-3186.3,-17.1,-67.5,-14.1,-9829.2,-9827.1,-3369.3,-3139.8,-7.2,-5.7,-27.9,48.6,-0.6,30.0,143.4,259.8,0,3852,33554432,150,0, 
2.1433,-106.5,-115.8,-2997.9,-102.3,-152.7,-204.6,-83.1,-196.8,-2223.0,-20.1,-83.7,-25.2,-9830.1,-9827.4,-1974.0,-3384.6,-6.9,-6.0,-38.7,43.5,-0.6,15.6,145.5,263.7,0,3858,33554432,151,0, 
2.1467,-102.3,-111.9,597.0,-100.2,-23.4,-203.4,-58.2,-198.9,-1482.0,-23.1,-83.4,-28.5,-9830.1,-9018.9,1258.2,-1760.4,-7.2,-6.0,-36.0,38.4,-0.9,22.8,159.6,270.9,0,3864,33554432,152,0, 
2.1500,-108.0,-122.7,2709.3,-102.9,-30.3,-205.2,-58.5,-201.0,-2223.0,-22.5,-79.5,-23.4,-9811.8,-8035.8,1813.5,-602.7,-6.9,-6.0,-34.5,41.1,-1.2,22.8,167.1,279.0,0,3870,33554432,153,0, 
2.1533,-101.4,-122.4,515.1,-95.4,-129.9,-198.0,-75.9,-197.1,-3260.4,-20.7,-74.1,-10.8,-9830.1,-9438.6,-1087.2,-1455.9,-6.9,-5.7,-30.9,46.5,-0.9,21.6,156.0,271.5,0,3876,33554432,154,0, 
2.1567,-102.9,-115.2,-3002.1,-95.7,-189.9,-196.8,-90.0,-198.3,-3112.2,-19.8,-73.5,-15.3,-9830.1,-9827.4,-3400.2,-3176.7,-6.9,-6.0,-29.7,44.7,-0.9,26.4,148.8,256.8,0,3882,33554432,155,0, 
2.1600,-104.4,-120.6,-2958.3,-101.1,-143.4,-203.1,-90.9,-199.2,-2000.7,-24.0,-80.4,-28.2,-9830.1,-9827.4,-2045.4,-3421.8,-6.9,-6.0,-33.6,32.7,-1.2,18.9,144.6,252.9,0,3888,33554432,156,0, 
2.1633,-105.0,-119.7,583.2,-95.4,-20.7,-200.4,-61.5,-195.9,-1630.2,-24.3,-71.1,-20.1,-9830.1,-9088.8,1096.8,-1801.8,-6.9,-6.0,-24.9,34.8,-0.6,24.3,153.3,272.1,0,3894,33554432,157,0, 
2.1667,-100.5,-124.8,2733.6,-93.9,-12.6,-196.8,-55.5,-191.7,-2297.1,-22.2,-66.3,-14.7,-9830.1,-8067.0,1620.9,-571.8,-6.9,-5.7,-22.5,44.4,-0.6,27.6,171.3,284.7,0,3900,33554432,158,0, 
