Time,P3,C3,F3,Fz,F4,C4,P4,Cz,CM,A1,Fp1,Fp2,T3,T5,O1,O2,X3,X2,F7,F8,X1,A2,T6,T4,Trigger,Time_Offset,ADC_Status,ADC_Sequence,Event,Comments
0.0033,-261.6,333.3,-306.3,298.2,-444.9,-74.7,-396.3,-540.0,-3334.5,214.5,1094.7,310.8,-1366.8,-3093.9,4500.9,105.9,-6.9,-6.0,39.0,345.3,-0.3,259.2,-595.5,-525.3,0,6,0,66,0, 
0.0067,-261.9,313.5,-323.4,282.6,-460.5,-56.4,-393.0,-533.1,16820.7,180.3,1070.4,296.4,-1372.5,-2968.2,4683.0,114.0,-6.6,-5.7,21.6,345.0,-0.9,235.2,-315.0,-484.8,0,12,0,67,0, 
0.0100,-259.5,311.4,-325.8,279.3,-467.4,-49.2,-400.8,-531.3,32455.8,192.0,1072.2,290.4,-1373.1,-2907.6,7349.1,111.3,-6.9,-6.0,22.2,331.5,-0.3,238.2,-189.9,-471.0,0,18,0,68,0, 
0.0133,-260.4,320.7,-311.1,291.6,-460.2,-63.3,-398.7,-539.4,22081.8,210.3,1087.2,302.1,-1383.0,-3020.1,8858.4,102.0,-7.2,-5.4,36.6,337.2,-1.2,252.9,-411.9,-501.3,0,24,0,69,0, 
0.0167,-258.6,332.7,-303.0,300.6,-446.7,-85.8,-396.9,-541.8,296.4,212.7,1098.3,316.2,-1374.3,-3120.9,7176.9,100.8,-6.9,-5.7,43.2,349.2,-0.6,265.5,-651.6,-529.2,0,30,0,70,0, 
0.0200,-256.2,332.1,-301.5,303.9,-444.9,-79.8,-401.7,-537.9,-3038.1,210.9,1093.8,316.8,-1357.2,-3085.5,4661.1,99.0,-6.9,-5.7,49.2,350.7,-0.6,270.0,-592.2,-531.3,0,36,0,71,0, 
0.0233,-261.0,313.2,-321.3,285.9,-463.2,-48.6,-403.2,-536.7,17043.0,195.6,1076.7,296.1,-1374.0,-2955.3,4832.1,102.9,-6.9,-5.4,34.5,333.6,-0.6,244.5,-302.4,-479.4,0,42,0,72,0, 
0.0267,-262.2,304.2,-321.3,282.9,-470.1,-52.5,-411.3,-537.9,32752.2,185.1,1077.0,295.5,-1381.8,-2913.3,7489.5,106.5,-7.2,-5.4,31.5,334.8,-0.3,250.5,-205.8,-475.8,0,48,0,73,0, 
0.0300,-261.3,313.2,-313.2,289.8,-458.7,-54.6,-404.7,-541.2,22304.1,204.0,1087.5,306.0,-1380.9,-3004.5,9015.0,99.6,-7.2,-5.7,37.2,331.2,-0.9,249.3,-414.0,-482.7,0,54,0,74,0, 
0.0333,-261.3,333.3,-296.1,306.0,-438.6,-88.2,-410.1,-543.3,444.6,217.2,1102.5,321.0,-1364.4,-3108.9,7324.8,94.8,-6.6,-5.4,51.6,354.3,-0.6,258.6,-662.7,-548.1,0,60,0,75,0, 
0.0367,-260.7,330.9,-299.4,305.4,-444.3,-74.7,-406.5,-541.8,-2964.0,212.1,1097.4,317.1,-1353.0,-3064.5,4808.1,106.2,-6.9,-6.0,44.1,349.2,-0.9,258.6,-583.8,-517.2,0,66,0,76,0, 
0.0400,-260.7,315.9,-318.9,294.0,-460.5,-59.1,-406.5,-537.0,17191.2,182.4,1083.9,303.0,-1356.0,-2934.9,4955.4,112.8,-6.9,-5.4,33.3,337.8,-0.9,252.3,-285.9,-484.5,0,72,0,77,0, 
0.0433,-259.2,308.7,-321.0,282.6,-467.1,-33.6,-405.3,-533.1,32900.4,186.9,1074.3,293.1,-1366.5,-2892.6,7603.5,106.8,-6.9,-5.7,27.6,331.5,-0.3,245.1,-184.2,-463.5,0,78,0,78,0, 
0.0467,-260.4,317.7,-312.0,294.0,-456.0,-61.5,-411.0,-543.9,22600.5,205.5,1089.0,306.3,-1362.6,-2992.8,9110.4,104.1,-7.2,-5.4,37.5,342.6,-0.9,253.2,-421.5,-493.5,0,84,0,79,0, 
0.0500,-259.8,333.0,-299.1,305.7,-443.4,-90.0,-406.5,-550.2,592.8,214.5,1101.6,322.8,-1341.0,-3088.5,7419.0,93.0,-7.2,-5.7,45.3,354.9,-0.3,270.6,-660.9,-531.0,0,90,0,80,0, 
0.0533,-260.4,333.9,-297.9,306.3,-441.0,-63.0,-399.9,-539.1,-2593.5,220.2,1104.6,319.2,-1328.7,-3058.5,4901.4,93.6,-6.9,-5.4,44.7,351.9,-0.6,265.2,-596.1,-514.2,0,96,0,81,0, 
0.0567,-263.7,317.7,-316.2,289.2,-460.5,-57.3,-404.7,-538.2,17487.6,205.8,1087.5,304.2,-1351.2,-2930.1,5087.7,99.9,-7.5,-5.1,33.0,347.1,-0.6,253.5,-314.1,-478.5,0,102,0,82,0, 
0.0600,-265.2,308.4,-324.0,283.2,-463.8,-35.7,-404.4,-534.9,33270.9,197.7,1081.8,300.9,-1350.0,-2877.9,7744.8,105.3,-6.9,-5.7,20.4,348.9,-1.2,243.9,-194.7,-454.5,0,108,0,83,0, 
0.0633,-261.9,324.3,-307.8,291.6,-456.3,-65.7,-403.8,-542.4,22600.5,206.4,1092.9,310.5,-1368.3,-2973.6,9231.9,100.2,-6.6,-5.7,31.5,342.3,-0.6,263.4,-416.7,-489.3,0,114,0,84,0, 
0.0667,-257.7,337.8,-292.8,306.3,-429.6,-76.5,-400.5,-540.3,444.6,229.8,1107.0,324.6,-1355.4,-3071.1,7513.8,104.1,-6.9,-6.0,47.1,364.8,-0.6,276.0,-665.7,-516.6,0,120,0,85,0, 
0.0700,-255.9,339.6,-289.5,305.4,-438.9,-74.7,-401.1,-537.9,-2445.3,221.1,1104.6,321.6,-1329.0,-3032.4,4992.9,104.7,-7.5,-6.3,47.1,352.2,-0.9,266.7,-603.6,-515.7,0,126,0,86,0, 
0.0733,-257.4,325.8,-306.3,294.3,-459.9,-51.6,-395.4,-531.0,17858.1,200.4,1091.4,306.9,-1340.7,-2900.7,5185.5,113.1,-7.2,-5.4,33.3,344.4,-0.6,259.8,-307.8,-463.2,0,132,0,87,0, 
0.0767,-258.0,318.0,-312.6,288.6,-463.5,-31.8,-395.4,-529.2,33196.8,201.6,1087.8,300.3,-1355.1,-2849.1,7823.7,117.9,-7.2,-6.0,33.9,339.9,-0.3,248.7,-185.4,-452.4,0,138,0,88,0, 
0.0800,-258.0,328.5,-304.2,297.0,-451.8,-59.1,-401.7,-535.8,22674.6,203.7,1101.0,315.3,-1364.1,-2954.7,9289.5,108.0,-6.9,-5.7,43.8,349.8,-0.3,261.9,-417.6,-496.2,0,144,0,89,0, 
0.0833,-258.6,338.7,-294.6,308.1,-438.3,-72.3,-399.9,-541.2,592.8,219.6,1111.5,325.2,-1344.6,-3055.8,7555.8,99.9,-6.9,-5.7,55.2,360.3,-0.9,275.4,-671.1,-530.1,0,150,0,90,0, 
0.0867,-259.2,336.0,-300.6,299.1,-446.7,-68.4,-398.1,-541.8,-2000.7,208.5,1101.3,315.0,-1333.2,-3037.8,5062.2,100.5,-7.5,-5.7,47.4,348.3,-0.6,256.5,-611.4,-524.1,0,156,0,91,0, 
0.0900,-258.3,322.2,-315.3,281.7,-469.2,-53.7,-400.5,-535.5,18154.5,194.1,1079.4,292.5,-1346.7,-2901.9,5274.0,114.6,-7.2,-6.0,30.6,322.8,-0.9,241.5,-318.3,-487.5,0,162,0,92,0, 
0.0933,-264.3,309.3,-323.1,276.6,-468.3,-42.6,-403.5,-534.0,33641.4,190.2,1080.0,293.1,-1345.8,-2857.5,7939.8,111.0,-7.2,-5.4,22.8,334.2,-0.9,237.9,-203.4,-468.6,0,168,0,93,0, 
0.0967,-260.1,320.1,-313.8,286.5,-458.7,-66.0,-409.5,-545.7,22748.7,198.0,1094.1,309.6,-1353.0,-2943.0,9400.5,108.0,-6.6,-6.0,35.4,349.8,-0.6,252.0,-431.1,-504.6,0,174,0,94,0, 
0.1000,-261.3,332.4,-302.4,299.4,-445.5,-70.5,-400.8,-549.0,592.8,217.8,1107.9,319.8,-1352.4,-3058.8,7647.3,93.9,-6.9,-5.7,49.8,349.5,-0.6,257.4,-666.6,-550.2,0,180,0,95,0, 
0.1033,-263.1,328.5,-307.5,294.3,-446.4,-76.8,-402.3,-548.1,-2074.8,213.0,1102.8,315.3,-1358.7,-3021.0,5131.2,106.5,-6.9,-5.7,43.8,347.7,-1.2,258.6,-604.5,-514.5,0,186,0,96,0, 
0.1067,-265.5,310.5,-324.6,277.8,-463.8,-54.0,-401.4,-542.1,18302.7,190.2,1083.6,297.0,-1364.7,-2904.6,5331.6,111.9,-7.2,-5.7,33.9,335.4,-0.9,239.4,-316.2,-472.8,0,192,0,97,0, 
0.1100,-261.6,314.1,-333.0,274.2,-471.6,-60.9,-413.7,-540.9,33641.4,189.0,1082.4,297.0,-1370.4,-2851.8,7992.9,105.0,-6.6,-6.0,30.0,330.0,-0.9,240.6,-211.2,-483.6,0,198,0,98,0, 
0.1133,-263.7,321.0,-311.4,285.9,-450.3,-60.0,-405.3,-542.7,22674.6,207.0,1100.1,314.7,-1372.8,-2940.3,9443.4,99.0,-6.9,-5.4,44.7,350.4,-0.9,256.8,-419.7,-495.3,0,204,0,99,0, 
0.1167,-262.2,336.0,-292.5,301.5,-429.6,-72.0,-400.8,-547.2,741.0,223.5,1113.3,331.8,-1344.6,-3041.4,7692.6,93.9,-6.6,-6.0,57.6,366.0,-0.6,267.0,-665.4,-529.8,0,210,0,100,0, 
0.1200,-261.0,336.9,-291.9,303.3,-435.6,-64.2,-396.3,-542.1,-2074.8,221.4,1115.7,329.7,-1344.0,-3009.6,5182.2,103.2,-7.2,-5.7,62.1,363.3,-0.6,264.9,-594.3,-514.8,0,216,0,101,0, 
0.1233,-263.7,314.4,-313.8,282.6,-454.5,-37.5,-395.7,-539.7,18080.4,190.5,1092.0,308.7,-1363.8,-2885.4,5374.8,117.6,-7.2,-5.7,37.5,351.9,-0.6,250.5,-296.4,-474.6,0,222,0,102,0, 
0.1267,-266.7,303.6,-326.7,273.3,-471.3,-38.4,-404.1,-545.7,33789.6,184.2,1086.3,295.8,-1374.3,-2844.9,8032.8,111.9,-6.9,-6.0,34.5,326.1,-1.2,234.0,-195.9,-468.0,0,228,0,103,0, 
0.1300,-263.4,315.6,-317.1,285.3,-454.2,-75.9,-408.0,-555.0,22674.6,201.0,1096.8,315.9,-1383.3,-2941.8,9492.6,108.6,-7.5,-5.7,38.1,350.1,-0.3,259.5,-423.3,-504.9,0,234,0,104,0, 
0.1333,-263.1,330.6,-301.8,298.8,-436.8,-73.2,-399.0,-553.5,666.9,211.8,1107.3,327.0,-1370.1,-3041.7,7728.0,99.0,-6.6,-5.7,45.6,359.4,-0.3,267.3,-674.7,-520.5,0,240,0,105,0, 
0.1367,-257.7,334.2,-295.5,303.0,-433.5,-63.9,-391.5,-545.1,-1926.6,210.0,1116.9,331.5,-1366.5,-3010.8,5236.2,106.2,-7.2,-5.7,59.7,365.7,-0.6,271.2,-609.0,-505.2,0,246,0,106,0, 
0.1400,-253.2,324.6,-306.6,291.9,-449.7,-53.7,-397.5,-537.9,18228.6,207.3,1106.1,318.0,-1346.1,-2872.5,5458.5,117.3,-6.9,-5.7,50.4,356.7,-0.9,259.8,-312.9,-480.0,0,252,0,107,0, 
0.1433,-256.8,308.7,-318.6,281.4,-462.6,-25.8,-399.0,-537.6,33567.3,198.6,1090.5,302.1,-1359.3,-2827.2,8097.9,120.0,-7.2,-5.7,33.3,342.6,-0.9,241.2,-197.1,-464.7,0,258,0,108,0, 
0.1467,-250.5,324.0,-307.5,287.1,-453.0,-63.3,-393.9,-546.0,22896.9,205.5,1102.2,317.4,-1360.2,-2928.0,9522.9,117.3,-7.2,-6.0,45.6,355.2,-0.6,259.5,-408.3,-495.3,0,264,0,109,0, 
0.1500,-249.6,342.0,-295.5,303.9,-433.5,-78.0,-393.6,-549.0,666.9,220.5,1122.0,338.4,-1345.5,-3026.4,7755.3,106.2,-6.9,-6.0,57.0,372.3,-0.3,276.0,-660.3,-520.5,0,270,0,110,0, 
0.1533,-246.9,339.3,-294.3,298.8,-436.8,-67.2,-393.3,-544.8,-1778.4,222.3,1113.3,330.0,-1330.2,-3004.5,5253.9,110.7,-6.9,-5.7,51.0,362.4,-0.9,274.2,-617.1,-511.8,0,276,0,111,0, 
0.1567,-249.3,323.4,-312.0,285.0,-456.3,-40.8,-389.7,-539.7,18599.1,201.6,1094.7,309.3,-1346.4,-2879.1,5501.7,126.0,-6.9,-6.0,42.9,345.9,-0.6,242.4,-313.8,-464.1,0,282,0,112,0, 
0.1600,-246.9,320.4,-316.8,280.5,-460.5,-43.2,-394.2,-538.2,33789.6,193.2,1097.1,306.0,-1346.1,-2831.7,8169.3,124.5,-6.9,-6.0,45.3,347.1,-0.6,241.5,-204.9,-463.2,0,288,0,113,0, 
0.1633,-246.9,331.5,-305.4,293.7,-445.8,-56.7,-395.7,-544.5,22378.2,209.4,1113.6,326.4,-1346.7,-2924.4,9557.4,114.6,-6.6,-5.7,58.8,359.7,-0.6,263.4,-416.7,-489.9,0,294,0,114,0, 
0.1667,-245.4,348.0,-288.6,306.3,-430.2,-70.5,-393.9,-546.9,666.9,224.4,1123.2,339.3,-1328.1,-3030.9,7773.9,108.6,-6.9,-5.7,69.0,371.7,-0.6,278.4,-667.8,-522.3,0,300,0,115,0, 
0.1700,-242.4,348.6,-289.5,308.1,-432.3,-62.7,-385.8,-542.4,-1778.4,227.4,1122.6,337.8,-1326.3,-2995.5,5278.2,121.2,-6.9,-5.7,66.0,366.0,-0.6,275.7,-597.9,-513.6,0,306,0,116,0, 
0.1733,-247.2,327.3,-306.6,295.2,-449.1,-31.2,-383.4,-539.4,18599.1,209.4,1106.1,322.5,-1318.8,-2862.9,5518.2,127.5,-7.2,-6.0,48.0,354.9,-0.9,262.5,-310.5,-448.8,0,312,0,117,0, 
0.1767,-245.7,322.8,-316.2,287.7,-456.0,-28.2,-391.8,-540.3,33789.6,206.4,1105.2,315.9,-1329.9,-2820.3,8185.8,128.4,-6.9,-6.0,40.5,347.7,-1.2,249.3,-213.3,-455.7,0,318,0,118,0, 
0.1800,-246.0,327.0,-302.1,298.2,-438.9,-48.0,-398.4,-546.3,22674.6,211.2,1118.1,333.3,-1337.1,-2917.5,9588.0,119.4,-6.6,-6.3,55.8,361.5,-0.3,264.9,-432.3,-496.2,0,324,0,119,0, 
0.1833,-241.2,344.7,-290.7,306.3,-428.1,-66.3,-390.6,-550.8,592.8,225.9,1125.0,345.6,-1324.8,-3019.5,7795.2,115.2,-6.9,-5.4,65.7,372.3,-0.6,277.2,-662.7,-522.6,0,330,0,120,0, 
0.1867,-244.2,340.5,-292.8,307.8,-431.7,-61.8,-388.5,-547.8,-1926.6,221.4,1125.0,342.6,-1316.7,-2986.8,5270.7,118.2,-6.9,-6.0,68.7,363.3,-0.6,279.3,-590.4,-513.3,0,336,0,121,0, 
0.1900,-247.2,324.9,-309.9,294.9,-447.3,-21.9,-389.7,-542.1,18747.3,203.1,1107.0,325.2,-1332.9,-2869.2,5515.8,124.8,-7.5,-6.0,53.7,352.8,-1.2,241.2,-309.3,-470.4,0,342,0,122,0, 
0.1933,-246.6,315.9,-317.4,286.5,-460.2,-35.1,-388.8,-547.2,33863.7,199.5,1097.4,311.7,-1345.2,-2819.1,8177.7,128.7,-7.2,-6.3,42.9,333.3,-0.6,249.0,-197.7,-454.2,0,348,0,123,0, 
0.1967,-246.6,331.8,-302.7,300.3,-441.3,-45.3,-390.3,-552.3,22378.2,207.3,1113.0,332.1,-1347.9,-2915.4,9561.3,119.1,-6.9,-6.0,57.9,355.8,-0.9,257.1,-429.0,-494.4,0,354,0,124,0, 
0.2000,-244.5,344.7,-286.5,314.7,-430.5,-69.3,-389.4,-555.0,444.6,229.2,1130.1,346.8,-1336.2,-3026.7,7753.5,111.6,-6.9,-5.4,71.4,363.3,-0.3,275.7,-661.2,-530.4,0,360,0,125,0, 
0.2033,-245.4,344.1,-290.7,310.5,-431.7,-56.7,-384.3,-550.2,-2148.9,226.8,1126.8,342.9,-1318.8,-2983.2,5236.2,117.0,-6.6,-5.7,68.1,366.6,-0.6,271.2,-592.2,-511.2,0,366,0,126,0, 
0.2067,-244.8,326.7,-311.1,294.6,-449.1,-29.1,-387.6,-545.4,18376.8,200.7,1104.6,319.8,-1326.3,-2854.8,5460.3,131.4,-6.6,-5.7,50.7,349.5,-0.3,246.9,-288.6,-466.8,0,372,0,127,0, 
0.2100,-247.5,322.5,-315.0,287.4,-452.4,-22.8,-390.6,-546.0,33419.1,205.5,1103.7,319.5,-1343.1,-2815.8,8106.3,126.3,-6.6,-5.7,49.5,351.6,-0.9,252.6,-201.3,-451.8,0,378,0,128,0, 
0.2133,-245.7,334.8,-303.3,297.3,-438.3,-33.0,-389.1,-549.9,22304.1,212.7,1113.0,335.7,-1359.3,-2921.1,9470.1,117.9,-6.9,-5.7,53.7,359.4,-0.9,256.5,-423.0,-496.8,0,384,0,129,0, 
0.2167,-250.5,341.1,-293.1,301.2,-429.9,-55.2,-390.3,-561.6,222.3,217.5,1119.6,341.7,-1359.3,-3037.5,7674.6,110.4,-6.9,-6.0,55.5,363.9,-1.2,271.8,-673.8,-524.4,0,390,0,130,0, 
0.2200,-244.8,345.3,-288.3,305.7,-423.6,-60.0,-395.4,-555.3,-2074.8,223.5,1124.4,348.6,-1325.1,-2993.1,5172.6,118.2,-6.9,-6.0,63.3,365.4,-0.6,271.2,-605.1,-503.7,0,396,0,131,0, 
0.2233,-248.4,324.9,-309.3,285.9,-441.3,-33.0,-388.5,-552.6,18376.8,188.1,1104.0,323.7,-1320.9,-2861.7,5421.3,130.2,-7.2,-6.0,41.1,351.3,-0.9,251.1,-295.5,-468.0,0,402,0,132,0, 
0.2267,-250.5,316.5,-317.1,284.4,-455.1,-26.4,-396.0,-555.9,33270.9,196.5,1096.2,318.3,-1337.7,-2821.5,8052.9,125.4,-7.2,-5.7,35.7,349.2,-0.3,246.3,-192.3,-450.6,0,408,0,133,0, 
0.2300,-249.0,328.5,-303.3,292.5,-445.5,-40.5,-394.2,-562.5,21933.6,209.4,1109.1,335.7,-1354.2,-2925.6,9423.3,114.9,-6.9,-5.7,47.7,359.7,-0.9,261.0,-422.1,-485.7,0,414,0,134,0, 
0.2333,-247.2,342.6,-288.9,304.2,-426.9,-57.3,-392.1,-566.1,0.0,217.5,1120.5,348.3,-1346.4,-3034.5,7601.4,111.3,-6.6,-6.3,57.0,375.3,-0.6,275.1,-676.8,-523.2,0,420,0,135,0, 
0.2367,-247.8,339.9,-293.7,299.7,-436.5,-49.2,-389.4,-564.9,-1926.6,212.7,1115.1,340.8,-1323.6,-2994.0,5114.1,115.8,-7.2,-5.7,49.5,359.4,-0.9,266.1,-602.7,-522.3,0,426,0,136,0, 
0.2400,-250.2,322.5,-311.4,285.9,-449.1,-24.9,-391.8,-561.3,18599.1,192.0,1096.5,315.0,-1325.7,-2871.6,5385.0,121.2,-7.2,-5.7,37.2,345.0,-0.3,245.1,-314.1,-471.0,0,432,0,137,0, 
0.2433,-251.7,319.2,-319.5,273.3,-466.2,-49.5,-400.5,-567.0,33419.1,197.4,1091.4,312.0,-1338.3,-2829.9,8050.2,120.9,-6.6,-6.0,30.9,337.2,-0.3,236.4,-210.9,-472.8,0,438,0,138,0, 
0.2467,-254.1,325.5,-313.8,284.1,-447.0,-43.5,-395.1,-571.5,21933.6,197.1,1098.3,324.6,-1355.1,-2936.7,9394.5,106.8,-6.9,-5.7,36.6,356.7,-1.2,240.3,-420.6,-478.8,0,444,0,139,0, 
0.2500,-249.3,345.3,-294.6,297.6,-440.7,-78.6,-401.1,-574.5,-370.5,225.9,1118.4,337.5,-1346.4,-3020.7,7545.9,105.3,-6.9,-5.4,50.4,350.4,-0.9,270.3,-665.7,-547.5,0,450,0,140,0, 
0.2533,-252.3,336.0,-300.9,292.8,-446.7,-77.7,-399.9,-572.1,-2371.2,219.6,1107.3,328.8,-1341.9,-2983.5,5018.4,107.7,-7.2,-5.7,47.7,350.1,-0.9,259.8,-597.0,-529.8,0,456,0,141,0, 
0.2567,-255.9,321.3,-321.3,276.3,-465.0,-51.0,-400.5,-570.0,18450.9,192.3,1092.6,306.6,-1345.2,-2871.0,5302.5,121.2,-6.9,-6.3,33.0,327.6,-0.6,241.8,-305.4,-486.3,0,462,0,142,0, 
0.2600,-260.1,310.2,-330.6,269.4,-468.9,-42.6,-405.0,-576.3,33493.2,191.7,1084.8,304.2,-1355.1,-2839.5,7967.1,114.9,-7.2,-5.7,30.9,331.2,-0.9,234.6,-208.5,-473.1,0,468,0,143,0, 
0.2633,-265.2,324.0,-317.4,275.7,-462.9,-71.4,-411.9,-585.3,21637.2,198.9,1095.9,314.4,-1368.3,-2947.5,9312.3,109.2,-7.2,-6.0,37.5,334.2,-0.6,236.1,-443.1,-518.4,0,474,0,144,0, 
0.2667,-261.0,331.5,-306.6,288.6,-448.5,-90.3,-405.9,-590.1,-370.5,206.4,1108.2,330.0,-1357.5,-3041.7,7479.0,110.4,-6.6,-5.4,48.9,345.9,-0.9,259.2,-675.6,-549.0,0,480,0,145,0, 
0.2700,-263.7,332.1,-304.2,291.3,-447.9,-63.3,-404.1,-582.6,-2297.1,209.4,1105.8,325.8,-1333.8,-2998.2,4977.6,102.0,-6.6,-6.3,50.7,342.6,-0.6,258.9,-604.5,-529.8,0,486,0,146,0, 
0.2733,-259.2,315.3,-315.9,276.9,-467.1,-48.6,-403.8,-580.8,18302.7,188.1,1087.5,308.7,-1339.2,-2881.5,5269.5,113.4,-7.2,-6.0,36.3,328.5,-0.6,232.5,-302.4,-495.6,0,492,0,147,0, 
0.2767,-263.4,306.6,-321.3,271.2,-471.0,-46.5,-414.6,-582.6,33270.9,186.0,1087.5,306.0,-1354.8,-2847.6,7932.6,112.2,-7.5,-5.7,33.9,325.5,-1.2,238.2,-219.0,-473.7,0,498,0,148,0, 
0.2800,-261.0,316.2,-310.8,279.9,-460.2,-67.5,-415.5,-589.8,21563.1,203.4,1096.8,316.8,-1350.6,-2946.0,9297.3,110.7,-6.9,-6.0,39.3,335.1,-1.2,250.2,-453.0,-507.9,0,504,0,149,0, 
0.2833,-258.3,336.0,-293.7,297.6,-439.2,-58.2,-405.9,-586.5,-444.6,225.0,1118.4,337.2,-1346.4,-3053.1,7449.3,103.2,-7.2,-5.7,58.2,345.6,-1.2,266.4,-683.7,-537.0,0,510,0,150,0, 
0.2867,-252.3,333.9,-294.6,296.4,-443.4,-67.2,-400.2,-582.3,-2519.4,213.6,1112.4,336.0,-1328.7,-3006.0,4947.3,115.2,-6.9,-5.7,54.9,347.4,-0.6,268.5,-595.5,-519.6,0,516,0,151,0, 
0.2900,-259.2,313.8,-317.1,274.5,-471.0,-57.6,-409.5,-583.8,18228.6,196.8,1092.3,309.6,-1334.1,-2888.1,5231.1,118.8,-6.9,-5.7,37.2,326.4,-0.6,243.9,-308.4,-486.3,0,522,0,152,0, 
0.2933,-263.4,302.1,-330.0,267.3,-477.0,-47.4,-412.8,-588.6,33048.6,184.2,1082.1,300.9,-1350.9,-2842.8,7889.4,120.9,-6.6,-6.0,26.7,322.2,-0.6,239.4,-206.1,-474.9,0,528,0,153,0, 
0.2967,-267.0,309.9,-324.9,271.5,-465.9,-68.7,-416.7,-595.8,21340.8,193.8,1088.7,311.4,-1352.7,-2950.2,9207.6,114.3,-6.6,-5.4,29.4,328.2,-0.6,253.5,-440.1,-512.1,0,534,0,154,0, 
0.3000,-259.8,336.0,-306.9,288.0,-447.3,-83.7,-412.5,-590.7,-666.9,222.6,1105.5,329.1,-1350.9,-3047.4,7338.0,110.1,-6.9,-5.7,48.6,342.0,-0.9,269.1,-678.0,-537.3,0,540,0,155,0, 
0.3033,-260.1,331.5,-311.4,288.9,-448.8,-65.4,-407.7,-588.9,-2741.7,213.3,1099.5,321.9,-1350.6,-3014.7,4831.2,113.4,-6.9,-5.7,43.8,339.0,-0.3,259.5,-593.7,-515.1,0,546,0,156,0, 
0.3067,-265.2,311.7,-329.1,270.3,-468.9,-50.4,-409.8,-585.9,18080.4,186.0,1082.7,308.1,-1346.1,-2890.5,5129.7,118.8,-6.9,-5.7,27.9,325.8,-0.9,244.8,-306.9,-477.3,0,552,0,157,0, 
0.3100,-264.6,302.4,-335.1,264.9,-468.9,-45.9,-414.9,-587.1,32826.3,178.2,1081.8,305.7,-1365.6,-2852.7,7795.5,120.9,-7.2,-5.7,25.2,329.1,-0.9,233.1,-210.3,-476.1,0,558,0,158,0, 
0.3133,-264.0,310.8,-329.7,264.9,-468.0,-66.6,-412.5,-590.4,20970.3,187.8,1085.4,310.5,-1364.7,-2955.3,9119.1,111.3,-7.2,-5.7,30.6,320.1,-0.6,252.0,-441.3,-510.9,0,564,0,159,0, 
0.3167,-261.9,326.4,-315.9,277.2,-453.6,-94.2,-411.0,-597.3,-1037.4,206.4,1097.4,324.9,-1351.2,-3063.3,7241.7,108.3,-6.9,-5.7,35.4,339.6,-0.3,257.7,-686.7,-534.9,0,570,0,160,0, 
0.3200,-260.7,324.3,-315.0,281.4,-452.4,-81.9,-407.7,-591.6,-2741.7,202.8,1096.5,324.6,-1351.2,-3020.4,4736.7,108.0,-6.6,-6.0,39.6,343.2,-0.6,256.8,-608.4,-523.5,0,576,0,161,0, 
0.3233,-259.5,315.0,-324.9,273.6,-463.5,-64.5,-411.3,-584.4,17932.2,191.1,1088.4,313.8,-1324.8,-2886.6,5038.2,120.6,-7.2,-6.0,34.8,333.0,-1.2,254.4,-306.9,-491.4,0,582,0,162,0, 
0.3267,-262.5,297.9,-335.4,256.5,-482.4,-51.0,-411.6,-588.9,32529.9,183.6,1077.9,296.4,-1354.2,-2860.5,7679.7,121.2,-6.9,-6.0,21.9,308.4,-0.6,229.5,-193.2,-480.3,0,588,0,163,0, 
0.3300,-259.5,313.5,-324.0,269.7,-467.1,-77.7,-423.9,-599.1,20748.0,197.4,1089.0,313.8,-1352.4,-2962.2,9006.9,105.3,-6.9,-6.0,36.9,329.1,-0.9,247.5,-449.4,-507.9,0,594,0,164,0, 
0.3333,-263.4,324.6,-312.0,276.9,-456.0,-104.1,-419.1,-605.1,-1037.4,205.2,1095.9,324.9,-1350.9,-3070.5,7158.0,109.5,-6.9,-5.1,42.0,339.9,-0.9,257.7,-696.3,-549.3,0,600,0,165,0, 
0.3367,-264.6,326.1,-314.4,277.5,-456.3,-81.9,-410.4,-593.7,-2741.7,201.0,1096.2,322.5,-1335.6,-3027.6,4679.7,108.9,-7.2,-5.7,44.4,336.3,-0.9,250.2,-605.1,-524.1,0,606,0,166,0, 
0.3400,-265.2,309.3,-328.2,265.5,-474.0,-64.8,-412.8,-589.8,18006.3,186.0,1083.6,304.2,-1327.5,-2895.0,4983.9,119.7,-7.2,-5.7,34.5,319.5,-0.9,244.8,-300.0,-491.4,0,612,0,167,0, 
0.3433,-265.2,303.3,-337.2,256.8,-481.5,-63.9,-417.9,-596.1,32678.1,172.8,1073.4,297.0,-1349.1,-2863.8,7658.7,120.3,-7.2,-6.3,22.2,315.3,-0.9,224.1,-214.5,-480.3,0,618,0,168,0, 
0.3467,-263.1,320.1,-323.1,272.4,-468.0,-75.9,-420.0,-595.8,20673.9,201.6,1094.4,314.7,-1344.6,-2958.3,8978.1,104.1,-6.9,-5.7,39.6,323.1,-0.3,238.5,-446.7,-519.3,0,624,0,169,0, 
0.3500,-256.5,342.6,-299.4,296.4,-441.3,-88.8,-417.9,-594.9,-963.3,210.0,1113.3,338.1,-1332.9,-3068.7,7126.5,95.1,-7.2,-6.0,57.6,350.4,-0.6,260.7,-701.1,-543.3,0,630,0,170,0, 
0.3533,-259.8,332.7,-309.9,288.9,-451.5,-85.8,-411.6,-594.6,-2815.8,211.2,1107.6,331.5,-1327.2,-3027.0,4671.9,107.4,-6.6,-5.7,54.0,334.8,-0.6,259.8,-607.2,-530.4,0,636,0,171,0, 
0.3567,-269.1,312.9,-330.6,265.5,-478.8,-70.2,-423.9,-597.3,18080.4,187.2,1080.9,301.8,-1350.0,-2913.0,5000.7,112.8,-6.9,-5.7,31.8,312.9,-0.9,233.4,-324.3,-498.9,0,642,0,172,0, 
0.3600,-267.6,306.3,-336.3,262.8,-478.5,-53.7,-420.0,-593.7,32678.1,180.6,1082.4,300.9,-1353.3,-2872.5,7675.8,110.4,-7.2,-5.7,30.6,319.8,-0.9,232.2,-219.3,-470.1,0,648,0,173,0, 
0.3633,-267.9,318.0,-324.9,273.3,-466.8,-73.2,-423.6,-603.9,20748.0,202.5,1094.4,317.1,-1358.4,-2969.4,8989.8,103.5,-7.2,-5.7,39.6,327.9,-0.9,235.5,-450.0,-516.6,0,654,0,174,0, 
0.3667,-262.5,334.5,-302.7,294.0,-441.0,-87.9,-418.5,-600.3,-1111.5,227.1,1116.0,341.7,-1341.3,-3062.4,7113.3,102.0,-6.9,-6.0,61.8,357.3,-0.3,257.1,-678.9,-553.2,0,660,0,175,0, 
0.3700,-261.3,333.6,-307.5,286.2,-456.0,-75.6,-416.4,-597.0,-3038.1,219.0,1109.7,327.0,-1336.2,-3022.8,4626.0,109.2,-7.2,-5.7,58.5,331.2,-0.6,254.1,-591.3,-540.0,0,666,0,176,0, 
0.3733,-267.3,312.6,-329.7,268.5,-476.4,-59.7,-424.8,-596.7,18154.5,198.9,1082.1,302.4,-1338.0,-2916.6,4967.1,114.3,-7.2,-6.0,33.6,315.0,-0.6,223.8,-323.4,-499.2,0,672,0,177,0, 
0.3767,-263.7,306.3,-332.7,263.1,-479.1,-55.5,-425.7,-598.5,32826.3,201.6,1082.4,302.7,-1357.8,-2877.6,7668.6,117.6,-6.9,-6.0,37.8,316.5,-0.6,215.7,-217.8,-487.2,0,678,0,178,0, 
0.3800,-259.5,317.4,-321.3,272.4,-465.3,-79.5,-423.0,-603.0,20673.9,213.3,1096.2,312.9,-1359.9,-2981.4,8977.8,110.7,-7.2,-5.4,49.2,326.4,-0.3,231.3,-444.3,-517.2,0,684,0,179,0, 
0.3833,-262.2,331.2,-312.3,283.8,-452.4,-85.5,-419.7,-609.6,-1037.4,215.1,1105.5,324.3,-1365.0,-3072.9,7116.0,109.5,-7.2,-6.3,57.3,331.5,-0.6,239.1,-682.8,-559.2,0,690,0,180,0, 
0.3867,-263.1,321.6,-320.4,280.8,-458.1,-90.0,-417.3,-609.9,-2667.6,206.7,1095.0,315.9,-1362.0,-3035.1,4653.0,114.0,-6.9,-5.4,46.8,325.8,-0.6,235.2,-602.4,-546.9,0,696,0,181,0, 
0.3900,-267.3,306.9,-336.9,264.0,-477.6,-48.6,-416.7,-601.2,18154.5,165.3,1069.8,290.4,-1360.2,-2910.3,4991.4,112.2,-6.6,-5.4,20.1,303.9,-0.3,215.7,-307.8,-506.1,0,702,0,182,0, 
0.3933,-268.8,294.3,-344.4,258.3,-477.9,-62.4,-423.6,-607.8,32752.2,164.7,1073.7,301.2,-1378.8,-2880.0,7671.9,117.9,-7.5,-5.7,16.2,316.2,-0.6,221.4,-214.8,-463.2,0,708,0,183,0, 
0.3967,-268.2,310.2,-330.0,271.8,-463.5,-87.6,-426.9,-615.0,20822.1,182.1,1092.9,317.1,-1371.3,-2985.6,8965.2,101.1,-7.2,-5.7,30.9,330.3,-0.3,239.7,-443.4,-526.2,0,714,0,184,0, 
0.4000,-263.7,329.1,-311.1,287.7,-447.3,-98.1,-427.5,-613.2,-1185.6,202.2,1108.2,334.5,-1349.7,-3088.5,7098.6,96.3,-6.6,-6.0,45.9,342.9,-0.6,267.3,-677.7,-557.1,0,720,0,185,0, 
0.4033,-261.6,325.8,-314.1,287.4,-450.0,-76.8,-420.3,-605.7,-2889.9,194.1,1102.8,327.0,-1338.0,-3044.4,4614.9,105.3,-7.2,-5.4,43.8,339.6,-0.3,246.9,-580.5,-531.9,0,726,0,186,0, 
0.4067,-261.6,311.7,-328.2,272.1,-470.1,-59.7,-426.6,-603.6,18006.3,180.3,1091.4,315.0,-1347.0,-2927.1,4947.6,107.7,-6.9,-6.3,34.8,326.1,-0.3,232.5,-303.9,-501.9,0,732,0,187,0, 
0.4100,-268.2,303.9,-337.5,263.7,-470.1,-51.6,-433.5,-609.3,32900.4,178.8,1085.4,310.2,-1367.7,-2891.1,7644.6,101.1,-6.9,-5.7,25.5,326.7,0.0,221.4,-223.5,-485.1,0,738,0,188,0, 
0.4133,-261.0,320.1,-320.4,275.4,-462.6,-69.0,-428.1,-612.3,20525.7,198.0,1102.2,324.3,-1361.4,-2976.6,8938.5,100.5,-6.9,-6.0,38.4,333.9,-1.2,253.5,-433.8,-514.5,0,744,0,189,0, 
0.4167,-261.9,326.4,-312.3,283.8,-447.6,-86.7,-427.2,-616.5,-1037.4,197.7,1105.8,332.7,-1345.2,-3073.5,7064.4,98.7,-6.9,-6.0,45.0,341.1,-0.9,250.8,-670.2,-551.1,0,750,0,190,0, 
0.4200,-255.9,329.1,-307.8,286.5,-444.9,-79.2,-425.1,-606.6,-2667.6,210.3,1114.5,333.6,-1335.3,-3038.1,4615.2,103.2,-6.9,-5.7,53.1,338.7,-0.9,256.5,-582.6,-540.9,0,756,0,191,0, 
0.4233,-260.4,307.5,-323.1,265.5,-454.8,-54.0,-423.0,-606.6,18450.9,192.6,1096.8,315.0,-1343.1,-2916.9,4973.4,111.9,-6.9,-5.7,39.6,319.8,-0.9,229.2,-293.7,-492.0,0,762,0,192,0, 
0.4267,-263.7,304.5,-333.6,259.8,-468.6,-63.6,-427.8,-609.9,32826.3,180.9,1086.9,310.5,-1360.2,-2881.2,7678.5,113.4,-7.2,-6.0,29.4,327.0,-0.9,233.1,-220.5,-491.4,0,768,0,193,0, 
0.4300,-258.3,320.7,-316.5,273.3,-460.8,-75.6,-428.7,-616.8,20451.6,207.3,1109.4,331.5,-1354.2,-2974.2,8958.6,108.6,-6.9,-6.0,49.2,338.1,-0.9,245.4,-431.1,-519.9,0,774,0,194,0, 
0.4333,-257.7,336.6,-299.7,293.1,-434.7,-88.8,-425.4,-616.2,-1259.7,226.5,1128.3,354.0,-1356.3,-3076.8,7049.7,100.2,-7.2,-5.7,63.6,367.8,-0.6,277.8,-664.2,-543.6,0,780,0,195,0, 
0.4367,-258.3,331.8,-308.7,280.2,-453.0,-65.4,-422.7,-616.8,-2519.4,207.0,1111.2,331.2,-1325.1,-3037.8,4595.7,105.3,-7.2,-5.7,52.8,327.6,-0.9,257.1,-582.6,-539.4,0,786,0,196,0, 
0.4400,-262.8,311.7,-328.8,263.4,-467.7,-72.6,-428.4,-615.9,18450.9,192.9,1093.2,315.6,-1322.4,-2910.0,4986.9,118.2,-6.9,-6.0,35.1,326.4,-0.9,242.7,-293.4,-497.7,0,792,0,197,0, 
0.4433,-265.5,308.1,-332.7,260.4,-471.9,-60.0,-429.6,-617.7,32826.3,195.6,1093.2,313.2,-1345.8,-2880.9,7673.7,109.5,-6.9,-5.7,39.6,325.5,-0.6,246.0,-202.8,-483.6,0,798,0,198,0, 
0.4467,-264.6,315.0,-327.0,265.5,-461.1,-73.2,-430.2,-627.3,20673.9,202.2,1095.3,322.2,-1361.1,-2980.2,8954.4,102.6,-6.9,-6.0,43.5,332.4,-1.2,233.7,-438.0,-527.4,0,804,0,199,0, 
0.4500,-265.2,330.3,-312.9,281.4,-447.9,-97.8,-427.8,-631.2,-1259.7,217.2,1116.9,341.7,-1354.8,-3079.2,7061.7,96.9,-7.2,-5.7,59.7,342.3,-0.9,267.6,-680.7,-552.9,0,810,0,200,0, 
0.4533,-263.7,330.6,-308.7,285.6,-441.9,-76.8,-429.0,-622.2,-2371.2,206.4,1114.2,343.2,-1340.1,-3042.9,4609.5,98.7,-7.2,-6.0,52.8,354.6,-0.6,259.8,-591.9,-524.7,0,816,0,201,0, 
0.4567,-265.8,306.3,-335.1,263.1,-470.1,-60.6,-426.3,-617.7,18525.0,187.8,1087.8,315.0,-1350.6,-2927.1,4999.5,108.9,-6.9,-5.7,30.3,318.6,-0.6,234.9,-300.6,-491.1,0,822,0,202,0, 
0.4600,-268.2,302.1,-339.9,255.3,-474.3,-48.3,-432.9,-616.8,32826.3,177.6,1089.0,312.9,-1359.9,-2892.9,7684.8,111.6,-6.9,-5.7,36.0,321.9,-0.9,232.8,-215.7,-480.0,0,828,0,203,0, 
0.4633,-265.8,315.3,-326.1,270.6,-459.6,-75.3,-435.0,-624.9,20599.8,202.2,1105.8,330.3,-1354.2,-2997.9,8976.0,105.9,-7.2,-6.3,52.8,333.3,-0.9,254.7,-458.7,-519.6,0,834,0,204,0, 
0.4667,-266.1,328.8,-316.2,283.8,-441.3,-83.4,-431.7,-626.7,-1185.6,205.2,1114.2,345.6,-1351.2,-3096.0,7085.1,99.3,-6.9,-5.7,55.5,347.1,-0.9,264.0,-684.9,-541.8,0,840,0,205,0, 
0.4700,-265.5,324.0,-320.4,284.1,-446.1,-65.1,-428.1,-622.2,-2519.4,207.0,1109.1,339.9,-1347.3,-3051.0,4637.1,106.2,-6.6,-6.0,50.1,337.8,-0.6,258.6,-594.3,-521.4,0,846,0,206,0, 
0.4733,-264.9,314.4,-331.2,271.5,-459.6,-55.8,-431.4,-611.4,18525.0,192.0,1099.8,327.0,-1335.3,-2921.7,5032.2,109.8,-7.2,-6.0,46.2,333.6,-0.3,246.9,-298.8,-471.6,0,852,0,207,0, 
0.4767,-265.5,303.3,-338.1,261.9,-472.8,-50.1,-440.4,-614.4,32752.2,184.2,1093.5,317.1,-1350.3,-2880.0,7699.2,111.9,-6.6,-5.7,39.3,323.4,-0.9,234.6,-201.3,-475.2,0,858,0,208,0, 
0.4800,-267.6,313.2,-331.8,270.0,-459.6,-62.4,-440.1,-621.6,20451.6,195.6,1098.9,333.9,-1370.7,-2997.0,8957.1,100.2,-7.2,-5.7,39.9,330.3,-0.9,249.0,-445.2,-491.4,0,864,0,209,0, 
0.4833,-262.2,330.3,-314.7,283.8,-442.2,-77.7,-435.3,-622.2,-1556.1,210.3,1115.7,346.2,-1344.3,-3085.5,7034.7,96.9,-6.9,-5.4,59.4,345.0,-0.9,257.1,-676.5,-530.1,0,870,0,210,0, 
0.4867,-266.4,324.0,-311.1,282.0,-450.9,-72.0,-441.3,-624.0,-2297.1,203.7,1110.3,336.0,-1332.6,-3053.4,4607.4,98.1,-7.2,-6.0,58.5,335.7,-0.9,251.7,-610.5,-534.3,0,876,0,211,0, 
0.4900,-267.9,303.9,-331.2,264.3,-466.2,-46.5,-439.5,-621.0,18673.2,183.0,1090.8,316.5,-1333.5,-2919.9,5019.3,104.4,-6.6,-5.4,38.7,324.9,-0.6,239.1,-319.2,-484.2,0,882,0,212,0, 
0.4933,-271.2,295.2,-344.4,255.6,-474.0,-52.5,-442.8,-624.0,32604.0,179.4,1083.3,308.7,-1353.9,-2882.7,7708.8,105.9,-6.9,-5.7,30.3,322.8,-0.6,232.5,-224.1,-477.0,0,888,0,213,0, 
0.4967,-273.0,307.2,-329.1,264.0,-464.7,-70.8,-443.7,-633.3,20303.4,192.6,1101.0,323.7,-1367.4,-2985.3,8955.3,95.7,-6.9,-5.7,42.9,329.7,-0.9,245.7,-459.3,-512.7,0,894,0,214,0, 
0.5000,-267.6,327.0,-312.0,278.7,-449.4,-93.6,-441.3,-637.8,-1556.1,208.5,1112.4,340.5,-1338.6,-3076.2,7032.9,95.1,-6.9,-6.0,49.8,343.5,-0.6,261.3,-693.6,-556.2,0,900,0,215,0, 
0.5033,-269.7,320.7,-317.1,281.1,-452.4,-75.9,-428.7,-631.8,-2519.4,213.9,1106.4,338.7,-1346.1,-3041.1,4578.9,102.0,-7.2,-5.7,39.3,341.7,-0.9,250.2,-592.2,-540.3,0,906,0,216,0, 
0.5067,-265.8,308.7,-330.3,268.5,-468.0,-51.3,-438.6,-625.2,18673.2,183.6,1095.9,320.1,-1339.5,-2911.5,4992.0,110.4,-7.2,-5.7,37.2,316.2,-0.6,243.3,-320.4,-485.1,0,912,0,217,0, 
0.5100,-268.5,295.8,-347.1,255.3,-481.5,-46.5,-441.3,-629.1,32752.2,174.9,1080.9,304.8,-1347.0,-2879.4,7681.5,112.2,-6.9,-6.0,21.0,311.7,-0.3,224.4,-228.0,-477.6,0,918,0,218,0, 
0.5133,-267.6,312.0,-330.9,268.5,-461.4,-64.8,-442.5,-635.1,20155.2,195.0,1100.4,326.4,-1354.5,-2982.3,8915.7,99.0,-7.2,-5.7,37.5,330.3,-0.6,237.6,-457.5,-513.3,0,924,0,219,0, 
0.5167,-264.6,321.9,-319.2,281.7,-454.5,-88.5,-440.4,-637.2,-1704.3,214.2,1113.0,340.8,-1336.2,-3084.0,6980.4,93.3,-6.9,-5.4,52.8,333.0,-0.9,267.6,-681.9,-553.5,0,930,0,220,0, 
0.5200,-264.6,322.8,-317.7,282.0,-452.4,-73.8,-441.3,-630.3,-2593.5,207.0,1107.3,336.6,-1320.6,-3042.3,4537.5,92.7,-7.2,-5.4,49.8,334.8,-0.6,256.5,-599.4,-530.1,0,936,0,221,0, 
0.5233,-263.7,307.8,-333.9,266.4,-469.8,-49.5,-439.8,-623.1,18525.0,186.9,1091.7,316.5,-1327.5,-2910.6,4955.4,103.5,-6.9,-6.0,29.1,316.5,-0.3,245.4,-306.0,-489.6,0,942,0,222,0, 
0.5267,-267.6,302.4,-337.8,258.9,-474.3,-36.3,-441.0,-623.7,32604.0,183.0,1090.2,312.9,-1339.8,-2883.6,7627.8,101.1,-6.9,-5.7,26.7,316.8,-0.3,227.4,-209.1,-476.1,0,948,0,223,0, 
0.5300,-264.6,312.3,-327.0,263.7,-467.7,-70.2,-444.6,-634.2,20081.1,193.5,1098.0,321.6,-1353.3,-2988.0,8867.7,96.3,-7.2,-5.7,31.2,322.8,-0.9,241.8,-456.6,-517.2,0,954,0,224,0, 
0.5333,-262.8,325.2,-307.8,283.2,-447.9,-81.3,-437.1,-635.4,-1630.2,219.6,1115.1,342.6,-1332.0,-3090.9,6950.4,95.1,-6.9,-5.7,46.2,339.0,-0.6,267.0,-702.9,-543.3,0,960,0,225,0, 
0.5367,-262.8,325.2,-311.7,280.5,-453.6,-71.4,-435.0,-634.2,-2445.3,207.3,1113.0,339.9,-1322.1,-3050.1,4520.7,105.3,-6.6,-5.7,44.1,345.3,-0.9,259.8,-596.1,-521.4,0,966,0,226,0, 
0.5400,-265.8,307.2,-328.5,266.1,-472.8,-35.1,-436.5,-628.2,18747.3,192.0,1093.2,317.1,-1335.0,-2922.3,4968.9,111.6,-6.9,-5.4,29.4,315.9,-0.9,248.7,-309.9,-486.0,0,972,0,227,0, 
0.5433,-261.9,302.4,-335.4,260.7,-477.6,-48.3,-435.9,-628.8,32455.8,196.5,1089.9,314.4,-1329.3,-2875.8,7648.8,110.7,-6.9,-5.7,26.4,309.6,0.0,239.4,-199.5,-465.0,0,978,0,228,0, 
0.5467,-259.5,318.0,-325.8,272.4,-463.5,-63.9,-437.1,-636.9,20007.0,207.3,1104.9,328.8,-1330.2,-2993.4,8875.2,100.2,-7.2,-5.4,37.8,331.5,-0.6,251.4,-447.6,-496.2,0,984,0,229,0, 
0.5500,-256.5,330.3,-308.7,287.7,-441.6,-69.9,-429.6,-633.6,-1778.4,218.1,1122.0,349.5,-1330.2,-3092.1,6930.9,97.8,-6.9,-5.4,52.8,347.4,-0.3,266.1,-678.6,-525.3,0,990,0,230,0, 
0.5533,-260.4,328.8,-311.4,287.4,-447.3,-73.2,-431.7,-632.7,-2297.1,213.6,1115.7,344.4,-1319.1,-3055.2,4527.0,101.1,-7.5,-5.4,51.9,349.5,-0.6,258.9,-597.3,-530.4,0,996,0,231,0, 
0.5567,-258.3,314.7,-328.8,273.9,-466.2,-44.4,-431.7,-623.4,18747.3,192.3,1098.6,325.2,-1330.2,-2925.6,4988.7,114.3,-6.6,-5.7,34.5,326.1,-0.3,243.0,-314.1,-482.4,0,1002,0,232,0, 
0.5600,-270.9,295.8,-343.5,258.9,-474.3,-28.8,-429.3,-628.2,32678.1,171.0,1084.2,304.2,-1349.1,-2901.0,7678.8,111.3,-7.2,-5.7,24.3,309.0,-0.9,224.1,-212.7,-469.8,0,1008,0,233,0, 
0.5633,-256.8,320.7,-318.3,279.9,-447.9,-77.7,-432.9,-627.0,19932.9,211.2,1110.6,336.0,-1328.7,-2991.3,8908.5,112.8,-6.9,-5.7,43.5,336.9,-0.9,253.5,-460.5,-521.7,0,1014,0,234,0, 
0.5667,-256.5,334.8,-303.0,293.1,-440.4,-79.2,-432.0,-627.9,-1556.1,209.7,1119.9,349.2,-1322.1,-3092.1,6966.3,105.9,-6.9,-5.7,52.2,356.7,-0.6,262.2,-690.6,-534.9,0,1020,0,235,0, 
0.5700,-253.5,331.2,-306.6,288.9,-452.1,-66.3,-425.4,-621.0,-2223.0,217.5,1116.3,342.0,-1312.2,-3039.6,4558.2,111.9,-6.6,-5.4,54.9,333.6,-1.2,263.1,-588.3,-522.6,0,1026,0,236,0, 
0.5733,-257.1,310.8,-323.1,272.7,-467.1,-41.1,-426.9,-618.0,18821.4,196.2,1097.4,321.3,-1318.5,-2917.8,4994.1,122.7,-6.9,-6.0,39.3,326.4,-0.9,225.6,-295.8,-474.6,0,1032,0,237,0, 
0.5767,-254.1,309.0,-326.4,270.0,-473.7,-40.2,-429.6,-612.6,32455.8,192.0,1097.7,320.1,-1341.3,-2873.4,7651.2,123.6,-6.9,-6.0,36.9,324.3,-0.9,243.6,-201.3,-469.8,0,1038,0,238,0, 
0.5800,-257.4,315.3,-320.7,275.7,-461.7,-58.8,-428.7,-619.8,19858.8,207.6,1103.1,327.9,-1355.1,-2988.6,8850.0,120.0,-7.2,-6.0,37.8,327.0,-1.2,249.3,-447.3,-510.6,0,1044,0,239,0, 
0.5833,-255.3,333.3,-304.5,294.9,-442.2,-66.6,-424.5,-615.6,-1778.4,225.9,1117.8,346.5,-1340.1,-3085.8,6906.3,111.3,-7.2,-5.7,51.0,345.0,-0.9,268.5,-677.1,-534.9,0,1050,0,240,0, 
0.5867,-255.3,326.7,-305.7,292.2,-447.9,-69.0,-423.3,-612.9,-2519.4,214.8,1115.1,342.6,-1324.8,-3046.5,4490.4,115.2,-6.9,-5.7,51.9,342.0,-0.3,256.5,-592.8,-523.5,0,1056,0,241,0, 
0.5900,-255.9,310.5,-322.8,276.6,-465.0,-36.6,-422.7,-599.4,18525.0,194.7,1094.7,320.7,-1329.9,-2916.6,4933.5,120.9,-6.6,-5.7,34.5,324.0,-0.6,236.1,-305.1,-480.9,0,1062,0,242,0, 
0.5933,-259.2,300.6,-333.3,265.2,-474.6,-46.2,-428.7,-605.1,32307.6,189.0,1088.7,312.9,-1347.0,-2894.7,7603.2,122.4,-6.6,-5.7,27.9,317.4,-0.6,231.0,-222.0,-476.7,0,1068,0,243,0, 
0.5967,-255.6,313.8,-323.4,275.4,-462.3,-69.3,-426.9,-607.5,19414.2,206.7,1103.1,332.7,-1349.7,-2996.4,8783.7,116.4,-6.9,-5.7,46.2,332.4,-0.9,254.4,-454.5,-510.6,0,1074,0,244,0, 
0.6000,-245.7,332.1,-309.3,291.6,-442.8,-73.5,-414.9,-605.1,-2297.1,208.2,1117.5,350.4,-1317.0,-3082.5,6818.1,114.6,-6.6,-6.0,60.6,348.0,-0.9,257.4,-682.2,-533.7,0,1080,0,245,0, 
0.6033,-249.3,328.8,-309.0,289.5,-447.6,-60.9,-413.1,-600.0,-2889.9,223.8,1116.3,347.4,-1326.3,-3046.5,4382.1,118.5,-7.2,-5.4,59.7,341.4,-0.6,255.3,-585.6,-511.5,0,1086,0,246,0, 
0.6067,-254.1,314.7,-325.5,274.5,-468.3,-42.3,-414.0,-592.5,18525.0,191.4,1099.8,325.8,-1322.1,-2932.5,4826.4,122.4,-6.9,-6.0,42.6,318.0,-0.9,231.0,-304.8,-470.7,0,1092,0,247,0, 
0.6100,-255.9,303.9,-331.2,263.7,-476.7,-42.3,-423.3,-594.3,32085.3,181.8,1092.0,319.8,-1338.9,-2898.3,7508.4,124.5,-6.9,-5.7,32.4,312.3,-0.6,237.9,-225.3,-474.9,0,1098,0,248,0, 
0.6133,-254.1,316.8,-319.8,277.5,-455.1,-57.0,-416.4,-594.6,19191.9,207.0,1105.2,334.8,-1342.2,-2998.5,8664.0,116.1,-6.6,-6.0,42.0,339.9,-0.9,249.9,-460.8,-499.8,0,1104,0,249,0, 
0.6167,-256.2,322.2,-311.7,283.2,-449.7,-75.9,-417.0,-603.9,-2815.8,217.2,1115.7,343.5,-1330.5,-3093.0,6670.5,114.3,-7.2,-5.7,48.9,340.2,-0.6,265.8,-677.1,-543.6,0,1110,0,250,0, 
0.6200,-252.9,328.2,-306.9,291.0,-445.5,-59.7,-416.7,-591.3,-3334.5,220.5,1116.9,342.6,-1325.1,-3048.9,4211.4,118.2,-6.9,-6.0,55.8,345.0,-0.6,265.8,-585.0,-504.3,0,1116,0,251,0, 
0.6233,-252.6,316.2,-315.9,281.4,-460.5,-33.0,-412.5,-581.7,17858.1,201.0,1102.2,324.6,-1312.2,-2921.7,4659.3,120.9,-7.2,-5.7,49.8,330.9,-0.6,243.9,-299.4,-467.7,0,1122,0,252,0, 
0.6267,-251.4,312.3,-328.2,270.0,-469.5,-49.5,-417.0,-582.6,31863.0,200.7,1090.8,318.0,-1341.6,-2896.2,7335.0,125.7,-6.9,-5.7,39.3,327.0,-0.6,239.1,-220.5,-465.0,0,1128,0,253,0, 
0.6300,-252.6,324.0,-317.7,280.5,-455.7,-62.4,-417.6,-591.6,18895.5,210.3,1105.8,335.4,-1353.9,-3010.5,8515.8,111.3,-6.9,-5.4,52.2,339.9,-0.3,255.6,-461.4,-503.1,0,1134,0,254,0, 
0.6333,-249.0,336.9,-301.5,295.2,-444.0,-81.0,-414.0,-590.7,-2889.9,229.8,1121.1,350.4,-1316.7,-3097.2,6529.2,111.9,-7.2,-5.1,65.4,350.1,-0.3,267.3,-691.8,-530.7,0,1140,0,255,0, 
0.6367,-250.5,335.1,-298.8,294.9,-438.6,-54.9,-408.6,-579.3,-3482.7,219.3,1115.1,345.3,-1311.3,-3055.8,4086.3,117.6,-6.9,-6.0,64.2,349.5,-0.9,262.8,-592.8,-510.0,0,1146,0,0,0, 
0.6400,-255.9,312.9,-322.8,273.9,-459.6,-44.7,-414.0,-579.9,17932.2,195.9,1093.8,326.7,-1323.3,-2946.9,4541.7,129.0,-6.9,-5.7,47.4,337.5,-0.9,243.0,-294.6,-472.5,0,1152,0,1,0, 
0.6433,-257.4,305.4,-330.6,268.8,-468.0,-30.9,-413.7,-576.0,31492.5,190.2,1089.3,317.4,-1342.5,-2926.5,7221.6,123.9,-6.9,-6.0,43.5,317.7,-0.6,242.4,-208.2,-460.2,0,1158,0,2,0, 
0.6467,-257.4,317.4,-319.8,278.1,-457.5,-67.2,-416.7,-586.2,18302.7,204.3,1101.9,330.6,-1330.8,-3031.8,8369.1,110.1,-6.6,-6.0,52.8,332.1,-0.6,242.4,-450.0,-499.2,0,1164,0,3,0, 
0.6500,-256.5,333.0,-302.1,296.4,-438.9,-84.0,-419.7,-585.3,-3186.3,204.3,1117.8,345.3,-1328.4,-3135.3,6359.7,105.9,-7.2,-6.0,62.7,345.3,-0.6,264.3,-686.1,-548.1,0,1170,0,4,0, 
0.6533,-256.8,330.0,-311.4,295.5,-442.8,-78.9,-414.6,-578.1,-3779.1,209.7,1112.4,345.0,-1329.0,-3087.6,3932.4,109.2,-6.9,-6.0,56.1,351.0,-0.9,261.9,-580.5,-510.3,0,1176,0,5,0, 
0.6567,-257.1,314.1,-322.8,278.7,-461.4,-43.2,-410.1,-568.5,17709.9,191.4,1092.0,321.3,-1313.1,-2952.3,4386.0,115.5,-7.2,-5.7,36.0,322.8,-0.6,244.5,-276.0,-477.0,0,1182,0,6,0, 
0.6600,-265.8,301.5,-328.2,268.8,-469.8,-48.3,-416.7,-573.9,31270.2,186.0,1088.4,314.1,-1338.3,-2934.3,7072.2,114.9,-6.9,-5.7,36.0,319.5,-0.6,232.2,-211.2,-463.8,0,1188,0,7,0, 
0.6633,-260.4,315.9,-315.6,280.8,-459.3,-72.9,-416.7,-573.3,18006.3,193.2,1099.8,330.0,-1335.9,-3040.5,8220.6,109.8,-6.9,-6.0,43.2,328.2,-0.6,247.5,-447.9,-506.1,0,1194,0,8,0, 
0.6667,-258.0,327.0,-300.6,299.7,-440.1,-87.6,-414.6,-576.3,-3408.6,219.3,1116.6,353.7,-1337.4,-3145.5,6239.1,106.5,-7.2,-6.0,58.2,337.2,-0.9,270.3,-688.8,-542.7,0,1200,0,9,0, 
0.6700,-257.7,328.2,-305.4,298.2,-442.8,-71.7,-406.8,-567.6,-3705.0,210.6,1109.1,341.7,-1319.1,-3099.3,3824.4,111.9,-6.9,-5.7,54.9,342.0,-0.3,260.7,-579.9,-519.6,0,1206,0,10,0, 
0.6733,-261.6,308.4,-324.9,279.3,-464.7,-53.4,-413.4,-569.7,17932.2,178.5,1089.3,323.7,-1335.9,-2976.0,4329.0,117.3,-7.2,-6.0,35.1,325.8,-1.2,238.2,-288.3,-482.1,0,1212,0,11,0, 
0.6767,-261.9,300.6,-327.9,271.8,-469.2,-44.4,-413.1,-564.9,31418.4,177.6,1084.2,317.1,-1340.4,-2945.7,7035.0,117.3,-7.2,-6.0,34.2,322.2,-0.9,238.8,-196.8,-477.0,0,1218,0,12,0, 
0.6800,-259.2,313.8,-310.8,290.4,-450.6,-55.2,-415.2,-569.4,18080.4,192.3,1106.4,337.8,-1329.0,-3050.1,8184.0,107.4,-6.9,-5.7,51.6,339.0,-1.2,250.2,-443.7,-495.0,0,1224,0,13,0, 
0.6833,-258.0,335.1,-294.0,299.7,-440.1,-83.4,-412.2,-574.5,-3556.8,222.3,1122.6,348.9,-1314.3,-3144.6,6182.7,99.6,-6.9,-5.4,68.4,344.4,-0.9,271.5,-675.9,-534.3,0,1230,0,14,0, 
0.6867,-256.2,324.0,-304.5,294.0,-445.2,-48.9,-405.3,-565.2,-3705.0,201.9,1110.9,336.6,-1301.4,-3096.9,3780.6,108.9,-6.6,-6.0,57.6,338.7,-0.9,251.4,-566.4,-519.6,0,1236,0,15,0, 
0.6900,-260.1,309.6,-321.6,278.7,-463.8,-49.2,-405.6,-561.6,17932.2,189.0,1093.2,319.8,-1309.8,-2967.0,4302.0,119.1,-6.3,-6.0,40.5,328.2,-0.6,238.8,-268.2,-471.0,0,1242,0,16,0, 
0.6933,-260.7,300.9,-329.1,270.0,-473.1,-55.5,-410.4,-564.6,31640.7,187.2,1089.3,317.1,-1332.9,-2943.0,7050.3,115.8,-6.9,-5.7,35.4,322.5,-0.6,233.7,-191.1,-468.0,0,1248,0,17,0, 
0.6967,-261.9,313.5,-315.3,280.8,-460.2,-75.3,-414.0,-570.9,18525.0,204.3,1098.9,325.8,-1335.6,-3056.1,8228.7,104.4,-6.6,-5.7,42.9,331.2,-0.9,245.7,-433.5,-505.5,0,1254,0,18,0, 
0.7000,-257.4,326.4,-304.8,289.8,-440.4,-89.1,-412.2,-575.1,-3186.3,198.3,1110.0,339.0,-1321.5,-3146.7,6243.0,95.4,-6.6,-5.7,51.6,340.8,-0.6,257.4,-664.2,-534.9,0,1260,0,19,0, 
0.7033,-260.7,323.7,-308.4,286.5,-450.9,-79.2,-410.4,-568.2,-3038.1,209.1,1108.8,328.5,-1317.0,-3099.9,3888.6,110.4,-6.9,-5.7,50.1,330.3,-0.9,257.4,-565.2,-521.1,0,1266,0,20,0, 
0.7067,-258.0,311.4,-325.8,275.7,-469.2,-51.6,-408.0,-558.3,18747.3,191.1,1092.3,320.1,-1310.7,-2968.5,4467.9,111.6,-7.2,-6.0,42.3,334.8,-0.6,235.2,-265.8,-471.3,0,1272,0,21,0, 
0.7100,-259.2,304.2,-330.3,268.2,-481.8,-54.3,-414.6,-560.4,32159.4,186.3,1089.6,312.6,-1334.7,-2938.5,7230.6,108.0,-6.6,-4.8,36.6,315.9,-0.6,230.1,-201.9,-468.3,0,1278,0,22,0, 
0.7133,-261.9,316.5,-321.6,276.6,-465.9,-72.3,-408.9,-563.4,18895.5,201.3,1101.6,323.1,-1338.0,-3045.3,8406.6,104.4,-7.2,-6.3,47.1,321.0,-0.9,246.3,-447.0,-507.3,0,1284,0,23,0, 
0.7167,-260.4,336.0,-303.3,295.2,-446.4,-85.8,-410.1,-564.0,-2445.3,210.0,1118.4,341.4,-1301.1,-3141.3,6443.7,98.1,-7.2,-5.7,58.5,341.4,-1.2,263.4,-687.6,-542.1,0,1290,0,24,0, 
0.7200,-261.6,328.5,-305.4,293.4,-447.6,-65.7,-405.3,-559.5,-2445.3,206.7,1115.4,337.2,-1311.6,-3095.4,4098.9,100.8,-7.2,-6.0,58.5,336.9,-0.9,259.2,-570.6,-518.4,0,1296,0,25,0, 
0.7233,-260.4,312.6,-324.9,277.8,-467.7,-46.2,-408.3,-555.0,19340.1,195.9,1096.8,319.8,-1307.7,-2957.1,4693.8,113.7,-6.6,-6.0,44.4,323.7,-0.3,239.7,-289.2,-477.9,0,1302,0,26,0, 
0.7267,-267.6,296.1,-337.5,264.6,-476.1,-34.5,-406.5,-556.8,32752.2,174.6,1079.7,306.3,-1323.3,-2937.3,7461.6,117.3,-6.6,-6.0,27.0,308.1,-0.6,218.7,-196.5,-462.3,0,1308,0,27,0, 
0.7300,-264.6,314.1,-323.1,276.6,-463.5,-66.0,-412.2,-562.8,19191.9,200.7,1101.6,327.0,-1336.5,-3035.1,8621.7,108.6,-7.2,-5.7,45.3,323.1,-0.9,255.6,-441.9,-520.8,0,1314,0,28,0, 
0.7333,-263.1,324.9,-308.1,292.2,-444.3,-84.3,-406.5,-566.1,-2445.3,207.9,1116.9,346.5,-1306.2,-3121.2,6616.5,99.6,-6.9,-5.7,57.0,347.1,-1.2,265.5,-665.4,-533.4,0,1320,0,29,0, 
0.7367,-268.8,315.0,-318.3,282.3,-454.8,-74.1,-404.4,-563.7,-2074.8,195.9,1105.5,334.2,-1312.5,-3075.3,4257.9,111.6,-6.6,-6.0,47.4,336.3,-0.9,265.2,-558.9,-534.6,0,1326,0,30,0, 
0.7400,-269.1,298.5,-332.4,273.3,-464.4,-34.5,-409.2,-549.9,19562.4,177.9,1091.7,316.5,-1321.5,-2951.7,4853.4,115.2,-6.9,-6.3,31.5,327.3,-0.9,237.0,-276.0,-471.9,0,1332,0,31,0, 
0.7433,-269.1,299.7,-338.1,269.7,-468.9,-21.3,-408.0,-548.1,32900.4,176.1,1083.3,312.9,-1344.9,-2923.5,7611.3,111.3,-7.2,-6.3,22.5,326.4,-0.9,235.2,-199.2,-463.8,0,1338,0,32,0, 
0.7467,-266.1,315.9,-318.6,278.4,-460.8,-57.0,-407.1,-550.5,19191.9,201.9,1103.7,327.6,-1335.9,-3015.6,8740.5,108.3,-6.6,-5.7,44.1,330.6,-1.2,253.8,-434.1,-510.0,0,1344,0,33,0, 
0.7500,-264.3,327.9,-306.9,295.5,-438.0,-77.1,-406.2,-552.0,-2445.3,225.3,1124.1,350.7,-1317.3,-3099.0,6695.7,99.9,-6.9,-6.0,70.2,361.2,-0.6,279.6,-657.9,-536.7,0,1350,0,34,0, 
0.7533,-263.4,325.5,-312.6,290.7,-448.8,-60.3,-403.5,-549.6,-1926.6,210.3,1114.2,336.9,-1307.7,-3050.4,4339.5,106.5,-7.2,-6.0,63.3,336.9,-0.9,260.1,-561.9,-522.3,0,1356,0,35,0, 
0.7567,-267.6,305.4,-333.0,272.4,-471.9,-42.3,-402.3,-548.1,19932.9,188.1,1089.6,320.1,-1328.7,-2932.8,4935.0,114.9,-6.6,-6.0,47.1,326.7,-0.6,234.0,-266.7,-484.5,0,1362,0,36,0, 
0.7600,-270.0,300.6,-335.1,266.4,-475.2,-40.8,-402.6,-547.8,32900.4,187.8,1089.0,316.2,-1341.3,-2910.0,7685.7,111.3,-6.3,-6.3,47.1,325.2,-0.6,241.5,-202.2,-476.1,0,1368,0,37,0, 
0.7633,-268.8,314.1,-323.1,279.0,-456.3,-57.3,-401.4,-551.1,19414.2,192.6,1102.2,332.7,-1336.2,-3021.6,8831.4,102.0,-7.2,-5.7,58.8,340.2,-0.6,253.8,-451.8,-516.0,0,1374,0,38,0, 
0.7667,-266.4,333.3,-305.1,294.0,-447.0,-75.0,-398.1,-556.2,-2148.9,209.4,1117.5,345.0,-1333.2,-3116.1,6807.3,96.9,-6.9,-6.0,71.4,342.0,-0.6,262.2,-681.6,-550.5,0,1380,0,39,0, 
0.7700,-265.5,324.0,-312.9,290.4,-444.9,-55.5,-396.6,-547.5,-2000.7,208.5,1109.4,343.5,-1310.7,-3054.9,4424.4,100.8,-6.6,-5.4,63.3,355.5,-0.9,250.8,-563.7,-529.5,0,1386,0,40,0, 
0.7733,-268.5,306.9,-329.1,271.5,-471.9,-31.5,-399.3,-546.9,19858.8,178.5,1090.5,317.4,-1324.5,-2934.9,4992.6,109.5,-7.2,-5.7,48.9,326.1,-0.6,235.5,-273.6,-489.0,0,1392,0,41,0, 
0.7767,-266.7,298.2,-329.7,269.7,-473.1,-36.9,-401.1,-544.8,33048.6,183.6,1096.5,321.6,-1328.7,-2904.0,7747.5,110.7,-6.9,-6.3,53.1,333.6,-0.6,242.1,-216.3,-474.3,0,1398,0,42,0, 
0.7800,-266.1,315.3,-314.7,282.6,-461.1,-54.6,-398.1,-549.0,18747.3,204.3,1108.2,335.1,-1321.5,-3007.2,8813.1,98.7,-6.6,-6.0,63.9,345.6,-0.6,256.5,-445.5,-516.9,0,1404,0,43,0, 
0.7833,-262.5,331.8,-301.2,295.5,-443.1,-69.0,-392.7,-552.3,-2667.6,213.9,1119.6,346.2,-1314.0,-3096.9,6729.0,104.7,-6.9,-6.0,71.1,353.7,-0.9,262.8,-670.8,-542.4,0,1410,0,44,0, 
0.7867,-260.7,329.7,-304.8,291.6,-449.4,-57.6,-392.4,-546.6,-2445.3,213.3,1110.9,340.2,-1305.6,-3048.3,4340.1,114.0,-6.9,-6.0,67.5,346.5,-0.3,261.0,-558.0,-527.4,0,1416,0,45,0, 
0.7900,-262.5,310.2,-322.8,275.4,-468.3,-36.0,-399.3,-540.9,19488.3,191.7,1090.2,320.7,-1312.8,-2921.4,4924.5,116.1,-6.9,-6.0,51.9,329.4,-0.9,238.8,-274.5,-484.8,0,1422,0,46,0, 
0.7933,-262.8,307.8,-327.0,274.5,-471.3,-30.9,-399.9,-540.9,32233.5,191.7,1089.0,315.3,-1322.7,-2895.6,7641.6,115.5,-7.2,-5.7,51.0,331.8,-0.6,247.2,-213.6,-474.0,0,1428,0,47,0, 
0.7967,-263.1,324.0,-314.1,282.0,-455.7,-42.9,-403.8,-550.8,18302.7,205.8,1104.9,331.5,-1329.3,-3013.2,8680.2,104.4,-6.9,-6.3,64.8,349.2,-0.6,257.1,-461.7,-504.9,0,1434,0,48,0, 
0.8000,-257.7,339.0,-296.1,293.7,-445.2,-69.6,-401.7,-552.0,-3260.4,226.5,1121.7,349.2,-1319.4,-3104.4,6580.5,102.6,-7.2,-5.7,77.1,357.3,-0.9,278.1,-678.3,-548.1,0,1440,0,49,0, 
0.8033,-259.2,339.3,-296.1,296.4,-443.4,-36.9,-398.7,-543.9,-2445.3,221.1,1119.6,347.1,-1315.2,-3050.1,4198.2,105.9,-6.9,-6.0,76.2,357.0,-0.9,269.4,-573.9,-527.1,0,1446,0,50,0, 
0.8067,-258.6,315.6,-316.2,274.2,-470.7,-37.8,-402.3,-544.2,19266.0,197.1,1093.2,315.3,-1314.0,-2918.4,4813.5,118.8,-6.9,-6.0,54.0,327.9,-0.6,237.6,-275.7,-497.4,0,1452,0,51,0, 
0.8100,-259.5,305.1,-335.1,250.8,-494.4,-45.0,-412.8,-548.7,32233.5,182.7,1057.2,277.5,-1329.3,-2894.7,7546.5,115.2,-6.9,-5.7,18.6,294.3,-0.6,221.1,-215.4,-490.8,0,1458,0,52,0, 
0.8133,-262.5,315.6,-325.5,264.0,-467.7,-42.9,-409.2,-550.5,18006.3,197.4,1057.8,295.5,-1337.1,-3024.9,8592.0,109.5,-6.9,-5.7,21.3,317.1,-0.6,253.2,-480.9,-518.1,0,1464,0,53,0, 
0.8167,-259.5,338.1,-296.7,293.4,-435.6,-43.2,-393.9,-549.0,-3705.0,219.9,1107.9,355.5,-1332.3,-3117.0,6475.5,108.6,-6.9,-5.4,62.1,367.5,-0.3,265.2,-682.8,-511.2,0,1470,0,54,0, 
0.8200,-258.0,334.8,-295.8,296.7,-434.7,-44.1,-393.9,-541.8,-2815.8,226.8,1130.4,363.6,-1327.5,-3058.8,4092.0,114.0,-6.9,-6.0,81.9,369.3,-0.9,276.3,-576.6,-515.1,0,1476,0,55,0, 
0.8233,-261.9,319.2,-313.2,283.8,-453.0,-18.0,-404.1,-540.0,19488.3,196.8,1118.4,349.2,-1324.8,-2929.5,4744.5,126.9,-6.9,-6.0,61.8,360.6,-0.3,255.9,-271.5,-481.5,0,1482,0,56,0, 
0.8267,-259.8,304.5,-326.7,272.4,-460.5,-12.3,-405.9,-543.9,32381.7,192.9,1102.8,339.3,-1328.1,-2901.3,7503.6,124.8,-6.9,-5.7,45.6,356.7,-0.9,251.7,-207.3,-465.9,0,1488,0,57,0, 
0.8300,-261.0,321.3,-312.3,285.3,-444.6,-30.6,-401.7,-547.2,17635.8,205.5,1104.9,350.7,-1326.9,-3024.0,8532.3,116.1,-7.2,-6.0,48.3,366.6,-0.3,266.7,-472.2,-505.8,0,1494,0,58,0, 
0.8333,-257.1,332.7,-305.7,293.4,-433.8,-49.8,-398.7,-550.2,-4446.0,212.7,1106.1,352.5,-1340.1,-3126.3,6325.2,117.6,-6.9,-6.0,42.3,367.5,-0.6,271.2,-691.5,-537.9,0,1500,0,59,0, 
0.8367,-257.1,331.2,-300.3,298.5,-433.5,-28.2,-393.3,-543.0,-2445.3,207.9,1126.5,358.2,-1320.0,-3058.5,3957.3,127.2,-6.9,-6.0,65.7,372.3,-0.6,268.2,-563.7,-512.4,0,1506,0,60,0, 
0.8400,-255.9,313.5,-316.2,287.7,-444.0,-7.2,-399.0,-540.3,21340.8,205.5,1119.0,355.2,-1337.1,-2923.5,4800.0,129.3,-6.6,-6.0,54.0,374.1,-0.6,258.9,-245.1,-464.7,0,1512,0,61,0, 
0.8433,-259.5,309.0,-322.8,282.0,-444.6,15.9,-399.6,-539.1,35197.5,183.3,1110.9,354.6,-1336.8,-2895.3,7862.7,121.5,-7.2,-6.0,41.1,374.4,-0.6,257.4,-164.1,-450.0,0,1518,0,62,0, 
0.8467,-258.0,321.3,-316.5,288.0,-444.9,-32.7,-405.3,-554.7,18525.0,203.1,1114.8,356.7,-1352.4,-3019.2,9009.3,122.4,-6.9,-6.0,37.8,360.3,-0.6,272.4,-454.8,-509.4,0,1524,0,63,0, 
0.8500,-250.5,347.4,-289.2,312.3,-415.8,-44.7,-399.9,-549.6,-7558.2,236.4,1144.2,387.6,-1323.6,-3130.2,6402.9,112.2,-6.9,-6.0,70.2,399.0,-0.9,304.8,-727.8,-535.8,0,1530,0,64,0, 
0.8533,-251.1,338.1,-300.6,302.1,-429.0,-29.4,-396.0,-547.8,-5631.6,220.5,1135.2,367.2,-1321.5,-3066.0,3556.8,119.1,-6.9,-6.0,62.4,377.4,-0.3,274.2,-572.4,-510.0,0,1536,0,65,0, 
0.8567,-253.5,313.5,-324.3,274.5,-451.2,-6.3,-395.1,-544.2,22007.7,195.3,1104.0,337.2,-1333.8,-2911.8,4485.6,133.8,-7.8,-6.0,33.6,358.5,-0.6,249.0,-201.0,-450.0,0,1542,0,66,0, 
0.8600,-255.3,305.1,-328.2,273.3,-460.8,5.4,-404.4,-544.8,36827.7,193.5,1095.0,330.0,-1358.4,-2879.7,7907.7,130.5,-6.9,-5.7,22.8,345.9,-0.6,248.7,-132.3,-466.5,0,1548,0,67,0, 
0.8633,-253.8,324.0,-313.5,281.7,-452.1,-42.9,-408.9,-558.3,18376.8,204.0,1111.2,352.5,-1344.9,-3020.4,9086.1,120.3,-7.2,-6.0,38.1,370.2,-0.6,270.0,-467.4,-507.0,0,1554,0,68,0, 
0.8667,-252.6,342.6,-299.1,294.0,-435.9,-45.9,-404.1,-557.4,-7854.6,225.0,1120.2,362.7,-1335.9,-3137.7,6382.5,119.7,-6.9,-5.4,45.0,372.3,-0.6,278.4,-719.4,-551.7,0,1560,0,69,0, 
0.8700,-249.3,339.3,-299.4,294.9,-435.3,-30.6,-399.0,-549.6,-5631.6,215.4,1117.8,358.8,-1314.9,-3053.1,3519.9,119.1,-6.9,-6.3,44.1,367.8,-0.6,265.5,-564.9,-506.7,0,1566,0,70,0, 
0.8733,-254.1,313.8,-319.2,281.7,-453.6,-5.7,-405.9,-542.7,22452.3,193.8,1097.7,338.1,-1332.9,-2906.7,4494.3,132.3,-7.2,-5.4,27.6,360.9,-0.9,261.3,-204.6,-452.7,0,1572,0,71,0, 
0.8767,-254.7,309.3,-328.8,273.6,-463.2,-0.3,-408.9,-544.5,37346.4,178.2,1091.1,333.6,-1330.5,-2884.2,7974.0,131.1,-6.6,-6.0,22.2,352.2,-0.9,238.5,-134.1,-453.0,0,1578,0,72,0, 
0.8800,-252.3,326.7,-308.7,290.4,-442.5,-27.3,-411.3,-552.3,18525.0,207.0,1115.4,353.7,-1330.5,-3023.7,9157.2,121.2,-6.6,-5.7,41.1,369.0,-0.9,276.0,-468.3,-505.2,0,1584,0,73,0, 
0.8833,-251.1,341.4,-295.2,303.3,-426.6,-44.1,-406.5,-554.4,-8151.0,221.1,1127.4,369.0,-1323.0,-3137.1,6408.3,117.0,-6.6,-5.7,52.2,381.3,-0.9,283.8,-732.3,-539.4,0,1590,0,74,0, 
0.8867,-257.4,331.8,-306.6,298.8,-432.3,-26.1,-404.1,-550.2,-5705.7,210.3,1112.4,358.5,-1326.9,-3069.6,3528.6,127.8,-6.9,-5.7,35.7,379.2,-0.9,264.0,-573.6,-518.1,0,1596,0,75,0, 
0.8900,-255.6,310.5,-325.8,276.3,-462.9,-2.7,-411.9,-547.5,22452.3,195.6,1092.6,330.9,-1327.8,-2910.0,4500.6,126.6,-7.2,-6.0,15.3,341.4,-0.6,248.4,-213.9,-474.0,0,1602,0,76,0, 
0.8933,-260.1,306.0,-331.8,270.0,-467.7,-8.1,-411.0,-554.7,37272.3,179.1,1089.9,328.5,-1331.1,-2892.9,7974.9,125.4,-6.9,-5.7,6.3,344.4,-0.6,245.7,-146.7,-461.4,0,1608,0,77,0, 
0.8967,-257.4,326.7,-315.3,282.0,-447.0,-37.8,-412.8,-562.2,18599.1,215.4,1105.5,347.7,-1334.4,-3036.0,9145.5,115.5,-7.2,-6.0,23.1,362.1,-0.9,258.6,-481.5,-509.1,0,1614,0,78,0, 
0.9000,-256.2,336.3,-301.5,298.2,-430.5,-29.7,-406.2,-562.5,-8002.8,218.1,1112.4,356.7,-1320.9,-3152.7,6412.5,111.6,-6.9,-5.1,37.8,368.1,-0.9,269.1,-743.4,-531.9,0,1620,0,79,0, 
0.9033,-255.3,333.0,-306.6,291.3,-441.9,-41.7,-412.2,-560.1,-5557.5,216.0,1110.3,351.9,-1313.1,-3077.1,3542.7,121.8,-6.9,-5.7,37.8,362.7,0.0,273.3,-591.9,-530.1,0,1626,0,80,0, 
0.9067,-258.0,303.9,-327.9,270.0,-465.0,-12.3,-409.8,-558.3,22526.4,176.1,1091.4,335.1,-1323.9,-2911.5,4535.4,141.0,-7.5,-5.7,20.1,354.0,-0.3,234.3,-210.3,-465.3,0,1632,0,81,0, 
0.9100,-258.3,300.6,-338.7,261.0,-473.1,-9.9,-412.5,-561.3,37716.9,181.5,1081.8,322.2,-1325.1,-2890.2,8016.3,133.8,-6.6,-6.3,15.3,334.8,-0.6,236.7,-156.0,-464.4,0,1638,0,82,0, 
0.9133,-259.2,315.9,-326.4,272.4,-456.3,-33.0,-408.9,-571.2,18228.6,207.9,1094.7,337.5,-1333.2,-3031.2,9177.0,125.1,-6.9,-6.0,27.3,350.7,-0.9,261.6,-469.8,-506.7,0,1644,0,83,0, 
0.9167,-255.6,337.8,-304.8,290.7,-436.8,-45.6,-409.5,-571.2,-8373.3,215.1,1116.6,356.4,-1323.3,-3140.7,6403.8,120.0,-6.6,-5.7,41.4,365.4,-0.9,275.1,-749.1,-546.0,0,1650,0,84,0, 
0.9200,-258.9,320.4,-321.0,279.3,-450.9,-33.0,-406.2,-571.8,-5779.8,202.8,1101.3,343.8,-1320.3,-3062.4,3507.6,131.4,-6.9,-5.7,29.4,358.2,-0.9,262.2,-575.1,-511.5,0,1656,0,85,0, 
0.9233,-260.1,298.8,-342.9,259.8,-480.0,-19.2,-414.3,-569.7,22378.2,184.5,1078.5,319.5,-1316.1,-2904.6,4481.4,136.2,-6.9,-5.4,9.6,334.8,-0.6,244.5,-226.8,-474.9,0,1662,0,86,0, 
0.9267,-259.5,294.3,-348.9,254.1,-480.0,-4.8,-409.5,-565.5,36679.5,179.1,1071.6,314.1,-1342.8,-2878.2,7915.5,138.0,-7.2,-6.0,1.2,332.7,-0.6,242.4,-129.6,-465.3,0,1668,0,87,0, 
0.9300,-261.6,310.8,-330.0,269.4,-460.5,-36.6,-413.7,-576.3,17635.8,202.5,1093.5,336.9,-1346.4,-3037.2,8999.1,121.5,-7.2,-5.4,16.8,357.3,-0.6,258.6,-465.3,-502.5,0,1674,0,88,0, 
0.9333,-256.8,330.9,-307.5,291.9,-433.2,-51.0,-407.4,-576.0,-9262.5,220.5,1119.0,361.8,-1336.8,-3138.3,6165.9,114.3,-6.9,-5.7,38.7,372.3,-0.6,285.0,-735.6,-537.0,0,1680,0,89,0, 
0.9367,-259.8,321.3,-317.7,284.4,-445.2,-24.3,-403.2,-567.0,-6520.8,204.3,1103.1,349.5,-1332.6,-3076.5,3255.3,125.1,-6.6,-5.7,26.1,360.3,-0.9,267.9,-584.4,-509.1,0,1686,0,90,0, 
0.9400,-263.4,304.5,-334.8,268.8,-467.4,-13.2,-409.2,-559.5,21637.2,185.7,1081.5,322.8,-1343.4,-2921.7,4230.3,132.0,-6.9,-6.0,3.0,349.5,-0.9,246.9,-209.1,-466.8,0,1692,0,91,0, 
0.9433,-260.7,296.1,-346.2,255.9,-477.6,-20.7,-415.5,-568.2,36309.0,187.8,1072.5,317.7,-1347.3,-2897.4,7676.1,135.6,-6.6,-6.0,-0.9,341.7,-0.6,234.3,-155.4,-462.0,0,1698,0,92,0, 
0.9467,-258.0,317.1,-324.0,278.7,-450.3,-35.4,-413.4,-570.9,16820.7,199.5,1098.9,347.1,-1346.4,-3038.4,8761.8,123.0,-7.2,-6.0,19.8,364.8,-0.9,265.5,-465.3,-504.9,0,1704,0,93,0, 
0.9500,-254.4,336.6,-306.6,297.3,-429.9,-45.6,-408.0,-571.8,-9633.0,226.2,1113.9,365.4,-1327.8,-3160.2,5925.9,117.0,-6.9,-5.4,34.8,378.3,-0.6,290.7,-739.2,-542.1,0,1710,0,94,0, 
0.9533,-251.7,332.7,-309.3,293.7,-433.5,-33.3,-404.1,-566.7,-6891.3,207.9,1107.6,358.2,-1311.6,-3087.6,3039.9,127.5,-6.9,-6.0,28.5,373.5,-0.6,276.0,-585.9,-509.7,0,1716,0,95,0, 
0.9567,-256.2,311.7,-332.1,274.5,-460.8,8.7,-401.7,-558.3,21414.9,187.5,1085.1,328.5,-1323.9,-2931.3,4027.2,136.2,-6.9,-6.0,9.6,342.3,-0.6,250.5,-225.6,-465.9,0,1722,0,96,0, 
0.9600,-255.9,305.4,-341.4,263.1,-473.1,-15.0,-410.1,-570.3,36383.1,177.3,1074.9,322.5,-1342.5,-2910.0,7511.7,140.7,-7.2,-6.3,-0.9,345.0,-0.6,240.0,-154.5,-452.4,0,1728,0,97,0, 
0.9633,-252.6,323.4,-324.0,280.5,-449.1,-40.5,-410.7,-575.4,17339.4,202.5,1091.4,346.8,-1341.6,-3054.3,8678.1,127.2,-6.9,-5.4,11.1,362.1,-0.6,259.5,-481.5,-506.4,0,1734,0,98,0, 
0.9667,-250.2,341.7,-304.2,297.9,-429.9,-55.5,-406.2,-576.0,-9188.4,214.5,1117.2,367.8,-1334.4,-3167.4,5922.0,124.8,-6.6,-6.0,34.5,381.0,-0.6,279.6,-736.2,-543.6,0,1740,0,99,0, 
0.9700,-249.3,330.0,-313.8,293.7,-435.6,-35.7,-404.4,-570.3,-6372.6,207.3,1109.4,359.4,-1319.1,-3085.5,3082.8,129.0,-7.2,-5.7,33.0,371.4,-0.6,273.0,-579.6,-516.3,0,1746,0,100,0, 
0.9733,-251.7,312.6,-332.7,277.2,-448.8,-3.6,-404.7,-559.2,21859.5,180.6,1086.3,340.2,-1325.1,-2927.7,4115.4,139.2,-6.9,-6.0,10.2,367.2,-0.3,242.7,-206.7,-458.7,0,1752,0,101,0, 
0.9767,-254.1,305.7,-343.5,266.7,-471.3,-15.3,-412.2,-569.1,36753.6,174.0,1078.8,324.6,-1350.9,-2901.0,7612.8,140.7,-6.9,-6.3,-1.8,331.5,-0.6,236.7,-135.3,-457.8,0,1758,0,102,0, 
0.9800,-252.0,329.7,-322.5,284.1,-444.3,-40.5,-413.1,-573.0,17932.2,204.3,1099.2,353.1,-1340.1,-3052.5,8800.8,124.2,-6.9,-5.4,26.1,367.8,-0.9,265.5,-471.9,-510.9,0,1764,0,103,0, 
0.9833,-249.0,348.3,-302.4,298.8,-433.8,-54.0,-405.0,-575.4,-8669.7,218.7,1115.7,366.3,-1323.6,-3160.8,6069.0,116.7,-7.2,-5.4,44.1,364.5,-0.9,277.5,-729.9,-542.7,0,1770,0,104,0, 
0.9867,-249.3,341.7,-309.9,294.9,-439.5,-42.6,-408.6,-568.2,-5779.8,217.5,1109.7,363.9,-1312.8,-3088.8,3239.4,129.6,-6.9,-5.7,42.3,369.9,-0.6,274.2,-571.2,-520.8,0,1776,0,105,0, 
0.9900,-254.1,321.3,-336.0,273.3,-463.8,-7.5,-414.9,-569.1,22600.5,186.0,1082.1,336.0,-1328.4,-2927.1,4269.3,137.7,-7.2,-6.0,14.4,346.5,-0.6,240.9,-214.2,-455.1,0,1782,0,106,0, 
0.9933,-254.1,314.7,-340.2,269.1,-468.0,-18.9,-412.5,-568.2,37124.1,182.1,1082.7,339.3,-1338.0,-2907.3,7764.9,143.4,-6.9,-5.1,15.3,349.5,-0.3,240.6,-141.9,-465.9,0,1788,0,107,0, 
0.9967,-251.7,335.4,-317.1,287.4,-444.3,-45.6,-418.8,-570.9,17561.7,205.8,1103.7,362.7,-1335.3,-3053.4,8893.2,123.0,-6.9,-5.7,36.6,370.2,-1.2,276.3,-473.4,-513.9,0,1794,0,108,0, 
1.0000,-248.1,351.3,-301.5,301.5,-425.7,-48.9,-411.0,-570.6,-8892.0,234.0,1120.8,382.8,-1323.6,-3152.4,6103.5,125.1,-6.9,-6.0,52.2,379.2,-0.9,287.7,-738.6,-542.4,0,1800,0,109,0, 
1.0033,-249.0,346.8,-308.4,298.2,-433.8,-26.7,-409.8,-564.3,-5705.7,210.3,1115.4,372.3,-1311.3,-3078.3,3266.7,129.0,-7.2,-6.3,47.4,367.2,-1.2,277.2,-579.6,-518.4,0,1806,0,110,0, 
1.0067,-251.4,320.1,-336.9,270.9,-460.5,-25.5,-417.0,-562.5,22452.3,200.4,1082.4,342.9,-1324.5,-2907.6,4305.0,140.7,-6.9,-6.3,17.1,354.6,-0.9,248.1,-194.4,-469.5,0,1812,0,111,0, 
1.0100,-252.9,317.4,-339.6,270.0,-460.2,-5.1,-416.1,-561.0,37050.0,198.6,1087.2,345.9,-1333.5,-2887.2,7788.0,133.8,-6.9,-5.7,26.7,352.5,-1.2,254.7,-133.8,-462.0,0,1818,0,112,0, 
1.0133,-249.9,339.9,-319.2,285.3,-441.9,-42.9,-421.2,-571.2,17561.7,216.9,1110.0,369.0,-1317.6,-3038.7,8897.1,126.3,-6.6,-5.7,46.8,370.5,-0.9,271.2,-468.3,-513.6,0,1824,0,113,0, 
1.0167,-251.4,352.2,-302.4,301.8,-423.0,-44.4,-411.6,-576.6,-8966.1,234.6,1121.4,387.0,-1314.3,-3154.2,6081.0,120.3,-7.2,-6.0,51.9,389.7,-0.9,293.1,-737.1,-538.8,0,1830,0,114,0, 
1.0200,-255.9,336.6,-316.2,291.0,-439.8,-36.9,-413.4,-573.0,-5705.7,213.0,1102.8,363.6,-1302.3,-3074.7,3244.8,136.2,-6.6,-5.7,38.1,368.1,-0.3,269.7,-564.9,-522.3,0,1836,0,115,0, 
1.0233,-259.5,316.5,-334.2,275.4,-455.4,-2.4,-414.0,-566.1,22896.9,191.4,1087.2,348.6,-1309.8,-2918.7,4309.8,139.5,-6.9,-5.7,21.9,357.6,-0.6,242.4,-200.1,-465.6,0,1842,0,116,0, 
1.0267,-259.8,313.8,-339.6,269.4,-463.5,-10.5,-417.9,-568.8,37272.3,187.5,1085.4,345.3,-1321.2,-2891.1,7815.0,135.6,-6.9,-6.3,20.7,350.7,-0.9,243.0,-137.7,-466.2,0,1848,0,117,0, 
1.0300,-255.6,330.6,-319.2,286.2,-445.2,-31.8,-418.8,-576.0,17413.5,214.2,1103.1,366.6,-1333.2,-3039.6,8900.1,120.6,-7.2,-6.3,35.4,369.9,-0.9,279.6,-484.2,-510.9,0,1854,0,118,0, 
1.0333,-252.0,349.2,-301.5,301.8,-425.7,-48.0,-417.0,-574.5,-8892.0,223.5,1122.3,385.2,-1319.7,-3156.0,6072.9,119.1,-6.6,-5.4,49.2,382.5,-0.9,289.5,-748.5,-546.9,0,1860,0,119,0, 
1.0367,-253.2,344.7,-306.3,299.1,-431.1,-33.3,-410.4,-568.2,-5483.4,223.2,1115.4,376.5,-1311.6,-3086.7,3265.2,129.0,-6.9,-5.7,41.1,375.6,-0.9,278.7,-577.5,-515.4,0,1866,0,120,0, 
1.0400,-256.2,328.8,-325.2,280.8,-440.7,1.5,-410.1,-560.4,23045.1,203.7,1092.9,352.5,-1332.3,-2919.6,4369.2,137.4,-6.6,-5.7,24.9,360.3,-0.9,270.9,-213.9,-460.8,0,1872,0,121,0, 
1.0433,-260.4,310.8,-338.1,270.3,-456.6,-4.8,-414.9,-571.2,37198.2,192.0,1084.8,349.2,-1339.2,-2905.2,7871.4,134.1,-6.9,-5.7,19.5,365.1,-0.6,251.4,-147.6,-456.9,0,1878,0,122,0, 
1.0467,-256.8,334.5,-318.3,285.6,-449.1,-29.7,-408.9,-577.8,17265.3,213.3,1105.2,367.8,-1324.2,-3050.4,8925.0,120.6,-6.9,-6.0,37.2,361.2,-0.9,282.0,-484.2,-510.0,0,1884,0,123,0, 
1.0500,-251.4,351.0,-301.5,303.3,-435.3,-45.0,-403.8,-578.1,-9188.4,227.1,1119.0,383.4,-1317.9,-3160.2,6073.5,118.2,-6.9,-5.7,51.6,372.0,-0.9,290.4,-740.7,-546.3,0,1890,0,124,0, 
1.0533,-251.4,341.4,-312.6,300.0,-430.8,-4.5,-402.3,-567.9,-5779.8,218.4,1109.7,375.3,-1314.9,-3082.5,3223.8,126.0,-6.6,-6.0,41.4,369.3,-0.3,279.9,-579.3,-493.8,0,1896,0,125,0, 
1.0567,-256.8,321.6,-332.1,273.0,-465.6,-28.8,-413.7,-571.5,22674.6,192.3,1084.8,350.4,-1311.6,-2925.6,4302.0,138.6,-6.6,-6.0,24.3,355.2,-0.9,255.3,-221.4,-466.2,0,1902,0,126,0, 
1.0600,-254.7,318.3,-339.0,267.3,-468.3,-11.4,-411.3,-571.8,36679.5,203.1,1080.6,342.3,-1325.1,-2896.2,7797.9,145.2,-6.6,-5.4,16.5,335.4,-0.9,254.4,-152.7,-461.1,0,1908,0,127,0, 
1.0633,-256.8,336.6,-322.2,285.3,-450.6,-38.7,-411.6,-582.3,16598.4,213.6,1101.6,366.3,-1344.6,-3050.7,8803.8,131.1,-6.6,-5.4,33.0,366.3,-0.6,274.2,-486.9,-505.8,0,1914,0,128,0, 
1.0667,-252.3,352.5,-301.8,304.2,-426.6,-54.9,-408.6,-584.4,-9633.0,223.5,1124.7,390.9,-1305.9,-3154.8,5928.0,124.5,-6.9,-6.0,59.4,386.7,-0.9,296.1,-747.9,-537.9,0,1920,0,129,0, 
1.0700,-250.2,352.5,-300.0,307.5,-426.3,-30.9,-406.8,-573.9,-5928.0,219.0,1120.8,390.0,-1290.9,-3071.1,3086.1,124.8,-6.9,-5.4,57.6,390.9,-0.9,294.3,-589.2,-507.0,0,1926,0,130,0, 
1.0733,-257.4,321.9,-327.9,281.7,-455.1,-12.6,-414.3,-577.8,22896.9,191.4,1094.7,359.4,-1313.4,-2927.1,4209.3,133.2,-7.2,-6.0,27.9,363.6,-0.6,265.5,-232.8,-461.1,0,1932,0,131,0, 
1.0767,-258.0,320.4,-330.3,275.1,-455.1,-9.3,-422.1,-578.7,36753.6,195.3,1089.9,356.4,-1325.7,-2904.3,7722.0,128.4,-6.6,-5.4,23.4,363.9,-0.6,263.7,-173.4,-448.2,0,1938,0,132,0, 
1.0800,-257.4,338.7,-313.8,285.3,-441.0,-43.5,-424.5,-590.4,16672.5,203.1,1106.7,372.0,-1321.2,-3056.4,8757.9,114.9,-7.2,-5.7,32.4,374.1,-1.2,273.6,-509.1,-511.8,0,1944,0,133,0, 
1.0833,-258.6,351.0,-303.6,295.5,-433.2,-62.7,-419.7,-594.9,-9781.2,224.7,1118.1,384.6,-1311.6,-3165.9,5879.1,111.0,-6.9,-5.4,42.3,379.8,-0.9,286.8,-765.0,-534.0,0,1950,0,134,0, 
1.0867,-258.0,347.1,-311.1,292.8,-436.5,-51.6,-422.4,-591.0,-5928.0,215.7,1105.2,375.0,-1305.6,-3085.5,3050.1,118.8,-6.9,-5.7,35.4,372.9,-0.9,279.0,-595.8,-533.4,0,1956,0,135,0, 
1.0900,-261.6,325.8,-334.5,270.0,-463.8,-19.2,-423.9,-586.8,22674.6,193.8,1083.6,348.9,-1319.1,-2928.0,4156.2,127.2,-7.2,-5.7,13.8,349.2,-0.6,249.6,-228.6,-467.1,0,1962,0,136,0, 
1.0933,-261.9,316.8,-342.6,264.9,-468.3,-21.6,-429.9,-588.9,36531.3,185.4,1080.9,348.0,-1351.5,-2911.8,7643.1,122.7,-7.2,-5.4,10.2,350.7,-0.6,249.0,-180.0,-467.1,0,1968,0,137,0, 
1.0967,-260.1,335.1,-325.8,283.2,-445.2,-45.3,-425.1,-594.9,16153.8,207.3,1101.3,372.6,-1329.0,-3058.5,8653.2,108.3,-6.9,-5.7,27.9,373.5,-0.3,273.6,-518.4,-507.9,0,1974,0,138,0, 
1.1000,-258.0,353.4,-307.8,304.5,-425.1,-47.1,-420.6,-593.7,-10077.6,231.0,1121.1,390.0,-1316.4,-3166.8,5759.1,105.9,-6.9,-5.7,48.0,381.3,-0.6,290.4,-780.6,-549.6,0,1980,0,139,0, 
1.1033,-258.0,343.5,-312.3,296.1,-436.2,-50.1,-413.1,-589.2,-6372.6,214.2,1109.1,379.8,-1324.2,-3090.6,2924.1,118.5,-6.6,-5.7,39.6,378.3,-0.6,273.3,-588.0,-522.6,0,1986,0,140,0, 
1.1067,-261.0,322.2,-334.8,274.2,-462.6,-22.8,-417.6,-584.1,22230.0,192.3,1084.2,352.8,-1334.7,-2931.3,4037.1,126.0,-6.6,-6.0,13.5,351.0,-0.6,253.2,-224.4,-463.2,0,1992,0,141,0, 
1.1100,-258.0,322.8,-331.5,279.9,-456.6,-11.1,-425.1,-582.9,36086.7,199.8,1092.3,361.2,-1341.6,-2914.8,7505.7,119.1,-6.9,-5.7,18.9,367.8,-0.6,258.0,-178.5,-454.2,0,1998,0,142,0, 
1.1133,-257.4,339.6,-314.1,291.3,-443.4,-40.2,-427.2,-591.6,15561.0,224.4,1108.8,372.3,-1337.7,-3068.1,8481.3,105.6,-6.9,-5.7,37.2,366.9,-0.9,268.2,-520.2,-518.4,0,2004,0,143,0, 
1.1167,-255.6,356.4,-300.9,300.6,-432.0,-55.2,-420.0,-595.2,-10522.2,238.2,1114.5,381.3,-1309.8,-3182.7,5577.9,101.4,-6.9,-5.7,42.0,372.0,-0.9,276.6,-778.5,-558.3,0,2010,0,144,0, 
1.1200,-253.2,347.4,-312.3,294.3,-442.8,-41.1,-417.3,-592.8,-6817.2,229.5,1104.3,366.3,-1294.2,-3106.2,2768.7,116.7,-6.9,-5.7,34.8,366.0,-0.3,257.1,-606.3,-524.1,0,2016,0,145,0, 
1.1233,-254.7,326.1,-335.4,274.2,-462.6,-7.5,-417.9,-587.4,21785.4,201.3,1079.7,344.1,-1315.5,-2937.0,3882.6,127.8,-7.2,-5.7,4.5,352.5,-0.3,230.7,-230.7,-476.1,0,2022,0,146,0, 
1.1267,-254.4,321.9,-341.7,262.8,-474.0,-22.5,-426.6,-594.9,35493.9,201.6,1080.0,342.3,-1326.0,-2918.7,7341.6,126.0,-7.2,-6.0,6.0,341.1,-0.6,230.1,-184.8,-474.3,0,2028,0,147,0, 
1.1300,-252.9,336.6,-324.6,280.2,-452.1,-48.3,-425.1,-603.3,15338.7,219.9,1098.3,367.2,-1332.3,-3074.4,8305.8,114.9,-6.9,-6.0,21.0,360.0,-0.9,259.2,-511.8,-519.3,0,2034,0,148,0, 
1.1333,-248.1,352.5,-307.5,293.7,-434.4,-55.8,-417.3,-603.6,-11411.4,229.8,1109.1,377.4,-1330.5,-3184.2,5373.9,115.5,-6.9,-6.0,30.9,379.2,-0.6,284.7,-771.0,-547.8,0,2040,0,149,0, 
1.1367,-251.1,341.4,-316.8,289.8,-441.0,-23.4,-415.2,-598.5,-7261.8,216.0,1099.8,367.2,-1310.7,-3111.3,2532.0,119.7,-7.2,-5.4,26.1,375.3,-0.9,268.2,-586.2,-512.7,0,2046,0,150,0, 
1.1400,-255.0,323.4,-335.4,273.0,-461.7,-21.0,-420.9,-595.5,21563.1,181.2,1081.8,350.7,-1311.3,-2961.3,3656.7,131.4,-7.2,-5.7,10.8,359.7,-0.6,251.7,-230.7,-467.4,0,2052,0,151,0, 
1.1433,-252.6,317.4,-340.8,268.8,-464.4,-16.5,-422.4,-598.8,35197.5,185.1,1086.3,350.4,-1323.9,-2946.6,7120.8,127.2,-6.9,-6.3,12.3,360.3,-0.3,258.9,-178.5,-466.2,0,2058,0,152,0, 
1.1467,-252.6,335.7,-319.2,288.9,-441.6,-35.4,-423.6,-606.0,14523.6,216.6,1112.1,375.6,-1325.7,-3106.5,8069.1,118.8,-6.6,-6.0,33.3,374.1,-0.6,271.8,-513.9,-512.7,0,2064,0,153,0, 
1.1500,-247.2,356.7,-300.9,306.9,-423.9,-61.5,-416.1,-608.1,-11781.9,231.0,1125.6,393.9,-1310.4,-3217.5,5137.5,115.8,-6.9,-5.7,46.8,393.0,-0.3,296.7,-769.8,-539.4,0,2070,0,154,0, 
1.1533,-248.7,345.6,-311.7,295.5,-436.8,-23.4,-408.6,-600.6,-7706.4,218.4,1108.2,376.2,-1317.0,-3139.5,2295.6,128.1,-7.2,-6.0,36.9,372.9,-0.9,273.3,-594.0,-496.5,0,2076,0,155,0, 
1.1567,-246.3,327.9,-328.5,278.7,-456.6,-16.2,-423.3,-600.0,21266.7,194.7,1090.5,355.5,-1305.6,-2982.6,3451.2,135.0,-6.9,-5.4,27.9,363.0,-0.9,255.9,-256.8,-472.2,0,2082,0,156,0, 
1.1600,-250.5,316.2,-335.7,267.6,-467.7,-19.2,-424.8,-607.5,34382.4,200.1,1087.8,354.0,-1322.7,-2977.8,6907.5,127.5,-6.9,-5.4,22.5,352.2,-0.9,253.5,-192.3,-469.2,0,2088,0,157,0, 
1.1633,-248.4,337.5,-314.4,284.4,-446.4,-47.1,-431.7,-614.4,13930.8,219.6,1112.1,375.6,-1329.3,-3126.6,7825.5,117.9,-6.9,-5.7,41.4,372.3,-0.6,270.9,-536.4,-516.0,0,2094,0,158,0, 
1.1667,-247.2,353.1,-299.4,301.5,-425.1,-50.7,-421.5,-611.4,-12671.1,237.3,1122.6,392.4,-1309.2,-3228.9,4844.4,117.6,-6.6,-5.4,51.6,389.7,-0.9,287.1,-770.4,-527.1,0,2100,0,159,0, 
1.1700,-244.2,347.7,-306.6,294.0,-440.4,-32.4,-417.0,-605.7,-8373.3,216.3,1109.4,373.2,-1310.4,-3147.6,1992.6,130.5,-7.2,-5.7,45.6,358.2,-0.6,276.9,-580.2,-506.4,0,2106,0,160,0, 
1.1733,-250.8,318.9,-333.6,273.9,-459.6,-7.8,-423.3,-601.2,20303.4,194.1,1084.8,350.7,-1299.0,-2993.4,3132.0,144.0,-6.9,-5.1,20.4,358.2,-0.6,252.0,-224.4,-466.2,0,2112,0,161,0, 
1.1767,-250.5,312.9,-339.9,264.3,-467.4,-13.8,-427.5,-610.5,33863.7,191.7,1081.2,349.5,-1326.9,-2998.5,6580.5,142.5,-7.2,-6.0,18.3,346.8,-0.6,249.3,-175.2,-462.9,0,2118,0,162,0, 
1.1800,-245.1,339.6,-313.8,283.2,-436.8,-42.0,-421.5,-613.8,13263.9,225.0,1107.6,373.5,-1317.0,-3146.4,7497.0,129.6,-6.9,-5.7,42.3,368.1,-0.9,275.4,-524.7,-517.2,0,2124,0,163,0, 
1.1833,-245.1,355.8,-297.3,305.4,-416.4,-38.4,-414.3,-614.7,-13041.6,241.2,1121.7,392.4,-1318.5,-3266.7,4539.3,122.4,-6.6,-6.0,53.1,387.6,-0.9,290.4,-787.5,-533.1,0,2130,0,164,0, 
1.1867,-245.7,348.6,-304.8,294.9,-444.3,-45.9,-417.9,-608.7,-8892.0,228.6,1113.0,379.8,-1304.4,-3180.3,1710.9,131.1,-6.9,-6.0,42.9,373.5,0.0,281.7,-592.8,-515.4,0,2136,0,165,0, 
1.1900,-247.8,320.7,-334.2,273.9,-465.9,-16.2,-420.6,-607.2,19858.8,179.4,1083.3,353.4,-1317.3,-3026.4,2838.0,141.9,-7.2,-6.0,18.0,356.4,-0.9,249.3,-220.2,-461.4,0,2142,0,166,0, 
1.1933,-248.7,318.9,-341.7,261.9,-475.8,-20.1,-421.2,-611.4,33345.0,182.7,1073.1,337.8,-1344.6,-3016.8,6297.0,139.5,-6.9,-5.1,11.4,340.5,-0.9,248.1,-179.7,-465.9,0,2148,0,167,0, 
1.1967,-248.1,332.7,-332.1,270.9,-460.5,-40.2,-423.6,-621.3,12522.9,201.3,1076.7,346.5,-1339.8,-3180.6,7205.7,125.4,-7.2,-6.0,9.9,347.1,-0.6,266.4,-522.0,-509.1,0,2154,0,168,0, 
1.2000,-245.1,356.4,-309.0,293.4,-440.1,-55.2,-417.0,-619.5,-13634.4,231.3,1104.3,372.9,-1318.5,-3298.5,4242.3,122.7,-6.9,-5.7,37.2,362.4,-0.6,285.0,-778.8,-546.0,0,2160,0,169,0, 
1.2033,-240.6,354.3,-302.1,301.2,-430.5,-46.8,-417.3,-610.2,-9114.3,218.4,1125.9,396.9,-1296.6,-3210.3,1440.0,129.9,-6.9,-5.4,57.9,394.2,-0.6,295.5,-581.1,-509.7,0,2166,0,170,0, 
1.2067,-246.0,323.7,-327.0,279.3,-452.1,8.4,-414.6,-603.0,19858.8,195.9,1101.9,369.9,-1328.7,-3056.1,2633.4,140.4,-6.3,-5.7,37.5,363.9,-1.2,258.0,-218.1,-459.6,0,2172,0,171,0, 
1.2100,-248.4,317.7,-334.8,270.0,-460.2,-30.3,-422.7,-610.2,33345.0,193.5,1086.6,360.6,-1339.2,-3048.3,6120.6,137.7,-6.9,-5.4,28.2,373.2,-0.6,253.8,-169.5,-453.3,0,2178,0,172,0, 
1.2133,-247.8,337.2,-318.9,282.3,-445.2,-41.7,-418.2,-618.9,12522.9,211.8,1102.5,375.9,-1343.7,-3204.6,7065.3,125.1,-6.9,-5.7,43.2,375.6,-0.6,269.7,-513.9,-513.9,0,2184,0,173,0, 
1.2167,-247.8,355.8,-301.2,297.3,-430.2,-65.4,-417.0,-623.1,-13338.0,230.4,1121.7,390.9,-1310.1,-3309.0,4143.0,123.3,-7.2,-5.4,57.9,383.7,-0.9,291.6,-772.5,-545.1,0,2190,0,174,0, 
1.2200,-244.5,351.9,-303.0,298.8,-429.6,-35.4,-415.8,-609.0,-8447.4,231.3,1120.8,389.7,-1302.3,-3224.1,1414.5,126.9,-7.2,-6.0,58.2,385.2,-0.9,296.1,-596.1,-498.3,0,2196,0,175,0, 
1.2233,-249.0,327.0,-327.6,272.7,-454.8,-18.0,-420.3,-611.4,20451.6,193.5,1091.7,358.5,-1307.4,-3074.7,2663.7,144.3,-7.2,-6.0,29.1,360.0,-0.3,253.8,-219.6,-462.6,0,2202,0,176,0, 
1.2267,-245.4,325.8,-333.0,269.4,-459.0,-15.6,-419.7,-613.5,33567.3,192.6,1082.4,355.5,-1325.7,-3057.3,6188.7,143.4,-6.6,-5.7,21.6,359.7,-0.6,251.7,-169.8,-452.7,0,2208,0,177,0, 
1.2300,-244.8,341.1,-309.6,289.8,-435.3,-41.1,-417.6,-614.4,12671.1,216.3,1116.3,383.4,-1317.3,-3204.3,7129.8,137.4,-6.9,-5.7,48.6,379.2,-0.6,282.6,-508.5,-509.1,0,2214,0,178,0, 
1.2333,-238.8,360.3,-298.8,305.7,-419.7,-51.0,-414.3,-620.7,-13115.7,228.9,1123.8,395.4,-1314.3,-3309.3,4179.3,128.7,-6.9,-5.7,54.6,395.1,-0.9,294.6,-765.9,-534.6,0,2220,0,179,0, 
1.2367,-240.0,352.8,-304.8,297.6,-423.0,-33.9,-414.9,-611.1,-8225.1,229.8,1116.3,388.8,-1292.7,-3220.2,1458.0,134.1,-6.9,-5.7,46.8,394.5,-0.6,285.9,-580.2,-511.2,0,2226,0,180,0, 
1.2400,-243.0,326.1,-327.6,276.6,-452.4,-1.2,-412.5,-608.1,20525.7,201.6,1095.3,359.1,-1319.4,-3057.6,2693.1,146.1,-6.9,-6.3,27.6,358.2,-0.6,256.8,-200.7,-434.4,0,2232,0,181,0, 
1.2433,-243.9,324.0,-330.6,273.3,-451.2,-11.1,-423.3,-609.0,33715.5,197.7,1094.7,365.1,-1336.5,-3041.4,6200.1,142.8,-6.9,-5.7,21.9,372.0,-1.2,263.4,-180.9,-464.4,0,2238,0,182,0, 
1.2467,-243.9,339.3,-314.4,289.8,-433.5,-36.9,-423.6,-620.1,12967.5,212.7,1110.6,383.4,-1343.7,-3198.0,7142.4,126.6,-6.6,-5.7,32.1,386.1,-0.6,296.4,-524.4,-508.5,0,2244,0,183,0, 
1.2500,-242.4,359.4,-295.8,304.5,-418.5,-60.6,-420.3,-621.9,-13189.8,251.4,1130.7,399.0,-1328.1,-3302.1,4200.3,122.7,-6.9,-5.7,60.6,403.5,-0.9,297.3,-769.8,-535.8,0,2250,0,184,0, 
1.2533,-244.2,348.9,-306.0,294.6,-433.2,-35.1,-418.8,-618.6,-8373.3,231.3,1115.7,382.5,-1346.7,-3225.0,1458.3,139.2,-7.2,-5.7,47.1,379.8,-0.6,283.5,-579.9,-506.7,0,2256,0,185,0, 
1.2567,-244.2,327.3,-327.3,278.1,-453.0,3.6,-419.4,-613.5,20525.7,198.3,1091.1,359.1,-1339.8,-3063.3,2678.4,147.3,-6.9,-6.0,22.8,365.7,-0.9,257.1,-218.4,-456.9,0,2262,0,186,0, 
1.2600,-245.7,322.2,-328.8,274.5,-459.0,-25.8,-426.6,-619.2,33345.0,207.0,1092.3,358.8,-1359.9,-3058.2,6167.7,147.6,-6.9,-6.3,23.4,365.7,-0.3,259.2,-175.5,-457.5,0,2268,0,187,0, 
1.2633,-243.0,336.3,-309.9,292.8,-433.2,-34.8,-423.9,-622.8,12448.8,217.5,1115.7,382.2,-1353.9,-3217.5,7049.7,129.6,-6.9,-6.0,45.6,381.6,-0.9,279.6,-525.0,-499.5,0,2274,0,188,0, 
1.2667,-234.9,364.2,-288.3,312.3,-411.9,-55.5,-422.1,-620.4,-13708.5,251.1,1134.9,404.4,-1321.2,-3315.3,4070.4,125.7,-6.6,-5.7,71.1,402.9,-0.9,312.0,-776.1,-538.5,0,2280,0,189,0, 
1.2700,-236.4,352.5,-299.4,301.2,-424.8,-26.4,-416.7,-615.9,-8817.9,220.2,1121.4,390.6,-1318.8,-3229.5,1298.4,135.3,-7.2,-6.0,55.2,390.6,-0.6,287.1,-572.4,-502.8,0,2286,0,190,0, 
1.2733,-238.8,331.5,-320.1,282.9,-447.6,-9.9,-424.8,-611.4,19932.9,210.3,1101.6,371.1,-1324.5,-3079.8,2511.6,142.2,-7.2,-5.7,42.3,372.6,-0.6,267.6,-206.1,-459.6,0,2292,0,191,0, 
1.2767,-236.7,328.5,-323.1,283.5,-441.6,1.5,-428.4,-613.5,32752.2,204.3,1106.1,376.2,-1338.9,-3067.8,5981.1,145.2,-6.9,-5.4,46.5,381.3,-0.6,271.8,-177.9,-432.6,0,2298,0,192,0, 
1.2800,-233.1,348.9,-303.6,297.6,-426.9,-34.5,-424.8,-618.6,11411.4,231.0,1124.7,396.3,-1340.7,-3209.4,6822.6,135.9,-6.9,-5.7,64.2,389.1,-0.6,294.3,-497.4,-498.9,0,2304,0,193,0, 
1.2833,-234.9,358.5,-293.4,309.0,-415.2,-48.9,-426.3,-625.5,-14597.7,240.9,1132.2,409.5,-1335.0,-3324.9,3802.5,129.0,-6.6,-5.7,69.6,403.5,-0.9,310.2,-764.4,-525.3,0,2310,0,194,0, 
1.2867,-236.7,350.7,-304.2,297.6,-428.7,-42.9,-429.3,-622.5,-9336.6,227.7,1118.7,391.2,-1322.7,-3241.2,1041.6,135.3,-6.9,-5.7,57.3,385.5,0.0,279.3,-594.3,-514.2,0,2316,0,195,0, 
1.2900,-240.0,324.9,-328.2,279.9,-445.5,-10.2,-426.9,-618.0,19414.2,204.6,1097.1,368.7,-1330.5,-3096.9,2282.7,148.2,-6.9,-6.0,39.6,374.4,-0.9,263.7,-225.9,-450.3,0,2322,0,196,0, 
1.2933,-241.5,325.5,-329.1,275.1,-458.1,-14.4,-433.2,-622.2,32307.6,209.4,1095.3,365.7,-1348.2,-3097.2,5739.6,141.3,-7.2,-5.7,36.0,359.7,-1.2,268.8,-174.6,-452.1,0,2328,0,197,0, 
1.2967,-243.9,339.0,-312.6,289.5,-429.9,-21.0,-429.0,-627.6,10892.7,225.3,1117.8,388.5,-1363.2,-3246.9,6567.0,131.4,-7.2,-5.7,48.9,387.3,-0.6,282.3,-520.8,-488.4,0,2334,0,198,0, 
1.3000,-237.0,359.1,-292.8,312.6,-414.9,-43.5,-424.5,-626.1,-15412.8,241.5,1135.2,409.2,-1343.1,-3337.8,3521.1,134.1,-6.9,-5.7,69.9,399.6,-0.3,305.1,-759.0,-540.6,0,2340,0,199,0, 
1.3033,-243.6,342.6,-306.9,305.1,-423.0,-18.6,-422.4,-624.6,-10225.8,230.1,1119.0,391.8,-1345.2,-3267.9,716.4,139.2,-7.2,-5.7,53.7,385.5,-0.3,292.2,-573.0,-505.2,0,2346,0,200,0, 
1.3067,-248.7,320.1,-332.1,278.1,-450.6,-9.0,-429.9,-622.8,18747.3,191.7,1094.7,365.1,-1344.3,-3118.8,1933.8,146.4,-6.6,-6.0,33.3,368.1,-0.9,257.4,-208.8,-444.3,0,2352,0,201,0, 
1.3100,-249.3,313.5,-334.8,274.8,-459.9,-18.0,-438.6,-621.6,31788.9,185.7,1088.4,357.9,-1364.1,-3126.0,5404.8,142.5,-6.6,-6.0,26.4,357.3,-0.3,261.9,-179.7,-462.3,0,2358,0,202,0, 
1.3133,-243.9,336.3,-316.5,293.1,-435.9,-47.4,-443.7,-629.7,10225.8,227.4,1114.8,387.3,-1373.4,-3274.5,6242.1,132.6,-6.9,-6.0,49.5,383.7,-0.9,287.1,-536.4,-515.1,0,2364,0,203,0, 
1.3167,-244.2,352.2,-299.7,306.0,-422.1,-53.4,-432.3,-631.5,-15635.1,232.5,1125.3,393.9,-1362.9,-3392.1,3215.4,127.2,-7.2,-5.7,54.6,387.3,-0.6,293.7,-770.7,-536.7,0,2370,0,204,0, 
1.3200,-243.9,339.0,-313.5,297.3,-431.1,-32.4,-424.8,-623.1,-10522.2,213.0,1103.4,381.6,-1344.3,-3306.9,453.3,135.9,-6.9,-6.0,37.2,380.7,-0.6,277.8,-574.5,-512.1,0,2376,0,205,0, 
1.3233,-243.0,321.6,-329.4,277.5,-458.4,-15.3,-431.1,-616.8,18599.1,196.5,1090.5,360.0,-1341.3,-3151.2,1707.9,135.9,-7.5,-5.7,22.5,352.8,-0.9,252.9,-216.9,-468.9,0,2382,0,206,0, 
1.3267,-244.8,320.1,-331.8,276.3,-457.2,-8.7,-436.2,-617.7,31270.2,197.1,1095.6,360.9,-1366.5,-3149.7,5193.9,135.9,-6.6,-5.7,29.7,358.5,-0.6,255.9,-192.3,-447.0,0,2388,0,207,0, 
1.3300,-241.5,339.3,-315.0,289.5,-444.0,-42.6,-430.8,-623.4,9781.2,216.6,1113.0,383.1,-1350.6,-3297.0,6012.9,127.2,-7.2,-6.0,44.4,369.9,-0.3,276.3,-513.3,-506.7,0,2394,0,208,0, 
1.3333,-238.8,353.1,-299.1,306.3,-423.9,-54.0,-424.8,-620.1,-15931.5,236.1,1123.8,399.3,-1350.0,-3400.8,3021.6,120.6,-6.9,-5.7,57.3,391.8,-0.9,291.3,-774.6,-539.7,0,2400,0,209,0, 
1.3367,-243.0,345.9,-309.3,295.2,-438.9,-37.8,-419.7,-616.5,-10596.3,223.5,1109.4,381.0,-1349.4,-3315.0,298.8,131.4,-6.6,-6.0,44.7,376.8,-0.6,267.0,-575.1,-510.3,0,2406,0,210,0, 
1.3400,-249.3,312.6,-334.8,270.9,-466.8,-19.2,-425.1,-615.0,18969.6,188.4,1086.0,352.5,-1350.9,-3181.2,1605.3,132.3,-6.9,-5.7,22.8,353.7,-0.9,246.6,-220.2,-468.6,0,2412,0,211,0, 
1.3433,-246.3,320.1,-330.3,274.2,-461.1,-5.7,-428.7,-609.9,31566.6,199.2,1087.8,359.4,-1350.9,-3168.6,5143.2,121.5,-6.9,-6.0,29.4,361.5,-0.6,246.3,-184.8,-463.5,0,2418,0,212,0, 
1.3467,-242.1,336.6,-312.0,292.2,-439.5,-35.7,-423.0,-614.1,10448.1,215.7,1110.0,380.4,-1363.5,-3315.9,6024.6,116.4,-7.2,-6.0,42.9,381.9,-0.9,266.4,-527.7,-514.2,0,2424,0,213,0, 
1.3500,-240.3,357.3,-293.7,306.0,-419.7,-65.7,-423.6,-615.6,-15264.6,244.5,1130.7,398.1,-1346.4,-3425.4,3066.3,108.6,-6.9,-6.0,63.0,386.1,-0.6,294.3,-778.8,-543.0,0,2430,0,214,0, 
1.3533,-238.8,346.8,-304.8,302.4,-422.7,-29.4,-417.6,-601.5,-9336.6,219.0,1112.1,388.2,-1346.1,-3334.5,415.2,117.0,-6.9,-6.3,51.3,387.9,-0.9,282.3,-573.0,-508.5,0,2436,0,215,0, 
1.3567,-246.6,317.1,-332.7,274.8,-470.1,-19.8,-423.6,-598.2,20155.2,201.6,1086.3,354.0,-1343.4,-3178.2,1815.6,124.2,-6.9,-5.4,26.7,345.3,-0.9,252.0,-203.1,-471.3,0,2442,0,216,0, 
1.3600,-244.8,310.2,-341.1,267.0,-475.2,-9.9,-422.4,-603.3,33493.2,182.7,1076.4,346.2,-1347.0,-3158.4,5474.7,126.0,-7.2,-6.0,11.7,346.8,-1.2,229.8,-168.9,-466.5,0,2448,0,217,0, 
1.3633,-242.4,334.8,-315.9,287.7,-449.7,-47.7,-422.7,-608.4,12745.2,216.9,1103.1,378.9,-1347.0,-3302.4,6496.5,114.6,-6.9,-5.7,38.1,372.9,-1.2,272.7,-510.9,-516.9,0,2454,0,218,0, 
1.3667,-238.5,352.8,-296.1,310.5,-427.5,-51.3,-417.9,-600.3,-11930.1,243.0,1127.4,402.0,-1342.5,-3390.3,3747.9,111.0,-6.9,-6.0,61.5,386.7,-0.3,297.9,-747.6,-542.4,0,2460,0,219,0, 
1.3700,-234.9,342.0,-306.6,300.3,-439.8,-28.2,-414.0,-596.1,-5261.1,218.4,1109.4,385.2,-1342.8,-3277.2,1326.3,118.5,-6.9,-6.0,46.2,385.2,-0.6,285.0,-517.2,-502.5,0,2466,0,220,0, 
1.3733,-238.5,322.8,-333.3,279.3,-463.5,-0.9,-419.1,-588.9,24749.4,193.2,1083.0,360.6,-1348.5,-3111.0,3000.0,129.0,-6.3,-5.7,21.0,357.9,-0.9,246.3,-169.5,-451.5,0,2472,0,221,0, 
1.3767,-241.2,314.7,-337.5,270.9,-469.8,-21.0,-427.8,-596.4,35864.4,190.5,1085.7,358.2,-1361.7,-3109.8,6656.7,121.8,-6.3,-6.3,22.8,357.3,-0.6,251.4,-166.2,-466.2,0,2478,0,222,0, 
1.3800,-240.9,333.9,-318.3,287.1,-449.4,-43.2,-425.1,-604.2,13486.2,221.1,1101.6,379.5,-1370.1,-3266.1,7459.8,111.0,-6.9,-5.7,41.4,368.7,-0.6,272.7,-523.2,-514.2,0,2484,0,223,0, 
1.3833,-237.0,351.3,-296.7,309.0,-424.8,-57.6,-416.1,-598.2,-12819.3,239.1,1121.7,400.8,-1358.1,-3348.3,4384.2,110.1,-6.9,-5.7,61.2,392.4,-0.9,296.4,-764.4,-538.8,0,2490,0,224,0, 
1.3867,-235.5,337.8,-308.7,298.8,-438.3,-31.2,-408.0,-592.5,-7261.8,216.6,1106.7,384.0,-1326.3,-3259.2,1631.7,119.4,-6.3,-6.0,50.1,378.0,-0.9,274.5,-556.2,-515.4,0,2496,0,225,0, 
1.3900,-237.6,321.0,-327.0,281.4,-458.4,-16.5,-418.8,-586.2,22081.8,202.2,1090.5,368.1,-1347.6,-3105.3,2945.4,129.9,-6.9,-6.0,35.4,361.8,-0.9,263.1,-203.1,-457.5,0,2502,0,226,0, 
1.3933,-241.5,309.0,-340.2,271.8,-469.8,-3.3,-422.1,-586.8,34604.7,187.8,1076.1,352.2,-1367.4,-3094.8,6460.5,127.2,-6.9,-6.0,16.5,345.3,-0.6,243.9,-172.8,-465.0,0,2508,0,227,0, 
1.3967,-240.6,332.7,-319.5,290.1,-445.2,-45.9,-421.5,-595.2,13115.7,205.8,1101.9,379.8,-1357.8,-3241.8,7314.0,119.1,-6.6,-6.0,38.4,379.5,-0.6,272.4,-529.8,-507.9,0,2514,0,228,0, 
1.4000,-237.9,347.7,-303.3,305.4,-430.5,-64.5,-416.7,-594.0,-12374.7,234.6,1116.3,394.5,-1335.9,-3340.2,4356.9,116.7,-6.9,-5.4,54.3,384.6,-0.6,293.7,-767.1,-547.5,0,2520,0,229,0, 
1.4033,-238.2,341.1,-305.1,302.4,-440.4,-33.0,-408.6,-582.0,-6669.0,208.2,1105.2,382.5,-1320.9,-3244.5,1697.1,122.7,-6.6,-5.7,48.3,374.7,-0.9,275.7,-567.9,-495.3,0,2526,0,230,0, 
1.4067,-241.8,317.4,-334.5,277.8,-466.8,-9.3,-413.7,-578.7,22748.7,181.5,1074.9,355.5,-1327.5,-3085.2,3084.6,129.3,-6.9,-5.7,16.8,351.9,-0.6,246.6,-199.8,-458.4,0,2532,0,231,0, 
1.4100,-243.9,315.0,-339.0,270.9,-474.6,-25.5,-425.1,-583.8,35345.7,190.5,1073.7,353.1,-1342.5,-3072.0,6654.0,129.3,-6.6,-6.0,15.0,345.9,-0.6,249.0,-174.6,-472.2,0,2538,0,232,0, 
1.4133,-241.5,335.4,-320.7,290.7,-449.7,-36.3,-421.8,-585.3,13634.4,205.8,1095.9,375.9,-1335.9,-3218.1,7517.7,116.7,-6.9,-6.0,35.4,362.4,-0.6,273.9,-510.9,-512.1,0,2544,0,233,0, 
1.4167,-241.2,355.2,-300.3,310.5,-425.1,-50.4,-413.7,-583.2,-12004.2,231.9,1115.4,400.5,-1330.2,-3311.4,4536.6,112.2,-7.5,-6.0,53.1,398.7,-0.6,285.9,-742.5,-529.5,0,2550,0,234,0, 
1.4200,-238.8,345.6,-310.5,298.5,-444.9,-36.0,-410.1,-576.3,-6076.2,221.7,1103.4,381.6,-1328.4,-3211.8,1899.3,121.2,-6.6,-6.0,45.3,367.2,-0.9,279.9,-553.5,-505.8,0,2556,0,235,0, 
1.4233,-247.5,317.1,-335.1,277.2,-466.8,-6.6,-418.8,-570.3,23045.1,189.0,1072.5,357.6,-1337.7,-3056.4,3289.2,132.9,-7.2,-6.6,17.4,357.6,-0.6,243.0,-193.8,-456.3,0,2562,0,236,0, 
1.4267,-248.7,312.3,-341.7,270.6,-471.0,-17.4,-420.9,-575.4,35271.6,180.3,1076.7,356.1,-1371.3,-3048.6,6821.7,130.2,-6.6,-5.4,16.8,351.9,-0.6,254.4,-170.7,-459.9,0,2568,0,237,0, 
1.4300,-248.4,330.6,-323.7,288.0,-446.4,-24.0,-416.1,-578.7,13412.1,201.9,1091.4,376.8,-1355.7,-3207.9,7628.4,117.3,-7.2,-6.0,29.7,369.6,-0.6,267.9,-528.9,-501.3,0,2574,0,238,0, 
1.4333,-243.6,352.8,-301.8,311.1,-426.3,-57.6,-416.4,-578.7,-12226.5,224.1,1110.9,396.9,-1324.8,-3299.7,4614.9,107.7,-6.9,-5.7,46.8,389.7,-0.9,291.6,-769.2,-537.9,0,2580,0,239,0, 
1.4367,-242.7,343.5,-306.9,305.1,-434.4,-24.9,-415.2,-572.1,-6224.4,222.9,1101.9,388.5,-1327.5,-3209.1,1969.5,117.9,-6.9,-5.7,39.6,375.0,-0.9,280.5,-590.4,-508.8,0,2586,0,240,0, 
1.4400,-243.9,316.2,-329.4,283.5,-459.9,-17.7,-413.1,-568.2,22971.0,191.4,1083.9,365.1,-1324.5,-3051.3,3352.5,129.6,-6.6,-6.0,21.9,365.1,-0.6,248.4,-199.5,-459.0,0,2592,0,241,0, 
1.4433,-245.1,316.5,-332.1,280.8,-460.5,-10.2,-416.7,-567.6,35345.7,188.1,1083.3,366.9,-1343.7,-3043.2,6879.0,124.5,-6.9,-6.0,20.1,360.0,-0.9,262.2,-190.8,-450.0,0,2598,0,242,0, 
1.4467,-239.7,340.5,-310.8,300.9,-433.5,-35.4,-408.6,-569.7,13560.3,218.4,1109.7,391.2,-1333.5,-3187.2,7702.5,118.2,-6.6,-6.3,45.9,382.8,-0.6,285.3,-518.7,-497.7,0,2604,0,243,0, 
1.4500,-243.6,348.3,-303.3,306.6,-424.8,-54.9,-405.9,-574.2,-11707.8,223.2,1110.9,399.0,-1339.5,-3288.0,4701.0,117.9,-6.6,-6.0,47.1,388.5,-0.9,291.9,-758.4,-533.4,0,2610,0,244,0, 
1.4533,-237.6,342.6,-308.7,303.6,-434.4,-43.8,-407.4,-565.2,-5705.7,220.5,1106.1,388.2,-1310.4,-3186.3,2091.3,122.4,-7.2,-5.7,44.1,387.0,-0.6,266.7,-561.3,-509.1,0,2616,0,245,0, 
1.4567,-242.1,321.0,-325.5,287.1,-453.3,0.3,-407.1,-556.8,23934.3,205.5,1088.7,373.2,-1333.8,-3036.9,3522.6,130.2,-6.9,-6.0,30.6,367.8,-0.6,261.9,-192.6,-434.4,0,2622,0,246,0, 
1.4600,-239.1,312.9,-335.1,274.5,-468.6,-18.9,-414.6,-565.5,36012.6,181.5,1078.2,362.4,-1335.0,-3015.3,7095.6,135.0,-6.9,-5.4,17.4,351.0,-0.6,254.7,-171.9,-465.9,0,2628,0,247,0, 
1.4633,-235.2,344.1,-312.6,295.8,-434.4,-33.6,-411.9,-568.8,14004.9,215.4,1103.4,390.3,-1323.6,-3161.1,7918.8,126.6,-6.9,-5.7,34.5,382.5,-0.6,284.1,-513.9,-506.7,0,2634,0,248,0, 
1.4667,-236.7,356.4,-296.4,309.9,-424.8,-49.5,-405.3,-568.5,-11411.4,236.4,1117.2,403.5,-1339.8,-3271.8,4938.6,122.1,-6.9,-6.0,51.0,389.4,-0.9,299.7,-765.3,-538.5,0,2640,0,249,0, 
1.4700,-238.5,345.6,-307.5,301.8,-432.9,-37.2,-407.7,-564.6,-5038.8,221.1,1106.1,395.1,-1309.2,-3174.6,2334.0,130.5,-6.9,-5.7,42.3,380.7,-0.6,289.8,-561.3,-504.6,0,2646,0,250,0, 
1.4733,-237.6,327.9,-322.5,285.0,-459.3,5.1,-403.8,-555.3,24453.0,187.5,1087.2,369.9,-1320.9,-3010.8,3784.5,141.3,-7.2,-5.7,28.8,354.9,-0.6,258.9,-192.0,-450.9,0,2652,0,251,0, 
1.4767,-239.4,322.8,-327.3,282.6,-454.8,3.6,-410.7,-557.1,36605.4,204.9,1091.7,374.1,-1329.6,-2991.9,7358.1,129.9,-7.2,-5.7,32.7,364.8,-0.3,266.7,-161.7,-441.0,0,2658,0,252,0, 
1.4800,-235.2,342.0,-304.8,303.9,-430.8,-33.9,-410.4,-563.1,14597.7,222.9,1113.6,394.8,-1340.7,-3147.0,8193.9,121.5,-6.9,-5.7,53.7,391.2,-0.6,289.5,-521.7,-487.2,0,2664,0,253,0, 
1.4833,-233.1,356.4,-292.2,315.3,-420.9,-44.7,-402.0,-566.4,-10670.4,240.3,1122.6,406.5,-1323.0,-3236.7,5210.7,121.2,-6.9,-5.7,67.8,386.7,-0.6,298.8,-744.6,-535.8,0,2670,0,254,0, 
1.4867,-235.8,345.0,-300.3,309.6,-426.0,-30.6,-404.4,-559.8,-4668.3,222.9,1112.7,399.6,-1316.1,-3143.7,2589.6,126.0,-6.9,-6.0,59.1,394.5,-0.3,294.6,-554.7,-493.5,0,2676,0,255,0, 
1.4900,-241.8,321.0,-326.7,284.4,-453.0,10.8,-404.1,-556.8,24527.1,202.8,1088.7,369.6,-1334.7,-2994.6,3992.1,134.1,-6.9,-6.0,34.2,360.9,-0.3,261.9,-182.7,-447.9,0,2682,0,0,0, 
1.4933,-241.5,317.7,-334.5,279.0,-460.8,-20.1,-414.0,-561.6,36309.0,195.3,1085.1,366.9,-1355.1,-2985.3,7515.6,133.2,-6.9,-5.7,32.1,366.0,-0.6,266.1,-179.1,-452.4,0,2688,0,1,0, 
1.4967,-245.7,330.3,-319.2,290.1,-441.9,-36.3,-408.9,-571.2,14301.3,204.6,1097.4,380.1,-1345.2,-3133.2,8275.5,121.5,-6.9,-6.0,40.2,376.5,-0.6,275.1,-523.5,-505.5,0,2694,0,2,0, 
1.5000,-239.4,350.7,-302.1,308.4,-426.3,-52.5,-401.7,-567.9,-11263.2,227.4,1114.5,400.5,-1335.3,-3227.1,5211.6,120.6,-6.6,-5.7,52.8,390.6,-0.6,286.8,-751.8,-537.9,0,2700,0,3,0, 
1.5033,-240.9,345.0,-310.2,306.0,-431.7,-35.7,-399.6,-559.5,-4668.3,207.9,1108.5,391.5,-1333.2,-3139.8,2586.6,125.1,-7.2,-5.7,44.7,385.8,-0.6,279.6,-564.6,-505.2,0,2706,0,4,0, 
1.5067,-242.4,324.0,-327.0,282.9,-456.3,-9.9,-400.5,-554.4,24453.0,188.4,1089.3,373.5,-1329.9,-2983.5,4016.4,135.6,-6.6,-5.7,22.8,365.7,-0.6,264.3,-201.9,-452.4,0,2712,0,5,0, 
1.5100,-249.3,309.6,-342.3,273.0,-464.4,-15.3,-409.5,-565.2,36012.6,183.3,1079.7,363.6,-1358.4,-2985.6,7515.6,128.7,-7.2,-5.1,11.7,361.5,-0.6,243.6,-182.1,-458.7,0,2718,0,6,0, 
1.5133,-246.0,328.8,-325.8,286.8,-450.0,-39.3,-404.7,-571.5,13930.8,203.1,1092.6,380.1,-1340.1,-3134.1,8256.0,123.9,-7.2,-5.7,30.6,366.6,-0.3,273.0,-520.8,-507.6,0,2724,0,7,0, 
1.5167,-242.1,350.7,-300.6,309.0,-422.4,-66.3,-405.9,-567.0,-11411.4,228.3,1119.6,409.8,-1325.1,-3232.5,5196.6,112.2,-7.2,-5.7,51.6,403.8,-0.9,295.8,-774.6,-538.2,0,2730,0,8,0, 
1.5200,-246.3,338.7,-312.3,300.3,-438.9,-26.1,-400.2,-557.7,-5261.1,212.4,1101.9,387.9,-1327.8,-3140.1,2538.6,126.0,-6.9,-6.0,42.9,368.1,-0.6,285.3,-564.0,-508.5,0,2736,0,9,0, 
1.5233,-246.6,319.8,-328.8,281.4,-455.7,-6.3,-402.0,-551.1,23786.1,199.5,1084.8,370.8,-1343.4,-2989.5,3920.4,128.7,-6.9,-5.7,25.8,361.8,-0.9,255.3,-198.3,-427.8,0,2742,0,10,0, 
1.5267,-253.2,312.6,-336.6,270.0,-465.3,-20.1,-413.4,-560.1,35642.1,194.1,1077.0,364.8,-1342.2,-2979.6,7390.5,135.0,-7.2,-6.0,18.3,355.2,-0.6,240.6,-191.1,-460.2,0,2748,0,11,0, 
1.5300,-247.8,339.3,-319.2,285.0,-433.8,-42.6,-406.8,-564.6,13263.9,224.7,1095.9,385.2,-1355.4,-3129.9,8096.4,120.6,-7.2,-6.0,31.2,379.5,-1.2,274.2,-540.6,-515.7,0,2754,0,12,0, 
1.5333,-240.9,357.6,-297.3,307.2,-423.9,-54.3,-398.1,-561.0,-12226.5,236.7,1114.2,402.0,-1329.0,-3214.8,4994.4,111.3,-7.5,-5.4,50.4,391.2,-0.9,300.3,-756.3,-538.5,0,2760,0,13,0, 
1.5367,-240.0,349.8,-301.8,302.1,-435.0,-26.7,-404.4,-555.0,-5779.8,226.8,1108.8,397.5,-1294.5,-3118.5,2334.0,120.0,-7.2,-5.7,47.4,389.4,-0.6,294.0,-567.9,-496.5,0,2766,0,14,0, 
1.5400,-243.9,322.2,-327.0,279.0,-462.0,-3.9,-400.5,-555.9,23415.6,189.9,1083.0,368.1,-1321.2,-2973.0,3736.5,134.4,-7.2,-6.0,25.2,367.8,-0.9,255.3,-192.3,-447.6,0,2772,0,15,0, 
1.5433,-245.4,317.1,-338.4,273.3,-463.5,1.5,-402.9,-561.9,35123.4,188.7,1077.6,360.9,-1343.7,-2977.2,7210.5,133.5,-6.9,-6.0,18.3,366.0,-0.6,256.2,-176.7,-450.0,0,2778,0,16,0, 
1.5467,-240.0,338.1,-318.0,287.1,-442.2,-33.3,-405.3,-565.5,13115.7,216.3,1098.6,382.8,-1335.9,-3133.5,7921.5,117.9,-7.2,-5.7,36.6,373.5,-0.6,276.6,-543.9,-501.0,0,2784,0,17,0, 
1.5500,-241.5,358.8,-299.1,306.0,-422.4,-43.5,-399.3,-564.3,-11930.1,232.5,1119.9,405.6,-1317.0,-3231.9,4874.1,112.2,-6.6,-6.0,53.7,396.0,-0.9,297.0,-762.6,-528.3,0,2790,0,18,0, 
1.5533,-241.8,346.2,-310.5,292.8,-439.5,-37.5,-403.2,-564.0,-5483.4,213.3,1103.7,389.1,-1308.9,-3134.7,2260.8,116.1,-6.9,-6.0,40.8,386.7,-0.3,280.5,-570.9,-507.3,0,2796,0,19,0, 
1.5567,-245.1,318.0,-337.8,271.8,-463.8,-4.8,-403.2,-559.2,23637.9,183.0,1082.1,360.0,-1345.5,-2981.7,3699.9,127.2,-6.6,-5.7,16.5,361.2,-0.3,247.5,-206.1,-451.8,0,2802,0,20,0, 
1.5600,-241.8,315.9,-342.9,270.0,-461.7,-11.4,-402.3,-561.6,35197.5,193.2,1077.6,365.1,-1345.8,-2983.5,7189.8,122.4,-6.9,-5.7,9.0,363.6,-0.9,253.2,-193.8,-451.2,0,2808,0,21,0, 
1.5633,-249.3,326.1,-343.8,279.6,-444.0,-21.0,-399.6,-570.3,13263.9,197.4,1060.5,365.7,-1362.3,-3156.3,7912.5,109.8,-6.9,-5.7,-17.1,372.3,-0.3,266.1,-545.1,-509.7,0,2814,0,22,0, 
1.5667,-246.6,341.1,-326.7,287.4,-438.3,-48.6,-399.0,-571.8,-11707.8,207.6,1059.0,365.7,-1350.3,-3254.4,4909.8,108.6,-6.9,-5.7,-14.4,374.1,-0.9,278.7,-773.4,-537.6,0,2820,0,23,0, 
1.5700,-239.1,348.6,-304.2,297.9,-437.4,-41.7,-403.5,-564.0,-5187.0,219.9,1108.2,379.5,-1329.9,-3147.9,2328.3,116.7,-7.2,-6.0,53.1,380.7,-0.6,283.8,-561.6,-512.4,0,2826,0,24,0, 
1.5733,-238.8,330.3,-316.5,289.2,-447.0,0.9,-401.7,-551.7,23934.3,202.5,1116.0,380.7,-1330.8,-2982.0,3777.0,128.7,-6.9,-6.3,56.7,375.9,-0.6,253.5,-196.2,-447.9,0,2832,0,25,0, 
1.5767,-236.1,325.8,-319.8,283.8,-448.8,11.1,-402.0,-551.7,35049.3,198.6,1110.9,379.2,-1339.5,-2980.2,7237.5,121.2,-7.2,-5.7,48.3,372.9,-0.3,248.1,-168.6,-455.7,0,2838,0,26,0, 
1.5800,-239.1,341.4,-307.8,294.6,-446.7,-48.3,-402.6,-564.3,13189.8,220.8,1114.8,389.4,-1342.5,-3141.6,7942.2,111.3,-6.6,-6.0,53.4,369.0,-0.9,279.3,-523.2,-519.6,0,2844,0,27,0, 
1.5833,-233.4,366.9,-288.6,317.7,-420.6,-47.1,-405.0,-562.2,-11856.0,222.3,1132.8,409.2,-1313.7,-3234.9,4908.9,106.8,-6.9,-6.0,68.4,401.4,-0.3,299.4,-761.4,-529.5,0,2850,0,28,0, 
1.5867,-236.4,349.8,-297.3,305.4,-433.5,-34.8,-400.5,-557.1,-4964.7,227.1,1122.9,399.0,-1308.3,-3144.9,2332.8,115.8,-6.6,-6.3,64.2,390.3,-0.9,285.9,-564.3,-501.6,0,2856,0,29,0, 
1.5900,-237.6,332.7,-313.2,292.2,-447.0,1.8,-402.6,-551.7,24230.7,207.0,1119.6,390.9,-1312.5,-2989.8,3813.9,131.1,-6.9,-6.0,60.3,383.7,-0.9,268.5,-198.3,-444.3,0,2862,0,30,0, 
1.5933,-245.4,321.3,-317.7,288.9,-446.7,6.9,-404.4,-553.2,35345.7,211.2,1116.0,389.1,-1330.8,-2990.1,7303.8,123.9,-6.9,-6.0,57.6,385.5,-0.6,266.4,-176.1,-438.0,0,2868,0,31,0, 
1.5967,-239.1,348.0,-299.4,302.1,-427.8,-18.0,-401.7,-563.7,13412.1,223.8,1130.1,407.1,-1314.3,-3142.8,8009.7,110.1,-6.6,-5.4,72.6,397.8,-0.6,292.5,-517.2,-485.7,0,2874,0,32,0, 
1.6000,-236.4,360.0,-287.7,317.7,-415.5,-48.6,-404.1,-564.3,-11485.5,236.7,1145.1,421.8,-1308.0,-3229.8,5004.9,113.4,-6.6,-6.0,81.6,405.6,-0.9,306.9,-752.4,-539.4,0,2880,0,33,0, 
1.6033,-240.9,349.2,-298.8,306.6,-426.6,-25.5,-400.2,-560.7,-4668.3,223.2,1128.6,404.7,-1303.5,-3131.7,2460.6,118.8,-6.6,-5.4,65.4,396.6,-0.9,285.6,-531.9,-489.9,0,2886,0,34,0, 
1.6067,-239.4,327.3,-322.5,287.4,-452.1,-0.9,-404.7,-558.9,24601.2,207.9,1104.9,376.2,-1312.5,-2970.6,3955.2,126.0,-6.9,-6.0,42.0,374.1,-0.6,264.3,-178.2,-438.6,0,2892,0,35,0, 
1.6100,-241.5,326.1,-325.2,282.0,-455.7,-6.0,-402.6,-561.0,35938.5,204.6,1099.2,371.4,-1333.8,-2978.4,7459.5,123.6,-7.2,-6.0,33.0,373.5,-0.6,262.2,-159.3,-443.1,0,2898,0,36,0, 
1.6133,-239.1,345.0,-307.8,298.5,-437.1,-35.1,-406.2,-570.0,13782.6,229.8,1118.4,395.1,-1348.8,-3121.5,8175.3,117.6,-6.9,-6.0,50.1,388.5,-0.9,288.9,-510.6,-494.4,0,2904,0,37,0, 
1.6167,-231.3,363.9,-291.3,317.1,-417.6,-36.3,-401.1,-568.5,-10892.7,246.0,1134.3,412.8,-1322.4,-3214.8,5170.5,116.1,-7.2,-5.7,64.2,402.6,-0.6,301.2,-741.3,-525.9,0,2910,0,38,0, 
1.6200,-234.9,352.5,-305.1,300.0,-439.2,-26.7,-400.5,-565.2,-3853.2,220.2,1120.2,390.9,-1310.7,-3117.6,2652.3,127.5,-6.3,-5.4,52.2,378.3,-0.6,282.3,-524.7,-485.4,0,2916,0,39,0, 
1.6233,-238.5,325.8,-333.0,276.3,-462.0,-18.9,-411.6,-561.3,25342.2,198.6,1096.2,374.1,-1328.7,-2966.7,4174.2,138.0,-7.2,-6.0,32.1,370.8,-0.3,270.0,-177.3,-439.2,0,2922,0,40,0, 
1.6267,-241.2,324.3,-338.1,271.8,-463.8,-2.1,-411.9,-565.5,36383.1,205.8,1092.9,362.7,-1342.8,-2954.7,7675.5,135.0,-6.9,-6.0,27.0,362.4,-0.6,261.0,-154.2,-432.0,0,2928,0,41,0, 
1.6300,-242.1,339.0,-319.8,291.6,-439.2,-32.7,-413.7,-575.1,14079.0,218.7,1116.6,386.7,-1339.2,-3102.9,8364.3,120.9,-6.9,-5.7,46.5,392.1,-0.6,278.7,-495.3,-483.6,0,2934,0,42,0, 
1.6333,-241.8,353.7,-303.9,304.5,-431.7,-56.7,-408.0,-579.0,-10522.2,235.5,1135.2,403.5,-1318.5,-3195.0,5368.8,113.1,-6.9,-5.4,60.3,384.9,-0.6,297.9,-718.8,-524.7,0,2940,0,43,0, 
1.6367,-243.0,346.2,-309.0,301.2,-433.2,-23.1,-412.8,-567.3,-3186.3,226.2,1121.7,392.1,-1308.9,-3102.9,2859.6,122.7,-6.6,-6.0,51.0,393.3,-0.3,285.9,-527.7,-483.6,0,2946,0,44,0, 
1.6400,-246.0,323.4,-332.1,282.0,-456.0,7.2,-415.2,-561.3,25860.9,195.0,1095.0,363.0,-1324.5,-2952.3,4407.3,135.6,-6.6,-5.7,28.8,366.3,-0.6,255.9,-181.5,-430.8,0,2952,0,45,0, 
1.6433,-249.0,320.7,-329.1,276.3,-462.3,-24.6,-423.0,-563.7,36975.9,209.4,1101.9,375.0,-1345.8,-2956.8,7922.1,125.4,-6.9,-6.0,37.2,374.1,-0.9,267.6,-165.0,-435.6,0,2958,0,46,0, 
1.6467,-245.7,347.1,-306.6,293.7,-437.7,-42.0,-420.3,-567.6,14671.8,217.2,1122.9,397.5,-1343.4,-3098.4,8621.7,110.4,-6.9,-5.7,54.0,390.0,-1.2,292.5,-521.4,-487.2,0,2964,0,47,0, 
1.6500,-243.9,358.5,-293.4,310.8,-422.7,-55.5,-418.5,-566.4,-10003.5,234.3,1134.6,409.8,-1332.9,-3189.9,5605.5,111.6,-7.2,-6.3,69.9,400.5,-0.6,303.0,-744.3,-520.2,0,2970,0,48,0, 
1.6533,-244.2,347.4,-305.1,301.8,-437.1,-38.1,-416.4,-558.9,-2889.9,212.1,1121.4,396.9,-1322.1,-3089.7,3103.2,117.6,-6.9,-6.3,60.0,384.0,-0.3,284.4,-528.9,-484.2,0,2976,0,49,0, 
1.6567,-246.6,327.6,-323.7,282.0,-456.6,-6.3,-418.2,-554.1,26083.2,195.9,1099.5,374.1,-1335.6,-2922.9,4619.1,130.2,-7.2,-6.0,43.8,364.5,-0.6,265.2,-160.8,-423.9,0,2982,0,50,0, 
1.6600,-254.4,319.5,-334.8,276.0,-460.5,-9.3,-421.2,-563.4,37198.2,187.2,1094.1,365.1,-1365.9,-2925.6,8097.6,124.8,-6.9,-5.4,42.9,366.3,-1.2,246.9,-150.6,-429.9,0,2988,0,51,0, 
1.6633,-252.9,339.6,-315.6,289.5,-440.1,-46.5,-426.0,-573.0,14968.2,219.0,1114.8,387.0,-1352.1,-3075.3,8783.7,109.8,-7.2,-5.4,64.2,383.1,-0.9,280.5,-501.3,-487.2,0,2994,0,52,0, 
1.6667,-252.6,352.8,-301.2,305.4,-426.9,-50.4,-417.3,-570.9,-10003.5,224.7,1125.3,400.2,-1329.3,-3168.0,5742.9,101.4,-6.9,-6.0,68.1,392.1,-1.2,291.9,-729.9,-503.4,0,3000,0,53,0, 
1.6700,-251.7,340.8,-313.5,294.6,-439.2,-41.7,-422.4,-565.8,-2889.9,223.5,1111.5,384.9,-1318.8,-3058.8,3215.4,105.9,-7.2,-5.7,58.2,374.7,-0.9,277.5,-529.2,-482.4,0,3006,0,54,0, 
1.6733,-252.6,316.8,-332.1,275.1,-460.2,-8.7,-425.7,-563.1,26305.5,192.0,1093.2,364.5,-1328.7,-2901.0,4731.6,118.5,-6.6,-5.4,47.4,357.0,-0.9,253.2,-166.2,-445.8,0,3012,0,55,0, 
1.6767,-253.8,313.5,-336.6,270.6,-464.4,-13.2,-423.9,-570.6,37198.2,191.7,1092.6,361.2,-1353.9,-2906.1,8213.1,121.2,-6.9,-5.4,43.2,355.5,-0.3,252.3,-153.6,-434.7,0,3018,0,56,0, 
1.6800,-251.1,336.6,-318.0,287.7,-444.9,-55.2,-428.7,-577.2,14745.9,222.3,1114.8,386.4,-1352.1,-3053.7,8870.7,107.4,-7.2,-6.0,62.4,378.3,-0.6,284.1,-520.8,-486.9,0,3024,0,57,0, 
1.6833,-251.4,348.6,-304.5,303.9,-425.7,-50.7,-417.3,-574.5,-9929.4,237.0,1123.8,397.8,-1357.2,-3148.5,5804.1,99.3,-6.9,-5.7,70.5,391.5,-0.9,282.3,-741.9,-513.6,0,3030,0,58,0, 
1.6867,-255.0,330.6,-320.7,287.1,-447.6,-46.5,-420.0,-570.3,-2741.7,206.1,1100.4,374.7,-1334.4,-3046.8,3271.8,109.8,-6.9,-6.0,55.2,362.1,-0.6,272.1,-525.3,-481.8,0,3036,0,59,0, 
1.6900,-253.8,318.0,-332.4,275.7,-453.9,-12.3,-426.3,-560.4,26527.8,202.2,1092.9,359.7,-1334.4,-2896.2,4797.6,109.2,-6.9,-6.0,48.6,355.8,-0.9,265.8,-189.9,-432.3,0,3042,0,60,0, 
1.6933,-256.2,312.0,-344.1,264.6,-463.8,-20.7,-429.9,-569.7,37124.1,180.0,1082.1,352.8,-1365.6,-2899.2,8273.1,110.1,-6.9,-6.3,40.2,350.7,-0.6,255.6,-174.6,-439.2,0,3048,0,61,0, 
1.6967,-253.8,330.3,-322.5,283.8,-447.0,-38.7,-428.1,-577.2,14671.8,210.6,1103.7,377.7,-1373.1,-3044.7,8906.4,102.3,-7.2,-6.0,55.8,370.5,-0.6,268.2,-526.2,-497.1,0,3054,0,62,0, 
1.7000,-249.6,348.9,-302.7,297.0,-438.3,-57.6,-420.9,-578.1,-10225.8,228.3,1117.8,392.1,-1350.0,-3128.4,5826.3,100.5,-7.5,-6.0,66.9,377.4,-0.9,292.8,-740.1,-523.8,0,3060,0,63,0, 
1.7033,-250.8,340.8,-309.9,294.6,-442.2,-27.6,-413.1,-569.7,-2889.9,206.4,1112.1,383.4,-1341.6,-3031.5,3288.3,105.6,-7.2,-6.0,62.1,372.9,-0.9,273.3,-522.6,-485.7,0,3066,0,64,0, 
1.7067,-251.1,324.3,-330.0,273.6,-465.9,-18.6,-415.2,-568.2,26305.5,191.1,1086.3,357.3,-1349.7,-2883.3,4804.5,120.0,-6.9,-6.0,40.5,349.2,-0.9,248.4,-163.5,-439.5,0,3072,0,65,0, 
1.7100,-252.3,315.9,-334.2,270.6,-470.1,-23.7,-420.3,-571.8,37198.2,187.5,1083.9,357.3,-1367.1,-2875.5,8286.3,118.8,-7.2,-6.0,32.7,341.1,-0.9,244.2,-158.7,-445.8,0,3078,0,66,0, 
1.7133,-249.9,335.7,-319.8,283.2,-453.0,-51.0,-422.1,-582.9,14968.2,215.4,1103.7,377.4,-1374.3,-3035.7,8950.2,113.7,-6.6,-5.7,50.1,359.7,-0.9,273.0,-509.1,-492.3,0,3084,0,67,0, 
1.7167,-246.3,349.8,-302.7,300.9,-432.0,-64.2,-414.0,-582.9,-9484.8,233.4,1119.3,394.8,-1348.2,-3132.3,5924.1,108.6,-6.9,-5.7,65.7,381.3,-0.6,285.6,-728.1,-525.3,0,3090,0,68,0, 
1.7200,-246.6,338.1,-319.2,289.2,-448.5,-32.7,-418.2,-575.7,-2074.8,210.6,1098.3,373.5,-1335.6,-3033.3,3457.2,118.8,-6.6,-6.3,50.7,360.3,-0.3,270.9,-530.7,-501.3,0,3096,0,69,0, 
1.7233,-247.2,315.9,-343.2,270.3,-471.0,-27.6,-419.1,-574.8,26750.1,193.2,1082.7,352.2,-1353.6,-2878.2,4985.1,131.1,-6.9,-5.7,35.7,350.7,-0.6,244.5,-171.9,-443.1,0,3102,0,70,0, 
1.7267,-248.7,309.3,-345.9,266.7,-472.2,-20.1,-421.5,-578.7,37272.3,178.8,1077.6,351.6,-1361.7,-2873.7,8436.6,120.9,-6.9,-6.0,30.0,349.5,-0.6,252.6,-163.8,-438.0,0,3108,0,71,0, 
1.7300,-246.3,332.4,-322.5,283.2,-449.7,-48.0,-416.7,-583.5,14597.7,217.8,1099.2,374.7,-1353.9,-3020.1,9040.2,112.5,-6.9,-6.3,50.4,369.0,-0.6,272.4,-504.3,-492.9,0,3114,0,72,0, 
1.7333,-243.9,350.1,-306.9,299.1,-435.0,-58.2,-415.5,-584.1,-9781.2,221.4,1116.0,392.4,-1342.5,-3106.5,5960.4,106.2,-6.9,-6.0,69.6,381.6,-0.9,294.9,-727.8,-522.6,0,3120,0,73,0, 
1.7367,-243.3,338.1,-319.5,290.7,-445.2,-36.9,-414.9,-578.1,-2667.6,213.0,1100.7,373.8,-1347.0,-3012.6,3437.7,114.0,-6.3,-5.4,60.6,373.5,-0.6,277.5,-525.0,-489.0,0,3126,0,74,0, 
1.7400,-246.0,309.9,-344.7,266.1,-471.9,-12.0,-420.0,-576.3,26157.3,181.2,1076.7,351.9,-1366.5,-2862.6,4914.0,120.6,-7.5,-5.4,33.3,349.5,-0.3,245.4,-171.9,-438.9,0,3132,0,75,0, 
1.7433,-248.1,306.9,-348.3,259.2,-474.3,-28.2,-426.0,-583.2,37420.5,187.2,1078.2,349.8,-1373.1,-2872.2,8378.1,116.1,-6.6,-6.0,27.6,344.4,-0.9,236.4,-168.3,-440.1,0,3138,0,76,0, 
1.7467,-242.1,330.9,-321.9,283.5,-447.6,-50.7,-428.1,-589.2,15116.4,215.4,1104.6,378.3,-1373.1,-3019.8,9057.9,111.6,-6.6,-6.3,51.0,367.8,-0.6,264.6,-512.4,-502.8,0,3144,0,77,0, 
1.7500,-243.3,345.9,-306.6,297.0,-432.6,-55.5,-419.4,-590.7,-8966.1,229.2,1114.5,390.9,-1364.4,-3109.2,6070.8,104.1,-6.9,-5.7,62.7,377.4,-0.3,277.8,-725.7,-521.1,0,3150,0,78,0, 
1.7533,-240.3,344.1,-312.9,292.8,-440.1,-41.7,-423.3,-581.4,-2148.9,216.9,1102.2,379.2,-1355.4,-3014.7,3584.4,111.9,-6.9,-5.4,60.6,368.4,0.0,270.9,-525.0,-484.8,0,3156,0,79,0, 
1.7567,-237.9,321.3,-331.8,274.5,-461.7,-24.6,-430.8,-578.1,26379.6,184.8,1082.4,360.6,-1357.5,-2849.1,5057.1,117.9,-6.6,-5.7,42.3,359.7,-0.9,250.8,-183.0,-454.8,0,3162,0,80,0, 
1.7600,-243.0,312.6,-337.5,267.9,-460.5,-17.7,-426.0,-581.1,37198.2,187.2,1082.7,358.2,-1369.2,-2851.2,8475.0,122.1,-6.6,-6.0,36.6,357.6,-0.6,248.4,-174.0,-442.8,0,3168,0,81,0, 
1.7633,-239.1,339.0,-320.7,288.6,-438.0,-37.8,-424.8,-586.5,15412.8,208.5,1104.3,386.1,-1364.1,-2999.7,9126.9,109.2,-6.9,-5.7,51.6,385.8,-1.2,276.0,-495.9,-491.7,0,3174,0,82,0, 
1.7667,-241.8,347.7,-309.0,293.7,-431.4,-55.2,-423.3,-593.7,-8521.5,212.4,1111.2,392.1,-1354.8,-3099.9,6165.9,106.8,-6.6,-5.7,57.0,381.3,-0.9,282.0,-732.0,-524.1,0,3180,0,83,0, 
1.7700,-237.9,340.2,-315.9,290.4,-438.9,-38.1,-423.9,-585.3,-2000.7,211.2,1100.4,379.8,-1350.0,-3002.4,3688.8,108.9,-6.9,-6.0,53.7,373.8,-0.9,271.8,-533.1,-493.8,0,3186,0,84,0, 
1.7733,-242.7,318.6,-338.1,264.3,-469.5,-5.4,-429.0,-584.4,25935.0,177.3,1070.4,344.7,-1356.6,-2862.9,5087.7,115.8,-7.2,-5.7,32.7,341.4,-0.6,243.3,-196.8,-451.8,0,3192,0,85,0, 
1.7767,-243.0,316.2,-336.0,261.6,-468.3,-35.4,-433.5,-588.6,36901.8,178.5,1073.1,350.7,-1363.2,-2856.6,8433.9,108.0,-6.9,-5.4,32.1,360.3,-0.3,252.3,-176.7,-445.8,0,3198,0,86,0, 
1.7800,-243.0,333.0,-319.2,273.9,-455.1,-64.8,-434.1,-600.9,15709.2,199.8,1094.1,369.3,-1341.6,-3003.9,9127.5,94.5,-6.9,-5.7,54.0,366.6,-0.9,263.1,-516.3,-514.5,0,3204,0,87,0, 
1.7833,-241.8,342.6,-308.4,289.5,-433.8,-61.8,-429.3,-597.6,-7780.5,214.2,1110.0,387.3,-1338.6,-3090.0,6270.0,91.5,-7.2,-5.4,61.2,385.8,-0.9,277.8,-731.4,-536.7,0,3210,0,88,0, 
1.7867,-241.5,333.9,-318.3,280.8,-451.8,-50.1,-429.3,-591.0,-1778.4,200.4,1097.7,374.1,-1323.9,-3005.7,3827.7,101.1,-7.2,-6.0,49.8,369.6,-0.6,270.0,-542.4,-502.5,0,3216,0,89,0, 
1.7900,-245.1,315.9,-341.7,261.0,-468.6,-18.0,-430.8,-586.8,25119.9,188.1,1074.3,350.7,-1343.1,-2866.8,5140.8,110.7,-6.9,-5.7,32.1,350.4,-0.3,240.3,-208.2,-447.9,0,3222,0,90,0, 
1.7933,-246.0,309.3,-343.2,263.7,-471.3,-25.2,-434.7,-589.5,36383.1,185.7,1078.2,353.4,-1354.8,-2861.7,8368.5,108.3,-6.9,-6.0,35.7,353.4,-0.9,249.9,-204.9,-463.8,0,3228,0,91,0, 
1.7967,-243.9,327.9,-324.6,277.8,-451.8,-45.9,-435.3,-595.8,17339.4,205.5,1097.1,374.1,-1358.4,-2987.7,9171.0,100.2,-6.9,-5.4,54.6,377.7,-0.9,270.6,-506.1,-503.7,0,3234,0,92,0, 
1.8000,-240.0,345.3,-309.0,293.7,-437.4,-51.3,-423.3,-595.8,-5187.0,218.7,1111.5,386.4,-1344.0,-3078.6,6621.6,105.0,-6.9,-5.7,65.1,387.6,-0.6,284.1,-694.8,-529.5,0,3240,0,93,0, 
1.8033,-243.6,335.4,-318.0,287.1,-446.4,-46.2,-426.9,-592.5,-1259.7,204.9,1098.9,376.2,-1330.5,-3002.1,4259.4,115.5,-7.2,-6.0,52.8,378.3,-0.6,264.3,-543.6,-496.5,0,3246,0,94,0, 
1.8067,-244.2,318.9,-330.9,273.0,-462.3,-17.4,-425.7,-587.4,22304.1,185.4,1085.7,357.6,-1334.7,-2877.0,5200.5,123.3,-6.9,-5.4,46.2,363.6,-0.9,253.2,-247.5,-463.5,0,3252,0,95,0, 
1.8100,-246.0,318.0,-338.7,265.2,-470.4,-30.9,-430.8,-595.5,32529.9,188.7,1081.8,357.3,-1347.9,-2875.8,7961.7,124.8,-6.9,-5.7,44.7,357.9,-0.9,247.5,-216.9,-459.9,0,3258,0,96,0, 
1.8133,-243.3,333.3,-322.8,279.3,-449.1,-47.4,-428.7,-597.6,17561.7,201.6,1098.6,375.0,-1350.0,-2984.7,8767.8,119.7,-7.2,-6.0,57.3,372.0,-0.3,267.9,-460.5,-492.9,0,3264,0,97,0, 
1.8167,-241.2,340.2,-315.9,288.6,-429.6,-59.1,-426.3,-600.0,-370.5,218.4,1106.4,385.2,-1348.5,-3048.0,6811.5,114.6,-6.9,-5.7,58.5,385.2,-0.6,279.3,-634.5,-511.8,0,3270,0,98,0, 
1.8200,-238.5,331.2,-319.8,284.4,-445.2,-43.5,-421.2,-593.1,2074.8,214.2,1099.8,377.7,-1335.6,-2985.9,4940.1,123.9,-7.2,-6.0,54.9,375.6,-0.9,279.3,-516.3,-494.1,0,3276,0,99,0, 
1.8233,-238.5,323.1,-335.4,275.4,-462.0,-21.9,-422.1,-590.4,18302.7,190.2,1090.2,368.7,-1338.6,-2891.7,5499.6,133.5,-7.2,-6.0,50.7,367.8,-0.9,264.9,-282.9,-462.0,0,3282,0,100,0, 
1.8267,-240.3,320.7,-335.4,271.2,-457.8,-46.2,-433.5,-594.9,24156.6,192.6,1093.2,372.9,-1352.1,-2895.9,7228.2,129.3,-6.9,-6.0,49.2,382.2,-0.6,259.2,-288.0,-464.1,0,3288,0,101,0, 
1.8300,-241.5,328.8,-330.9,279.3,-450.6,-36.6,-424.8,-593.4,13856.7,204.6,1101.0,376.2,-1349.1,-2973.0,7556.1,113.7,-6.9,-5.7,54.9,376.2,-0.9,275.7,-446.4,-467.7,0,3294,0,102,0, 
1.8333,-239.7,337.8,-321.6,288.6,-443.4,-60.6,-432.6,-595.8,4890.6,215.1,1116.6,390.0,-1345.8,-2997.6,6360.3,117.0,-7.2,-5.7,70.8,389.7,-0.9,296.1,-535.2,-510.6,0,3300,0,103,0, 
1.8367,-241.2,334.2,-323.1,285.9,-444.9,-44.1,-433.8,-592.8,7484.1,212.7,1108.8,384.3,-1349.1,-2979.9,5453.7,115.2,-7.5,-6.0,64.8,388.2,-0.9,285.3,-454.2,-486.9,0,3306,0,104,0, 
1.8400,-242.7,328.8,-335.4,276.9,-452.1,-31.2,-434.1,-592.2,15857.4,204.9,1097.7,375.9,-1362.0,-2942.7,5817.9,117.9,-6.9,-6.0,54.0,379.5,-0.9,283.2,-352.8,-468.9,0,3312,0,105,0, 
1.8433,-242.1,322.2,-338.7,273.6,-456.6,-36.9,-432.9,-598.2,19043.7,190.5,1096.2,369.6,-1358.4,-2936.1,6762.9,121.5,-6.6,-5.4,48.9,368.1,-0.6,268.8,-339.6,-465.6,0,3318,0,106,0, 
1.8467,-239.7,329.7,-324.3,286.5,-445.8,-39.3,-434.7,-595.8,13634.4,212.1,1112.1,385.5,-1353.0,-2980.5,6971.1,118.5,-6.9,-5.7,62.4,384.3,-1.2,283.8,-437.7,-488.4,0,3324,0,107,0, 
1.8500,-237.3,341.1,-319.5,288.9,-441.0,-43.8,-431.7,-597.0,7261.8,224.4,1112.1,387.0,-1362.9,-3002.7,6253.2,117.0,-6.9,-5.7,65.7,390.9,-0.6,281.7,-511.2,-498.6,0,3330,0,108,0, 
1.8533,-238.8,335.1,-324.3,282.9,-446.1,-38.4,-433.2,-598.8,8151.0,218.4,1107.9,380.7,-1344.9,-2990.7,5532.6,123.0,-7.2,-6.0,62.1,378.6,-0.9,279.3,-461.4,-479.4,0,3336,0,109,0, 
1.8567,-242.4,325.5,-336.3,268.5,-459.6,-41.4,-437.7,-606.6,14894.1,198.0,1088.4,362.1,-1343.7,-2956.2,5766.3,124.2,-7.2,-5.4,46.8,368.1,-0.6,249.9,-378.9,-483.0,0,3342,0,110,0, 
1.8600,-244.2,323.7,-337.5,267.6,-460.8,-34.2,-435.0,-607.2,17932.2,214.5,1086.9,360.6,-1346.1,-2949.0,6560.4,122.7,-6.9,-6.0,47.1,367.8,-1.2,258.9,-368.4,-482.1,0,3348,0,111,0, 
1.8633,-241.5,324.6,-335.1,270.6,-457.8,-43.5,-432.9,-611.4,13338.0,212.4,1094.4,365.1,-1353.9,-2985.0,6767.7,116.7,-7.2,-5.7,50.1,373.5,0.0,254.1,-440.7,-490.8,0,3354,0,112,0, 
1.8667,-243.0,333.0,-333.3,270.9,-456.3,-52.5,-439.8,-613.8,7261.8,217.2,1091.4,365.4,-1345.5,-3011.7,6099.6,118.2,-6.9,-5.7,51.0,366.3,-0.9,258.9,-515.7,-499.5,0,3360,0,113,0, 
1.8700,-239.7,327.6,-333.6,267.6,-459.6,-52.2,-432.3,-616.5,7854.6,217.5,1082.1,358.8,-1355.1,-2992.5,5403.3,120.0,-6.9,-6.6,41.1,366.3,0.0,245.1,-474.9,-498.0,0,3366,0,114,0, 
1.8733,-238.8,324.3,-336.0,267.9,-462.9,-37.2,-432.3,-612.9,14227.2,198.3,1080.9,354.6,-1349.4,-2960.1,5609.7,118.8,-7.2,-6.0,35.7,352.8,-1.2,255.6,-396.9,-489.9,0,3372,0,115,0, 
1.8767,-237.9,325.8,-334.5,266.7,-462.9,-49.8,-432.3,-616.2,16894.8,189.0,1083.3,361.2,-1353.9,-2952.3,6312.3,118.2,-6.6,-6.0,35.1,354.9,-0.6,250.2,-360.6,-485.1,0,3378,0,116,0, 
1.8800,-238.2,336.0,-327.3,274.2,-453.6,-54.9,-432.9,-615.3,12819.3,195.9,1092.9,369.0,-1345.2,-2990.4,6494.4,111.6,-6.9,-5.4,51.6,372.0,-1.2,265.8,-438.6,-498.6,0,3384,0,117,0, 
1.8833,-237.3,337.8,-318.9,284.7,-448.2,-45.6,-428.7,-615.9,6965.4,198.9,1099.2,378.3,-1338.3,-3023.7,5867.1,109.8,-6.9,-6.0,58.5,377.7,-0.3,269.4,-496.5,-497.7,0,3390,0,118,0, 
1.8867,-236.1,340.8,-315.0,288.6,-438.6,-30.9,-428.4,-607.8,7706.4,209.7,1103.7,383.4,-1332.0,-3005.7,5216.4,112.2,-6.6,-6.0,57.6,384.0,-0.9,266.4,-470.4,-493.2,0,3396,0,119,0, 
1.8900,-241.2,336.9,-321.6,280.2,-451.8,-42.0,-430.5,-612.0,13782.6,209.1,1098.9,376.5,-1332.0,-2985.0,5426.1,108.6,-6.3,-6.0,57.3,370.8,-0.6,273.0,-398.1,-488.1,0,3402,0,120,0, 
1.8933,-239.4,340.8,-320.1,282.6,-440.7,-43.2,-430.8,-608.7,16968.9,201.9,1104.0,384.6,-1337.7,-2977.8,6169.8,111.6,-6.9,-5.7,58.5,396.0,-0.9,271.5,-385.2,-480.0,0,3408,0,121,0, 
1.8967,-238.2,335.7,-318.6,282.9,-449.1,-46.8,-431.1,-613.5,13189.8,210.9,1102.5,378.0,-1328.1,-3009.6,6418.5,104.7,-6.6,-6.0,63.0,371.7,-0.3,269.7,-450.9,-493.5,0,3414,0,122,0, 
1.9000,-241.2,337.5,-314.7,289.2,-438.9,-48.3,-430.5,-614.7,7484.1,213.9,1110.0,385.8,-1333.8,-3036.0,5848.8,103.5,-6.9,-6.6,66.6,396.3,-0.6,271.8,-501.9,-491.4,0,3420,0,123,0, 
1.9033,-242.1,333.0,-322.8,278.4,-452.4,-44.1,-426.6,-617.1,8151.0,207.9,1097.4,371.7,-1341.3,-3014.7,5258.4,115.8,-6.6,-5.7,56.4,372.3,-0.6,265.2,-469.5,-478.2,0,3426,0,124,0, 
1.9067,-240.0,333.9,-320.1,276.9,-449.4,-54.0,-432.0,-615.6,14079.0,215.4,1098.0,375.0,-1353.0,-2976.3,5476.8,119.1,-7.2,-6.0,59.1,380.7,-0.9,275.1,-400.8,-497.7,0,3432,0,125,0, 
1.9100,-243.0,327.6,-321.3,275.7,-450.0,-41.4,-426.3,-615.6,16968.9,207.6,1096.5,372.6,-1348.5,-2981.1,6188.7,114.0,-6.6,-6.0,57.6,375.9,-0.6,274.2,-387.3,-477.9,0,3438,0,126,0, 
1.9133,-241.5,331.2,-318.3,284.4,-441.9,-45.0,-429.3,-616.8,13412.1,205.2,1101.0,381.3,-1353.6,-3009.9,6437.1,108.6,-7.2,-6.0,55.5,390.6,0.3,274.2,-449.7,-489.3,0,3444,0,127,0, 
1.9167,-237.9,341.7,-310.5,289.5,-439.8,-44.1,-417.6,-616.8,7706.4,206.1,1111.5,383.7,-1336.5,-3022.5,5893.5,114.6,-6.9,-6.0,62.1,388.8,-0.6,277.2,-486.9,-499.5,0,3450,0,128,0, 
1.9200,-241.8,334.5,-315.9,288.6,-440.4,-44.4,-424.8,-619.2,8595.6,215.1,1105.5,381.9,-1361.1,-3012.3,5331.3,118.8,-6.9,-5.7,58.2,392.1,-0.3,282.3,-461.7,-487.5,0,3456,0,129,0, 
1.9233,-241.2,329.4,-314.4,287.1,-444.6,-33.9,-425.7,-618.3,13856.7,210.9,1106.1,380.7,-1351.5,-2976.3,5533.5,121.8,-7.2,-6.3,58.5,386.7,-0.6,273.0,-380.7,-467.4,0,3462,0,130,0, 
1.9267,-240.0,333.3,-309.6,286.8,-441.6,-42.6,-425.7,-618.9,17117.1,214.5,1113.6,384.6,-1357.5,-2974.2,6211.2,118.5,-6.6,-6.0,66.9,397.2,-0.9,276.0,-372.0,-477.6,0,3468,0,131,0, 
1.9300,-245.7,334.5,-312.0,290.4,-437.4,-42.0,-428.7,-622.2,13412.1,216.3,1113.9,389.1,-1358.1,-3008.4,6452.4,110.4,-6.9,-5.7,66.6,395.7,-0.9,276.9,-447.9,-480.6,0,3474,0,132,0, 
1.9333,-246.6,337.8,-318.3,289.5,-438.6,-54.3,-431.7,-627.9,8225.1,217.2,1110.0,390.0,-1369.8,-3038.7,5946.3,112.5,-6.6,-6.6,60.3,395.7,-0.6,283.2,-503.4,-492.6,0,3480,0,133,0, 
1.9367,-245.4,334.2,-323.1,289.5,-439.5,-45.9,-430.2,-627.3,8669.7,214.2,1109.7,387.9,-1355.7,-3015.3,5403.3,113.1,-6.9,-5.7,60.0,388.8,-0.3,280.5,-474.6,-485.1,0,3486,0,134,0, 
1.9400,-243.3,336.3,-320.7,287.7,-440.1,-32.1,-431.1,-624.9,14079.0,217.5,1104.0,380.4,-1349.1,-2992.5,5581.2,114.0,-7.2,-6.3,52.5,390.3,-0.6,278.4,-390.0,-472.2,0,3492,0,135,0, 
1.9433,-245.4,330.0,-324.6,282.0,-449.4,-42.9,-433.5,-628.8,16894.8,204.3,1098.6,372.0,-1356.6,-2985.6,6216.6,113.1,-6.9,-6.0,49.2,386.7,-0.6,270.3,-370.8,-473.1,0,3498,0,136,0, 
1.9467,-242.4,333.6,-319.8,285.0,-441.3,-42.3,-433.5,-627.0,13263.9,211.5,1106.4,380.1,-1347.9,-3015.6,6444.9,111.6,-6.6,-6.0,54.3,393.0,-0.6,277.2,-439.2,-483.6,0,3504,0,137,0, 
1.9500,-247.2,331.8,-324.6,287.4,-439.8,-52.2,-435.9,-629.7,8002.8,203.7,1103.4,379.5,-1357.2,-3046.5,5911.5,111.6,-7.2,-6.3,54.9,396.6,-0.6,272.7,-491.1,-491.7,0,3510,0,138,0, 
1.9533,-251.1,323.1,-328.5,280.8,-443.4,-52.8,-436.8,-634.2,8373.3,188.7,1100.4,374.1,-1357.5,-3037.8,5342.7,111.9,-7.2,-6.0,49.8,390.6,-0.9,274.8,-468.3,-493.5,0,3516,0,139,0, 
1.9567,-247.8,327.9,-323.4,283.8,-445.2,-40.8,-432.6,-628.2,13486.2,204.3,1104.3,378.3,-1363.5,-3004.8,5494.8,111.9,-6.6,-5.7,51.3,387.3,-0.3,272.1,-403.8,-469.5,0,3522,0,140,0, 
1.9600,-242.7,330.6,-326.7,283.8,-445.5,-49.8,-433.5,-629.1,16376.1,189.9,1102.5,374.7,-1368.3,-2992.8,6117.0,107.7,-6.6,-5.7,44.7,393.3,-0.9,265.8,-401.4,-482.4,0,3528,0,141,0, 
1.9633,-241.8,337.2,-325.8,286.8,-444.6,-55.8,-430.8,-630.3,12522.9,204.6,1105.8,377.1,-1358.7,-3025.8,6301.5,102.6,-6.9,-6.0,47.4,381.0,-0.9,271.8,-460.2,-495.6,0,3534,0,142,0, 
1.9667,-243.3,340.2,-322.5,294.0,-432.6,-46.5,-428.1,-626.7,7632.3,218.1,1112.4,383.7,-1373.7,-3064.8,5745.0,103.2,-7.2,-6.0,55.8,385.5,-0.6,282.0,-519.0,-494.4,0,3540,0,143,0, 
1.9700,-240.6,333.3,-324.3,294.0,-426.0,-43.2,-427.5,-625.8,7632.3,208.2,1108.8,383.7,-1357.5,-3051.9,5167.8,114.9,-6.9,-6.0,50.1,400.8,-0.9,273.6,-494.1,-484.8,0,3546,0,144,0, 
1.9733,-240.9,334.5,-324.3,291.6,-445.2,-38.1,-426.9,-628.5,12300.6,205.8,1108.2,378.3,-1352.4,-3021.9,5234.7,109.5,-6.9,-6.0,49.2,387.0,-0.6,267.6,-425.7,-495.3,0,3552,0,145,0, 
1.9767,-239.4,334.8,-323.7,286.2,-447.6,-25.2,-430.2,-628.5,14671.8,195.3,1104.6,377.4,-1354.2,-3025.2,5750.7,109.8,-6.6,-6.0,44.7,385.2,-0.3,269.4,-420.6,-478.2,0,3558,0,146,0, 
1.9800,-236.1,342.0,-317.7,286.5,-444.3,-67.2,-437.7,-636.3,10892.7,217.8,1110.6,387.9,-1347.6,-3054.6,5844.9,107.1,-7.2,-5.7,48.3,393.3,-1.2,276.9,-486.9,-492.6,0,3564,0,147,0, 
1.9833,-240.3,340.2,-318.6,288.3,-444.0,-54.0,-429.0,-638.1,5557.5,209.7,1114.5,384.6,-1347.6,-3087.9,5209.5,111.3,-6.9,-6.3,51.3,386.7,-0.9,267.9,-531.9,-494.1,0,3570,0,148,0, 
1.9867,-238.8,340.5,-319.8,285.3,-446.4,-60.0,-429.0,-637.8,5779.8,213.0,1103.7,374.4,-1337.1,-3080.1,4544.1,105.9,-6.6,-6.0,44.7,381.6,-0.9,264.3,-498.0,-499.5,0,3576,0,149,0, 
1.9900,-241.2,338.7,-325.8,282.6,-448.2,-50.1,-434.4,-637.2,10522.2,204.9,1096.2,368.4,-1368.0,-3066.9,4571.1,109.5,-6.9,-5.4,36.0,380.4,-0.6,262.2,-441.9,-496.2,0,3582,0,150,0, 
1.9933,-240.6,332.7,-329.7,282.3,-449.7,-47.4,-431.7,-638.4,12819.3,192.0,1102.2,375.0,-1355.4,-3062.7,5048.4,101.1,-6.9,-6.0,40.2,378.3,-1.2,258.9,-417.0,-491.1,0,3588,0,151,0, 
1.9967,-240.0,338.1,-324.0,287.4,-443.4,-49.5,-431.4,-637.5,9188.4,204.6,1104.6,380.4,-1342.5,-3104.4,5131.2,100.2,-7.2,-5.7,45.9,383.7,-0.6,267.3,-491.1,-496.8,0,3594,0,152,0, 
2.0000,-237.9,342.6,-319.5,291.0,-438.0,-50.4,-426.3,-638.1,4297.8,207.3,1109.7,379.2,-1342.2,-3140.1,4533.3,100.2,-6.9,-6.3,54.6,387.0,-1.2,270.0,-547.5,-507.3,0,3600,0,153,0, 
2.0033,-235.5,342.6,-318.6,287.4,-445.2,-63.6,-426.3,-639.3,4371.9,215.4,1109.7,383.4,-1334.7,-3132.3,3888.3,104.7,-7.2,-5.7,51.6,386.7,-0.9,268.5,-515.4,-502.5,0,3606,0,154,0, 
2.0067,-243.9,332.4,-328.5,281.4,-450.3,-49.5,-425.1,-639.9,9114.3,210.9,1103.4,376.2,-1353.3,-3124.5,3922.5,105.0,-6.9,-6.3,45.3,375.0,-0.6,261.0,-448.8,-498.0,0,3612,0,155,0, 
2.0100,-242.1,330.9,-332.7,276.9,-452.1,-52.8,-425.1,-640.5,11781.9,195.3,1096.5,369.0,-1351.5,-3127.5,4435.2,111.6,-6.9,-6.0,36.0,373.5,-0.6,259.5,-430.8,-492.0,0,3618,0,156,0, 
2.0133,-238.2,337.8,-323.1,285.0,-444.9,-63.6,-428.1,-641.1,8299.2,210.3,1106.7,379.8,-1360.5,-3161.4,4545.6,96.0,-6.9,-6.3,45.9,385.5,-0.6,266.4,-497.4,-504.0,0,3624,0,157,0, 
2.0167,-240.0,337.8,-321.0,287.7,-440.4,-57.9,-426.6,-640.5,3408.6,210.3,1105.8,383.1,-1365.3,-3186.0,3957.6,91.2,-6.9,-5.4,42.9,389.1,-1.2,271.8,-538.2,-507.6,0,3630,0,158,0, 
2.0200,-238.2,338.4,-317.4,293.4,-440.4,-57.9,-429.9,-639.3,3630.9,215.7,1117.5,387.6,-1339.8,-3189.3,3351.6,90.0,-7.5,-6.3,57.6,386.7,-0.6,268.2,-520.5,-511.8,0,3636,0,159,0, 
2.0233,-236.1,333.0,-322.8,290.1,-444.3,-44.7,-426.6,-638.1,8595.6,208.2,1111.5,381.3,-1348.5,-3166.8,3443.4,96.9,-6.9,-5.4,51.3,382.2,-0.9,268.2,-444.3,-499.2,0,3642,0,160,0, 
2.0267,-237.3,334.2,-320.7,288.9,-443.1,-44.4,-427.2,-633.6,11337.3,203.4,1105.5,378.0,-1356.9,-3168.6,3990.9,96.3,-6.6,-6.3,46.2,375.6,-0.6,264.0,-422.7,-501.6,0,3648,0,161,0, 
2.0300,-238.5,332.1,-327.6,286.8,-446.1,-68.1,-428.4,-640.8,7854.6,200.4,1098.6,377.4,-1356.3,-3201.9,4128.6,97.8,-6.9,-5.7,38.4,381.9,-0.6,255.0,-473.4,-504.6,0,3654,0,162,0, 
2.0333,-238.8,334.8,-322.2,289.8,-442.5,-51.3,-424.2,-638.7,2964.0,201.9,1106.1,375.3,-1360.8,-3229.8,3590.4,97.2,-6.6,-5.7,39.6,378.9,-0.9,258.9,-520.5,-508.8,0,3660,0,163,0, 
2.0367,-238.2,330.9,-319.8,292.2,-438.6,-50.7,-418.8,-638.4,3408.6,202.5,1105.8,379.8,-1362.3,-3233.7,3020.7,97.5,-6.9,-5.7,38.1,385.8,-0.6,261.0,-490.2,-500.7,0,3666,0,164,0, 
2.0400,-238.8,333.0,-324.0,288.0,-444.3,-42.6,-420.3,-634.2,8447.4,198.9,1100.4,371.7,-1339.8,-3202.8,3151.5,98.1,-6.9,-5.7,30.3,375.0,-0.9,253.5,-421.8,-486.9,0,3672,0,165,0, 
2.0433,-243.0,324.9,-327.0,290.1,-444.0,-43.8,-415.8,-635.4,11485.5,187.5,1096.8,375.9,-1370.1,-3228.3,3758.1,100.5,-6.9,-5.7,24.6,384.9,-0.9,256.2,-416.1,-494.1,0,3678,0,166,0, 
2.0467,-244.2,327.3,-326.1,290.4,-444.6,-50.7,-422.4,-637.8,7928.7,191.1,1101.3,374.4,-1348.2,-3247.2,3960.6,100.5,-6.6,-6.0,32.1,372.9,-0.6,263.7,-469.5,-499.2,0,3684,0,167,0, 
2.0500,-240.9,335.1,-321.3,296.4,-438.9,-54.9,-422.7,-635.4,3112.2,199.8,1109.7,382.2,-1340.7,-3269.1,3438.6,100.2,-7.2,-5.7,39.6,378.9,-0.9,260.1,-523.8,-500.7,0,3690,0,168,0, 
2.0533,-237.9,338.1,-320.4,294.9,-439.8,-57.3,-417.0,-633.3,3186.3,202.8,1107.6,381.6,-1336.5,-3246.3,2882.4,105.0,-7.2,-5.7,35.7,380.4,-0.9,271.2,-477.3,-495.3,0,3696,0,169,0, 
2.0567,-237.6,331.5,-324.6,291.6,-444.0,-44.7,-413.1,-629.7,8447.4,195.9,1098.9,374.4,-1353.6,-3232.2,3006.0,107.7,-6.9,-6.0,29.7,374.1,-0.9,257.4,-413.1,-481.2,0,3702,0,170,0, 
2.0600,-238.8,333.6,-323.7,291.9,-444.6,-46.2,-415.8,-628.5,11189.1,200.4,1104.3,375.3,-1348.2,-3232.2,3599.4,101.4,-7.2,-5.7,36.3,377.4,-0.6,265.2,-401.4,-484.2,0,3708,0,171,0, 
2.0633,-240.6,336.3,-323.1,290.7,-438.0,-46.8,-415.5,-627.0,7706.4,193.5,1104.6,378.0,-1353.9,-3261.3,3787.8,98.1,-6.9,-5.7,36.0,386.4,-0.6,252.6,-463.8,-494.7,0,3714,0,172,0, 
2.0667,-242.7,333.9,-324.6,287.7,-445.8,-60.3,-417.9,-631.8,2889.9,203.7,1104.0,369.6,-1347.6,-3291.3,3273.0,99.9,-6.9,-6.3,31.2,374.7,-1.2,262.8,-520.5,-508.5,0,3720,0,173,0, 
2.0700,-244.5,328.2,-330.6,283.5,-450.3,-55.2,-414.6,-629.1,3260.4,193.5,1093.2,366.3,-1347.3,-3290.1,2734.8,107.1,-7.2,-5.7,23.7,372.6,-0.9,252.6,-483.6,-492.9,0,3726,0,174,0, 
2.0733,-245.7,324.3,-329.4,282.0,-451.2,-45.6,-414.6,-622.5,8373.3,190.2,1094.1,368.4,-1354.5,-3259.2,2887.8,107.4,-6.9,-5.7,26.1,373.5,-0.6,253.5,-416.7,-490.2,0,3732,0,175,0, 
2.0767,-237.9,331.5,-322.2,289.2,-443.1,-41.1,-415.2,-617.4,11189.1,197.7,1104.0,378.0,-1342.5,-3255.6,3502.8,101.1,-6.9,-6.0,30.3,381.3,-0.3,251.4,-408.3,-491.1,0,3738,0,176,0, 
2.0800,-239.1,333.9,-318.9,292.8,-441.0,-32.7,-409.5,-612.3,7706.4,213.3,1109.1,378.9,-1347.3,-3290.4,3698.1,102.6,-6.9,-6.0,34.5,375.9,-0.6,262.2,-466.8,-494.4,0,3744,0,177,0, 
2.0833,-241.2,337.5,-323.7,294.9,-441.9,-45.6,-418.2,-617.1,3038.1,204.0,1104.3,380.1,-1355.7,-3323.1,3209.4,98.7,-7.2,-5.7,26.4,376.2,-0.9,268.8,-530.7,-504.6,0,3750,0,178,0, 
2.0867,-245.4,324.6,-342.6,280.2,-452.4,-42.9,-414.6,-614.4,3482.7,190.8,1065.6,357.6,-1368.6,-3310.5,2691.0,101.1,-6.9,-6.0,-14.7,357.9,-0.6,247.2,-492.9,-492.9,0,3756,0,179,0, 
2.0900,-243.9,316.5,-358.8,260.7,-471.6,-60.9,-421.8,-617.7,8817.9,177.0,1018.8,321.6,-1366.8,-3276.9,2869.8,107.4,-6.6,-5.7,-57.3,338.4,-0.6,240.0,-430.5,-505.8,0,3762,0,180,0, 
2.0933,-237.6,336.0,-326.4,278.4,-452.4,-45.6,-416.4,-607.5,11485.5,190.8,1081.5,346.8,-1340.4,-3263.1,3512.1,103.2,-6.3,-6.0,23.1,366.0,-0.6,237.9,-405.9,-505.5,0,3768,0,181,0, 
2.0967,-233.1,344.4,-300.3,297.3,-442.8,-58.2,-425.7,-611.1,8002.8,213.0,1143.9,392.7,-1358.1,-3285.9,3735.6,98.1,-6.9,-6.0,73.2,372.0,-0.9,271.2,-467.7,-495.6,0,3774,0,182,0, 
2.1000,-237.6,336.3,-309.0,297.9,-439.2,-54.9,-424.8,-610.2,2000.7,203.7,1121.7,393.6,-1358.7,-3317.4,3155.7,100.5,-6.9,-6.0,53.1,377.1,-0.6,262.2,-536.4,-504.3,0,3780,0,183,0, 
2.1033,-240.0,332.7,-311.1,295.2,-441.6,-51.3,-419.4,-610.5,3038.1,209.4,1122.3,392.4,-1358.1,-3309.0,2530.5,97.8,-6.9,-5.7,54.0,379.2,-1.2,262.8,-497.4,-502.8,0,3786,0,184,0, 
2.1067,-237.3,328.2,-315.9,296.4,-440.1,-36.3,-417.9,-602.7,8669.7,204.0,1130.1,392.1,-1345.8,-3271.8,2754.0,104.4,-6.9,-6.0,63.6,378.3,-0.6,252.6,-413.4,-480.9,0,3792,0,185,0, 
2.1100,-235.8,334.8,-306.3,300.0,-439.5,-41.7,-416.7,-602.4,11337.3,198.6,1146.0,404.7,-1346.4,-3267.0,3414.0,101.7,-6.9,-5.7,78.9,381.0,-1.2,252.9,-390.3,-487.2,0,3798,0,186,0, 
2.1133,-236.4,337.8,-300.3,306.6,-432.9,-51.0,-417.3,-602.7,7410.0,207.9,1155.9,415.8,-1342.5,-3306.3,3599.4,100.8,-6.6,-5.7,87.0,389.1,-0.9,252.6,-469.5,-502.2,0,3804,0,187,0, 
2.1167,-234.3,341.7,-297.9,307.5,-426.9,-49.5,-418.5,-600.9,1259.7,210.9,1151.7,414.9,-1348.2,-3345.9,2953.5,100.8,-6.6,-5.4,81.6,389.4,-0.6,260.4,-537.6,-505.5,0,3810,0,188,0, 
2.1200,-231.6,344.1,-297.0,306.9,-428.1,-46.2,-420.6,-597.6,2371.2,208.2,1153.2,413.1,-1347.0,-3326.4,2320.8,104.4,-6.9,-5.7,91.2,387.6,-0.6,262.8,-491.7,-501.6,0,3816,0,189,0, 
2.1233,-235.2,342.0,-296.4,309.6,-427.5,-41.4,-420.6,-597.0,4816.5,204.3,1173.3,424.8,-1350.6,-3327.6,2330.1,105.9,-7.2,-6.3,100.5,390.3,-0.6,255.6,-466.8,-494.7,0,3822,0,190,0, 
2.1267,-235.5,340.5,-300.6,311.7,-428.1,-43.8,-419.4,-595.8,4742.4,195.3,1165.5,419.4,-1348.2,-3342.9,2387.4,104.4,-6.6,-6.0,90.6,389.1,-0.9,250.2,-466.2,-486.6,0,3828,0,191,0, 
2.1300,-234.0,345.9,-299.7,312.3,-420.9,-53.7,-417.9,-595.2,-5483.4,199.8,1153.5,413.7,-1374.0,-3435.0,1702.5,99.6,-7.2,-6.0,76.2,385.8,-1.2,256.8,-600.3,-517.5,0,3834,0,192,0, 
2.1333,-234.0,350.7,-295.5,315.0,-421.8,-57.9,-417.3,-594.6,-15931.5,209.7,1155.9,417.3,-1358.7,-3501.3,-342.6,102.0,-6.3,-5.7,81.0,380.1,-0.9,264.3,-674.4,-525.9,0,3840,0,193,0, 
2.1367,-231.3,343.2,-301.8,306.0,-430.8,-41.7,-414.6,-588.0,-10077.6,206.4,1146.6,404.7,-1341.3,-3480.6,-1649.4,104.4,-6.9,-5.7,77.1,381.3,-0.6,260.4,-542.4,-504.3,0,3846,0,194,0, 
2.1400,-234.6,335.1,-315.3,294.3,-441.3,-40.5,-414.9,-585.6,2593.5,190.8,1122.0,390.0,-1343.1,-3454.8,-1088.7,111.6,-6.6,-5.4,56.4,375.9,-0.9,238.2,-386.1,-481.5,0,3852,0,195,0, 
2.1433,-233.1,335.1,-313.2,292.2,-447.0,-47.4,-419.4,-586.5,8966.1,187.2,1126.8,388.5,-1354.8,-3466.5,370.5,109.2,-6.6,-6.0,57.6,373.2,-0.6,257.4,-337.8,-474.6,0,3858,0,196,0, 
2.1467,-236.4,335.1,-313.2,295.2,-444.0,-60.3,-422.1,-590.7,2074.8,192.3,1131.3,393.6,-1363.8,-3540.6,888.6,109.2,-6.9,-6.3,58.8,374.4,-1.2,252.3,-478.8,-501.9,0,3864,0,197,0, 
2.1500,-237.6,344.7,-305.7,297.6,-440.7,-63.9,-418.8,-589.5,-4742.4,200.4,1134.9,395.7,-1370.7,-3572.7,128.7,109.2,-6.9,-6.0,65.1,376.5,-0.9,262.8,-524.1,-502.8,0,3870,0,198,0, 
2.1533,-233.1,340.8,-302.7,301.8,-435.9,-38.4,-411.3,-575.7,592.8,203.4,1133.4,395.4,-1359.6,-3531.9,-251.7,107.7,-6.9,-5.7,65.4,377.7,-0.9,255.9,-446.7,-465.6,0,3876,0,199,0, 
2.1567,-236.1,333.6,-311.7,292.5,-447.9,-42.3,-410.1,-577.2,9558.9,186.9,1127.1,387.6,-1355.7,-3495.3,699.9,109.2,-6.6,-5.7,57.9,372.6,-0.9,252.6,-356.4,-483.9,0,3882,0,200,0, 
2.1600,-233.7,336.9,-310.2,297.3,-443.1,-48.3,-418.2,-574.8,11189.1,198.6,1131.6,391.2,-1345.2,-3492.3,1821.0,111.3,-6.9,-5.7,64.5,380.1,-0.3,258.9,-379.8,-474.3,0,3888,0,201,0, 
2.1633,-234.3,339.6,-306.6,300.9,-441.3,-40.5,-415.2,-570.9,6743.1,199.5,1134.9,395.1,-1344.0,-3519.0,2205.3,111.6,-6.6,-6.0,63.0,377.4,-0.6,257.7,-444.6,-481.5,0,3894,0,202,0, 
2.1667,-231.3,344.1,-301.8,308.1,-433.5,-51.3,-415.8,-567.9,1482.0,203.7,1139.4,403.5,-1350.9,-3517.2,1760.4,108.0,-6.9,-6.0,68.1,383.7,-0.6,264.0,-489.0,-487.8,0,3900,0,203,0, 
2.1700,-234.6,338.1,-305.4,303.0,-436.5,-47.4,-421.5,-566.4,1852.5,194.1,1136.4,396.9,-1353.6,-3506.4,1295.7,107.1,-6.6,-6.0,66.0,377.7,-0.9,259.2,-465.0,-484.5,0,3906,0,204,0, 
2.1733,-236.7,336.0,-311.4,294.6,-446.7,-51.6,-421.8,-568.5,6743.1,186.6,1128.0,388.8,-1353.6,-3476.4,1482.3,109.8,-6.6,-6.0,58.2,370.5,-1.2,251.7,-414.9,-483.3,0,3912,0,205,0, 
2.1767,-235.5,335.7,-311.4,294.0,-441.9,-49.2,-419.1,-565.2,9040.2,198.6,1127.4,390.9,-1362.6,-3476.4,2089.2,107.4,-6.9,-5.7,63.9,378.0,-0.6,255.0,-416.4,-473.4,0,3918,0,206,0, 
2.1800,-234.6,339.9,-307.5,295.8,-441.3,-49.8,-418.2,-567.9,5853.9,197.7,1130.4,392.7,-1367.7,-3498.6,2286.0,106.2,-6.6,-5.7,64.5,377.7,-0.6,268.8,-464.7,-484.2,0,3924,0,207,0, 
2.1833,-234.3,343.2,-307.2,298.2,-440.1,-52.5,-416.7,-562.5,1037.4,203.1,1132.5,396.0,-1355.4,-3512.1,1833.3,104.7,-6.9,-5.7,66.0,379.2,-0.6,265.2,-507.0,-493.8,0,3930,0,208,0, 
2.1867,-239.7,337.8,-310.2,297.0,-439.2,-56.4,-418.5,-568.2,1407.9,194.4,1129.2,390.6,-1365.0,-3505.2,1338.0,108.6,-6.9,-6.0,62.4,386.7,-0.9,250.5,-482.7,-490.5,0,3936,0,209,0, 
2.1900,-240.0,334.5,-314.7,290.1,-450.6,-42.0,-414.0,-566.7,5557.5,187.8,1120.5,378.3,-1357.2,-3473.7,1437.3,114.3,-6.6,-5.4,55.2,358.5,-0.6,240.3,-417.3,-478.8,0,3942,0,210,0, 
2.1933,-236.1,333.6,-315.3,291.6,-446.7,-50.7,-419.4,-566.7,7780.5,189.3,1121.7,384.3,-1349.7,-3465.3,1933.8,117.0,-6.9,-5.7,52.5,366.9,-0.9,255.0,-414.3,-489.0,0,3948,0,211,0, 
2.1967,-234.9,341.4,-309.0,298.8,-444.3,-62.1,-417.6,-566.1,4964.7,205.5,1132.2,393.9,-1345.5,-3478.8,2087.1,107.1,-6.9,-6.0,67.5,376.5,-0.9,262.2,-460.2,-480.9,0,3954,0,212,0, 
2.2000,-235.2,339.3,-305.7,298.2,-440.7,-58.8,-418.5,-566.7,815.1,193.2,1130.4,391.8,-1346.7,-3505.8,1659.3,110.1,-6.9,-5.7,64.2,366.3,-0.6,256.2,-502.2,-499.8,0,3960,0,213,0, 
2.2033,-241.5,330.9,-313.5,290.1,-451.5,-66.3,-421.2,-569.7,1111.5,184.8,1122.0,384.0,-1363.5,-3497.4,1192.8,114.6,-7.2,-6.0,62.7,362.7,-0.3,253.5,-482.4,-498.9,0,3966,0,214,0, 
2.2067,-235.5,336.6,-308.7,295.8,-438.9,-47.1,-415.5,-558.6,5187.0,202.5,1130.1,392.1,-1351.8,-3479.1,1299.6,104.1,-6.9,-5.7,76.5,382.5,-0.6,256.2,-418.8,-482.1,0,3972,0,215,0, 
2.2100,-237.0,339.6,-303.6,297.9,-447.0,-47.4,-416.1,-556.2,7261.8,204.3,1131.6,390.6,-1379.7,-3470.7,1758.0,104.1,-6.6,-6.0,82.8,370.5,-0.3,263.1,-406.2,-482.4,0,3978,0,216,0, 
2.2133,-237.9,331.5,-304.8,299.1,-439.8,-47.4,-418.2,-560.4,4890.6,200.7,1127.1,393.3,-1355.4,-3490.2,1929.6,97.8,-6.6,-5.7,78.6,371.4,-0.6,261.0,-459.3,-494.1,0,3984,0,217,0, 
2.2167,-238.8,337.5,-300.6,306.9,-437.4,-48.0,-413.4,-557.4,1111.5,202.5,1132.2,403.8,-1347.0,-3515.4,1557.0,100.8,-6.6,-6.3,81.9,383.4,-0.6,271.8,-503.7,-497.1,0,3990,0,218,0, 
2.2200,-235.2,339.9,-300.6,306.3,-434.7,-39.3,-410.1,-555.6,963.3,206.7,1133.4,400.8,-1340.1,-3508.2,1134.9,100.2,-6.9,-5.4,81.0,380.7,-0.9,272.4,-472.8,-487.2,0,3996,0,219,0, 
2.2233,-238.2,337.2,-301.5,301.5,-439.5,-45.0,-409.8,-552.3,5112.9,200.1,1137.3,396.3,-1346.1,-3486.3,1236.6,105.6,-7.2,-5.7,81.6,379.5,-0.9,264.9,-428.4,-470.7,0,4002,0,220,0, 
2.2267,-232.2,339.3,-304.5,302.1,-439.5,-44.4,-408.9,-552.3,7706.4,208.2,1135.2,398.4,-1343.4,-3472.2,1750.5,104.4,-6.9,-6.3,84.6,378.0,-0.6,258.0,-400.5,-474.9,0,4008,0,221,0, 
2.2300,-237.6,336.3,-303.6,297.9,-443.4,-56.1,-407.1,-555.0,5261.1,207.9,1133.7,396.0,-1368.0,-3488.4,1969.2,105.6,-6.6,-5.7,81.0,373.8,-0.6,267.6,-437.7,-489.3,0,4014,0,222,0, 
2.2333,-240.3,336.0,-303.0,302.4,-437.1,-53.4,-408.6,-553.8,1259.7,208.2,1132.5,397.8,-1367.1,-3515.1,1629.9,97.8,-6.9,-5.4,79.5,379.5,-0.9,266.1,-487.5,-491.4,0,4020,0,223,0, 
2.2367,-243.0,332.7,-311.1,294.6,-444.6,-60.6,-410.4,-555.0,1037.4,209.1,1128.0,392.4,-1373.7,-3513.3,1193.4,102.0,-6.9,-5.4,75.0,375.3,-0.9,257.7,-468.3,-491.1,0,4026,0,224,0, 
2.2400,-239.1,333.9,-309.9,295.8,-443.7,-58.2,-411.6,-553.5,5261.1,205.2,1129.2,396.0,-1365.6,-3491.1,1293.3,103.2,-6.9,-6.0,76.5,377.7,-0.6,263.4,-428.1,-481.2,0,4032,0,225,0, 
2.2433,-240.0,329.1,-313.5,293.1,-448.5,-56.4,-417.0,-552.0,7187.7,191.4,1126.5,388.2,-1353.6,-3487.5,1764.3,103.2,-7.2,-6.0,74.4,370.5,-0.9,261.3,-413.4,-482.4,0,4038,0,226,0, 
