Time,P3,C3,F3,Fz,F4,C4,P4,Cz,CM,A1,Fp1,Fp2,T3,T5,O1,O2,X3,X2,F7,F8,X1,A2,T6,T4,Trigger,Time_Offset,ADC_Status,ADC_Sequence,Event,Comments
0.0033,-153.3,-176.7,-701.7,-168.0,-243.9,-251.7,-40.2,390.9,-1852.5,-161.1,-198.9,-156.9,-4290.6,-4728.3,-46.8,-1488.0,-6.6,-6.3,-125.4,379.8,-0.6,-84.0,22.2,-101.7,0,6,0,156,0, 
0.0067,-151.5,-177.3,2327.4,-159.6,-182.4,-249.6,-21.3,392.4,-2000.7,-161.1,-193.5,-151.8,-3545.4,-3416.7,1963.5,143.1,-6.9,-6.0,-123.3,387.9,-1.2,-86.1,25.5,-80.7,0,12,0,157,0, 
0.0100,-143.1,-174.0,2045.7,-153.3,-229.5,-246.0,-32.1,396.6,-3038.1,-152.1,-191.1,-145.8,-4045.8,-3803.1,535.5,291.0,-6.6,-6.0,-121.8,389.1,-0.9,-88.5,33.0,-72.0,0,18,0,158,0, 
0.0133,-144.3,-165.0,-1123.2,-148.2,-321.3,-246.9,-57.6,400.5,-3408.6,-149.7,-178.5,-135.9,-5078.4,-5450.7,-2325.0,-1219.8,-6.9,-6.0,-111.6,392.7,-0.9,-80.4,19.8,-89.1,0,24,0,159,0, 
0.0167,-145.8,-171.6,-2829.9,-158.4,-337.2,-250.5,-69.6,390.3,-2741.7,-162.0,-191.4,-146.4,-5247.3,-6069.6,-2710.2,-2392.5,-6.6,-5.7,-119.4,385.2,-0.6,-87.6,11.4,-100.8,0,30,0,160,0, 
0.0200,-147.3,-172.2,-718.5,-156.3,-250.2,-250.8,-25.5,394.5,-1704.3,-152.1,-189.3,-142.2,-4257.0,-4743.9,-65.1,-1506.9,-6.9,-6.0,-114.0,391.2,-0.6,-82.2,22.8,-86.4,0,36,0,161,0, 
0.0233,-151.2,-172.8,2292.0,-158.1,-174.3,-247.2,-11.7,394.5,-2074.8,-161.4,-191.1,-147.0,-3575.4,-3419.7,1927.5,49.8,-6.6,-6.0,-112.5,389.1,-0.9,-86.4,34.2,-69.9,0,42,0,162,0, 
0.0267,-149.7,-168.6,1767.9,-157.2,-247.5,-247.2,-33.6,398.4,-2964.0,-161.1,-192.3,-147.0,-4323.3,-4042.2,67.8,-36.6,-6.9,-5.4,-114.3,388.8,-1.2,-73.2,33.0,-67.8,0,48,0,163,0, 
0.0300,-151.8,-171.6,-1342.5,-160.2,-330.9,-247.5,-53.7,399.3,-3260.4,-157.5,-192.3,-141.0,-5243.4,-5559.3,-2542.5,-1410.6,-6.6,-6.0,-113.7,382.5,-0.6,-79.5,18.0,-87.3,0,54,0,164,0, 
0.0333,-148.2,-170.7,-3009.0,-155.4,-334.8,-243.6,-53.7,403.2,-2593.5,-152.7,-186.0,-133.8,-5320.5,-6134.4,-2897.4,-2493.6,-6.9,-6.0,-115.2,389.4,-1.2,-74.1,22.8,-86.1,0,60,0,165,0, 
0.0367,-146.4,-171.3,-768.9,-154.8,-238.8,-252.3,-20.1,399.0,-1852.5,-156.0,-191.1,-145.2,-4328.4,-4834.2,-159.6,-1615.2,-6.9,-6.0,-120.9,386.1,-0.9,-71.7,27.0,-76.5,0,66,0,166,0, 
0.0400,-147.0,-174.6,2235.9,-158.1,-171.0,-249.3,-6.3,398.1,-2000.7,-160.5,-193.2,-152.1,-3570.9,-3407.7,1862.7,30.6,-6.6,-6.0,-123.6,385.8,-0.9,-78.0,33.3,-63.6,0,72,0,167,0, 
0.0433,-144.6,-163.2,2007.3,-150.6,-219.3,-243.6,-21.0,403.2,-2964.0,-152.7,-176.7,-142.2,-4067.4,-3846.6,482.4,209.1,-7.2,-6.0,-107.4,393.3,-0.6,-77.7,29.1,-62.1,0,78,0,168,0, 
0.0467,-147.6,-171.0,-1163.7,-158.4,-331.5,-248.4,-49.2,392.4,-3408.6,-157.2,-176.4,-143.7,-5151.3,-5486.4,-2359.2,-1334.1,-7.2,-5.7,-110.7,394.8,-0.9,-76.5,18.0,-82.8,0,84,0,169,0, 
0.0500,-147.0,-173.4,-2901.6,-159.9,-325.8,-249.6,-59.4,386.7,-2667.6,-158.1,-187.5,-151.2,-5258.4,-6060.0,-2677.5,-2400.9,-6.9,-6.3,-122.4,385.5,-0.9,-90.0,13.2,-97.2,0,90,0,170,0, 
0.0533,-148.5,-178.8,-732.6,-162.6,-238.8,-246.9,-30.6,381.3,-1778.4,-160.2,-195.3,-148.8,-4280.1,-4788.3,-53.7,-1548.9,-6.9,-5.7,-121.8,394.8,-0.6,-87.0,25.5,-79.5,0,96,0,171,0, 
0.0567,-147.3,-179.7,2248.5,-161.7,-170.1,-258.9,-12.9,382.2,-1926.6,-161.7,-195.3,-147.9,-3578.4,-3433.8,1888.8,40.8,-6.6,-6.3,-122.4,386.7,-0.9,-93.3,31.8,-66.6,0,102,0,172,0, 
0.0600,-146.1,-173.7,2037.3,-162.6,-242.7,-257.4,-32.1,382.8,-2889.9,-165.3,-195.6,-147.9,-4102.2,-3858.6,463.8,229.8,-6.9,-6.0,-119.7,385.2,-0.6,-89.7,24.9,-74.4,0,108,0,173,0, 
0.0633,-151.8,-188.1,-1147.2,-173.1,-334.2,-261.0,-57.6,377.7,-3334.5,-169.2,-204.0,-153.9,-5130.6,-5466.3,-2399.4,-1309.2,-6.6,-6.0,-133.2,378.0,-1.2,-94.8,10.5,-94.8,0,114,0,174,0, 
0.0667,-148.2,-180.6,-2844.9,-171.6,-341.7,-260.1,-60.0,376.5,-2741.7,-168.9,-198.3,-154.5,-5203.8,-6090.0,-2807.7,-2383.8,-6.9,-5.7,-128.4,381.3,-0.6,-93.9,8.1,-105.6,0,120,0,175,0, 
0.0700,-146.4,-179.4,-669.0,-174.6,-244.8,-261.3,-42.0,374.4,-1852.5,-171.0,-194.1,-157.2,-4215.9,-4812.6,-121.5,-1519.5,-6.6,-5.7,-126.9,375.9,-1.5,-95.7,16.2,-99.9,0,126,0,176,0, 
0.0733,-148.2,-185.4,2402.7,-180.3,-171.9,-266.4,-21.9,379.5,-2000.7,-167.4,-211.2,-162.0,-3462.6,-3460.5,1882.8,70.2,-6.9,-5.7,-141.0,376.2,-0.9,-93.9,25.8,-82.8,0,132,0,177,0, 
0.0767,-148.5,-181.2,2183.1,-179.1,-229.8,-258.6,-33.6,382.5,-2964.0,-172.2,-211.2,-160.8,-4006.8,-3866.7,523.8,251.1,-6.9,-6.0,-138.0,372.6,-0.9,-95.1,25.2,-80.7,0,138,0,178,0, 
0.0800,-151.2,-181.5,-1011.0,-178.2,-338.4,-252.9,-59.7,380.4,-3408.6,-163.5,-210.9,-162.3,-5032.5,-5488.2,-2442.3,-1293.6,-6.6,-6.0,-137.1,368.7,-0.6,-90.6,16.8,-92.1,0,144,0,179,0, 
0.0833,-147.0,-177.6,-2793.0,-177.0,-342.6,-255.0,-61.5,383.1,-2667.6,-174.6,-210.9,-159.9,-5241.6,-6066.6,-2869.2,-2491.5,-7.2,-6.0,-136.5,371.7,-0.9,-95.4,11.7,-99.6,0,150,0,180,0, 
0.0867,-145.2,-189.6,-649.5,-178.5,-249.9,-259.2,-31.5,379.8,-1778.4,-168.0,-207.6,-168.3,-4237.5,-4778.4,-192.0,-1613.4,-6.9,-5.7,-138.9,372.0,-0.9,-91.2,21.9,-87.3,0,156,0,181,0, 
0.0900,-151.2,-179.7,2460.3,-179.7,-188.4,-259.5,-13.2,375.3,-2000.7,-174.3,-204.9,-170.1,-3520.5,-3433.5,1810.2,-4.2,-7.2,-6.0,-142.2,369.0,-0.9,-98.7,30.3,-72.6,0,162,0,182,0, 
0.0933,-153.6,-186.9,2262.0,-180.6,-246.0,-254.1,-27.0,381.3,-3038.1,-161.4,-208.8,-159.6,-4008.9,-3838.2,433.8,191.7,-7.5,-6.0,-137.7,377.7,-0.6,-86.4,28.2,-72.9,0,168,0,183,0, 
0.0967,-153.3,-180.0,-978.0,-176.7,-324.6,-250.5,-55.8,380.7,-3334.5,-164.4,-206.4,-159.3,-5060.7,-5479.8,-2482.5,-1324.5,-6.6,-6.0,-134.7,381.0,-0.9,-79.8,18.6,-87.0,0,174,0,184,0, 
0.1000,-156.9,-187.5,-2714.4,-181.2,-354.3,-253.8,-55.2,375.9,-2667.6,-164.7,-207.0,-165.9,-5187.3,-6061.5,-2842.2,-2438.1,-7.2,-5.7,-135.0,374.1,-0.6,-84.6,7.8,-96.3,0,180,0,185,0, 
0.1033,-156.6,-188.1,-642.0,-180.6,-269.7,-249.0,-40.5,381.3,-1926.6,-170.1,-204.9,-163.5,-4221.6,-4777.8,-259.2,-1615.2,-6.6,-5.7,-133.2,376.8,-0.9,-90.3,18.9,-81.0,0,186,0,186,0, 
0.1067,-157.5,-184.8,2448.9,-180.3,-203.1,-261.6,-24.3,380.1,-2074.8,-169.2,-206.1,-164.7,-3501.0,-3369.0,1746.6,17.7,-6.9,-5.7,-134.4,376.8,-0.9,-81.3,27.9,-68.4,0,192,0,187,0, 
0.1100,-151.2,-177.9,2202.6,-164.7,-233.1,-249.6,-30.6,390.9,-2964.0,-158.4,-192.3,-152.1,-3980.7,-3825.9,397.5,156.6,-7.2,-5.1,-120.6,384.3,-0.9,-75.6,32.1,-67.8,0,198,0,188,0, 
0.1133,-150.0,-184.5,-977.7,-167.1,-338.1,-252.9,-64.8,392.4,-3482.7,-156.3,-195.3,-152.4,-5067.3,-5467.8,-2427.3,-1317.0,-7.2,-6.0,-124.2,382.5,-0.6,-75.6,14.1,-87.0,0,204,0,189,0, 
0.1167,-148.8,-175.8,-2732.4,-165.0,-334.5,-252.9,-71.4,392.7,-2593.5,-154.2,-195.9,-148.2,-5238.6,-6078.9,-2892.9,-2506.2,-6.9,-5.7,-125.4,383.7,-0.9,-74.4,13.8,-97.5,0,210,0,190,0, 
0.1200,-150.3,-175.5,-581.7,-163.8,-225.9,-252.3,-48.9,384.9,-1704.3,-153.0,-188.7,-145.5,-4272.6,-4770.3,-257.1,-1621.5,-6.9,-5.7,-122.4,388.5,-0.9,-80.1,18.6,-82.2,0,216,0,191,0, 
0.1233,-146.1,-169.5,2480.4,-159.3,-160.8,-255.0,-22.5,386.7,-1926.6,-154.2,-179.4,-141.6,-3474.3,-3382.2,1816.8,26.4,-7.2,-6.0,-111.0,396.6,-0.6,-71.7,30.3,-62.1,0,222,0,192,0, 
0.1267,-143.4,-170.4,2244.6,-156.6,-221.1,-251.1,-29.1,389.7,-2964.0,-153.0,-181.5,-141.3,-3937.5,-3842.4,358.8,168.6,-6.6,-6.0,-113.7,392.7,-0.3,-72.6,32.7,-58.2,0,228,0,193,0, 
0.1300,-146.4,-170.4,-949.5,-154.5,-327.3,-249.3,-54.9,388.5,-3334.5,-153.6,-170.1,-130.5,-5013.9,-5404.5,-2458.8,-1377.0,-6.6,-5.7,-104.7,401.4,-0.9,-70.5,30.9,-75.0,0,234,0,194,0, 
0.1333,-144.0,-170.1,-2733.6,-149.1,-313.8,-238.5,-62.4,396.3,-2741.7,-142.8,-176.7,-123.0,-5171.4,-6011.1,-2897.1,-2510.4,-6.9,-6.0,-110.1,408.6,-0.6,-57.9,21.3,-74.1,0,240,0,195,0, 
0.1367,-140.7,-169.8,-605.7,-150.9,-221.4,-249.9,-40.2,396.9,-1778.4,-147.6,-182.4,-130.2,-4222.2,-4753.5,-310.2,-1743.6,-6.6,-6.0,-106.2,400.8,-0.9,-63.0,32.7,-70.8,0,246,0,196,0, 
0.1400,-143.4,-174.9,2472.3,-155.1,-156.3,-251.1,-13.2,394.8,-1852.5,-144.9,-178.2,-137.1,-3471.9,-3326.4,1691.4,-46.8,-6.6,-6.0,-109.5,399.0,-0.9,-60.0,32.7,-55.8,0,252,0,197,0, 
0.1433,-143.7,-174.6,2210.7,-152.1,-202.5,-244.8,-36.6,396.9,-2889.9,-154.5,-173.7,-142.2,-3985.2,-3697.8,359.1,116.7,-6.9,-6.0,-92.1,397.8,-0.9,-72.3,29.1,-61.8,0,258,0,198,0, 
0.1467,-143.7,-174.6,-972.9,-153.3,-299.7,-241.2,-58.5,397.8,-3482.7,-148.5,-180.9,-135.0,-4988.1,-5311.8,-2457.3,-1384.2,-7.2,-5.7,-111.0,398.4,-0.9,-69.3,21.3,-71.4,0,264,0,199,0, 
0.1500,-147.9,-173.7,-2782.8,-161.4,-324.3,-247.8,-66.3,394.2,-2667.6,-156.3,-184.8,-144.9,-5092.8,-5962.8,-2953.8,-2557.5,-6.9,-6.6,-115.2,390.6,-1.2,-78.3,17.7,-81.0,0,270,0,200,0, 
0.1533,-144.3,-171.0,-603.9,-162.6,-221.7,-250.5,-46.5,393.6,-1852.5,-154.8,-192.9,-150.6,-4167.3,-4703.1,-330.6,-1688.7,-6.9,-6.0,-124.2,390.6,-0.9,-80.1,19.2,-74.4,0,276,0,201,0, 
0.1567,-144.9,-174.6,2410.8,-169.8,-156.6,-249.6,-25.2,392.7,-1852.5,-160.2,-194.4,-158.1,-3424.5,-3325.8,1594.5,-51.0,-7.2,-5.7,-123.0,383.4,-0.6,-82.5,24.0,-64.8,0,282,0,202,0, 
0.1600,-146.7,-176.4,2243.4,-172.2,-223.2,-257.7,-36.3,393.9,-3038.1,-154.2,-185.4,-153.6,-3948.3,-3687.6,288.3,169.8,-6.9,-6.0,-115.5,384.6,-0.3,-83.7,21.3,-68.7,0,288,0,203,0, 
0.1633,-145.2,-172.8,-942.6,-163.8,-311.1,-253.2,-76.5,401.1,-3260.4,-157.2,-176.1,-146.7,-5019.0,-5343.0,-2588.4,-1361.7,-7.2,-6.0,-106.2,386.1,-1.2,-83.4,11.7,-84.0,0,294,0,204,0, 
0.1667,-147.3,-179.4,-2748.3,-169.8,-327.9,-259.8,-83.7,397.2,-2741.7,-163.8,-196.2,-150.6,-5187.3,-5950.2,-2997.6,-2475.6,-7.2,-6.0,-123.9,381.9,-0.9,-79.8,4.8,-99.9,0,300,0,205,0, 
0.1700,-151.8,-180.3,-656.7,-170.1,-226.5,-258.3,-53.1,391.5,-1852.5,-166.2,-202.5,-153.6,-4228.8,-4701.6,-436.5,-1725.9,-6.6,-6.0,-125.4,385.5,-1.2,-81.6,14.4,-95.7,0,306,0,206,0, 
0.1733,-150.0,-186.6,2421.9,-169.2,-178.2,-257.4,-34.8,390.3,-2074.8,-165.3,-196.5,-158.1,-3450.6,-3293.7,1603.5,-21.9,-6.9,-6.0,-125.1,379.8,-0.6,-82.8,26.1,-82.2,0,312,0,207,0, 
0.1767,-147.9,-184.2,2155.8,-168.6,-229.2,-262.8,-49.8,389.1,-3038.1,-165.6,-199.2,-157.2,-3939.6,-3707.4,291.6,157.5,-6.9,-6.0,-127.5,373.8,-0.9,-88.8,24.3,-82.5,0,318,0,208,0, 
0.1800,-153.6,-186.0,-1038.9,-174.3,-332.1,-264.6,-76.2,380.7,-3482.7,-172.5,-206.1,-164.1,-5004.9,-5303.1,-2577.6,-1322.7,-6.9,-6.3,-131.7,369.9,-0.6,-94.8,14.1,-105.0,0,324,0,209,0, 
0.1833,-151.2,-181.8,-2823.9,-172.2,-333.3,-261.3,-74.1,385.2,-2741.7,-174.6,-200.1,-165.0,-5142.3,-5919.6,-2997.3,-2497.2,-7.2,-6.0,-129.9,374.7,-1.2,-97.2,10.5,-114.6,0,330,0,210,0, 
0.1867,-150.9,-180.6,-653.7,-169.8,-242.4,-257.4,-44.1,391.8,-1778.4,-174.0,-193.5,-165.3,-4212.9,-4668.3,-375.0,-1614.3,-7.2,-6.0,-126.9,380.4,-0.9,-99.6,15.0,-99.6,0,336,0,211,0, 
0.1900,-155.1,-187.8,2376.6,-171.3,-182.1,-259.2,-18.6,389.7,-1852.5,-183.3,-200.1,-165.3,-3460.2,-3272.4,1683.6,16.5,-6.6,-6.0,-127.8,368.7,-0.6,-97.8,25.2,-81.6,0,342,0,212,0, 
0.1933,-152.4,-188.7,2159.1,-174.6,-221.4,-255.9,-27.0,390.3,-3038.1,-178.8,-205.2,-167.4,-3993.6,-3653.7,374.1,213.9,-6.9,-6.3,-131.7,373.5,-0.9,-88.8,32.1,-70.2,0,348,0,213,0, 
0.1967,-155.4,-189.9,-981.9,-173.7,-326.1,-250.8,-56.1,388.8,-3482.7,-181.5,-209.1,-166.2,-5027.1,-5310.6,-2522.7,-1313.4,-6.9,-6.0,-131.7,370.8,-0.9,-97.2,19.8,-89.1,0,354,0,214,0, 
0.2000,-159.0,-188.4,-2800.5,-174.6,-333.3,-256.5,-66.9,386.1,-2667.6,-174.3,-204.6,-165.3,-5172.0,-5897.7,-3081.6,-2422.2,-6.9,-6.0,-137.1,377.1,-1.2,-85.2,14.1,-96.0,0,360,0,215,0, 
0.2033,-158.4,-190.8,-658.2,-174.0,-235.5,-254.4,-37.2,384.3,-1704.3,-183.0,-200.4,-168.0,-4181.4,-4561.8,-409.2,-1610.1,-6.9,-6.0,-127.5,379.8,-1.2,-96.3,17.4,-85.5,0,366,0,216,0, 
0.2067,-160.8,-200.4,2378.7,-180.6,-167.7,-268.2,-21.6,379.5,-1926.6,-181.2,-214.5,-170.7,-3446.4,-3236.1,1643.4,14.4,-6.6,-5.7,-153.0,374.4,-1.2,-96.9,25.2,-74.4,0,372,0,217,0, 
0.2100,-162.6,-199.2,2168.1,-181.8,-247.5,-265.8,-38.4,375.6,-2964.0,-177.6,-210.6,-169.5,-3995.4,-3677.7,265.8,125.7,-6.6,-6.0,-139.8,373.2,-0.6,-102.9,24.6,-81.6,0,378,0,218,0, 
0.2133,-160.5,-192.3,-923.7,-178.8,-322.8,-265.8,-63.6,373.5,-3482.7,-177.6,-201.9,-168.6,-4989.0,-5239.2,-2554.5,-1295.1,-6.6,-6.0,-134.7,379.5,-1.2,-96.0,10.2,-93.9,0,384,0,219,0, 
0.2167,-159.9,-193.8,-2757.9,-179.7,-334.2,-261.0,-72.3,373.8,-2741.7,-176.1,-207.0,-161.4,-5157.0,-5860.8,-3069.0,-2535.3,-6.6,-5.7,-137.7,394.8,-0.6,-84.0,9.6,-95.1,0,390,0,220,0, 
0.2200,-155.7,-182.1,-675.9,-177.0,-233.1,-265.5,-45.9,377.1,-1926.6,-173.1,-203.4,-159.9,-4160.1,-4568.7,-398.1,-1677.6,-7.2,-6.0,-133.5,388.5,-0.9,-84.9,13.8,-93.0,0,396,0,221,0, 
0.2233,-150.3,-184.5,2388.0,-166.8,-165.6,-255.3,-28.5,382.8,-1852.5,-157.8,-190.2,-145.2,-3397.5,-3173.1,1617.9,-27.0,-6.9,-6.6,-119.1,398.4,-0.6,-79.8,30.6,-70.8,0,402,0,222,0, 
0.2267,-150.9,-181.2,2164.5,-157.2,-230.4,-252.9,-32.7,389.7,-3038.1,-154.8,-174.3,-140.7,-3827.7,-3551.1,338.7,221.1,-6.9,-6.0,-108.3,404.7,-0.9,-64.5,29.1,-64.8,0,408,0,223,0, 
0.2300,-149.7,-185.1,-969.0,-153.9,-326.1,-251.4,-67.5,393.3,-3482.7,-159.3,-180.3,-143.7,-4886.1,-5198.1,-2600.4,-1280.4,-6.9,-6.3,-107.7,407.1,-0.9,-70.2,21.3,-81.9,0,414,0,224,0, 
0.2333,-148.8,-183.6,-2761.8,-156.3,-329.1,-251.1,-70.2,387.9,-2741.7,-155.1,-188.1,-156.3,-5063.4,-5811.0,-3059.4,-2423.7,-6.9,-6.0,-114.3,391.5,-0.6,-77.7,15.6,-98.7,0,420,0,225,0, 
0.2367,-150.9,-185.4,-789.6,-164.4,-245.1,-257.4,-50.7,379.2,-1704.3,-167.7,-199.8,-158.7,-4149.3,-4574.7,-462.0,-1622.7,-6.9,-6.0,-123.6,387.6,-1.2,-87.0,18.0,-97.2,0,426,0,226,0, 
0.2400,-147.0,-190.5,2321.1,-161.4,-174.0,-248.4,-24.0,380.7,-1852.5,-165.0,-194.1,-153.6,-3393.9,-3144.6,1615.2,32.7,-6.6,-6.0,-123.0,395.7,-0.6,-78.3,26.7,-80.7,0,432,0,227,0, 
0.2433,-146.4,-193.8,2156.7,-162.6,-240.3,-256.5,-43.8,380.4,-3038.1,-173.7,-196.8,-158.4,-3880.2,-3527.4,348.3,268.5,-7.2,-5.7,-125.4,391.2,-0.9,-81.3,27.3,-81.3,0,438,0,228,0, 
0.2467,-144.0,-188.7,-1023.9,-152.1,-311.7,-250.2,-66.6,387.6,-3482.7,-162.3,-190.2,-149.1,-4900.2,-5178.3,-2508.3,-1258.8,-6.9,-6.0,-120.0,404.7,-0.9,-76.2,24.0,-95.7,0,444,0,229,0, 
0.2500,-145.2,-188.4,-2830.8,-158.7,-342.3,-257.7,-73.2,385.5,-2667.6,-171.6,-194.1,-154.8,-5092.2,-5847.0,-3027.0,-2358.6,-7.2,-6.3,-119.1,393.9,-0.9,-84.9,12.3,-118.2,0,450,0,230,0, 
0.2533,-140.7,-184.2,-765.0,-161.7,-229.2,-261.0,-39.9,380.7,-1926.6,-176.4,-195.9,-162.0,-4158.9,-4597.8,-455.1,-1551.6,-6.9,-5.7,-127.8,385.8,-0.6,-92.4,16.5,-110.1,0,456,0,231,0, 
0.2567,-143.1,-179.7,2359.5,-158.4,-166.2,-260.1,-29.1,386.4,-2000.7,-169.2,-189.6,-148.2,-3422.4,-3166.5,1557.0,84.0,-6.9,-6.0,-114.9,393.6,-0.3,-92.1,21.3,-95.1,0,462,0,232,0, 
0.2600,-141.3,-180.6,2242.2,-152.4,-226.8,-247.8,-26.1,394.5,-3038.1,-167.1,-192.6,-139.2,-3881.7,-3549.0,222.0,314.4,-6.9,-6.0,-124.5,404.7,-0.9,-82.2,30.9,-84.0,0,468,0,233,0, 
0.2633,-141.0,-179.4,-962.7,-153.6,-313.5,-249.3,-64.2,391.8,-3408.6,-157.8,-183.3,-150.3,-4977.9,-5223.0,-2565.6,-1221.9,-6.9,-6.3,-108.0,395.4,-0.6,-77.1,19.8,-99.0,0,474,0,234,0, 
0.2667,-145.5,-189.6,-2825.1,-164.4,-332.7,-253.8,-64.5,384.3,-2593.5,-173.1,-198.3,-158.1,-5170.2,-5829.0,-3008.7,-2391.6,-6.6,-5.7,-124.2,385.8,-1.2,-84.3,11.1,-107.4,0,480,0,235,0, 
0.2700,-141.0,-184.2,-753.3,-166.8,-264.6,-257.1,-45.9,378.9,-1852.5,-167.7,-203.4,-162.0,-4193.7,-4533.6,-399.6,-1515.9,-6.9,-6.3,-122.7,385.2,-0.6,-92.7,14.1,-106.5,0,486,0,236,0, 
0.2733,-142.8,-193.2,2281.2,-168.0,-172.5,-253.5,-22.5,382.5,-1926.6,-163.8,-204.3,-165.3,-3451.5,-3152.4,1594.8,82.2,-6.6,-6.3,-130.5,388.8,-0.9,-93.9,25.5,-89.4,0,492,0,237,0, 
0.2767,-142.8,-189.9,2156.1,-164.1,-229.5,-255.3,-32.7,390.6,-2889.9,-165.3,-194.7,-160.2,-3936.9,-3477.6,265.8,316.2,-6.6,-6.0,-120.9,395.7,-1.2,-85.5,23.4,-85.2,0,498,0,238,0, 
0.2800,-145.2,-195.0,-981.0,-171.6,-340.5,-262.2,-57.3,384.6,-3186.3,-171.0,-197.7,-165.0,-4973.1,-5105.4,-2572.8,-1158.3,-6.9,-5.7,-121.8,391.8,-1.2,-90.9,15.9,-103.8,0,504,0,239,0, 
0.2833,-146.1,-189.0,-2858.1,-173.4,-344.1,-270.0,-66.3,385.5,-2741.7,-169.2,-201.6,-166.2,-5161.8,-5760.9,-3109.2,-2373.3,-6.6,-6.0,-123.3,383.7,-0.9,-93.0,5.4,-114.6,0,510,0,240,0, 
0.2867,-149.4,-195.0,-791.7,-179.4,-245.1,-263.4,-45.6,387.6,-1852.5,-178.8,-207.0,-170.1,-4197.3,-4459.2,-495.0,-1529.4,-7.2,-6.0,-132.9,380.1,-0.9,-91.2,16.8,-108.9,0,516,0,241,0, 
0.2900,-142.2,-191.1,2297.4,-175.8,-172.2,-263.7,-25.2,387.6,-1852.5,-176.1,-203.4,-165.0,-3412.5,-3115.2,1630.2,115.5,-7.5,-5.7,-129.0,384.9,-0.6,-96.6,25.8,-90.3,0,522,0,242,0, 
0.2933,-144.9,-198.0,2174.7,-177.0,-227.7,-258.0,-33.0,388.8,-2889.9,-174.9,-205.2,-159.6,-3864.0,-3493.8,375.6,327.3,-6.9,-5.7,-133.8,389.1,-0.6,-89.7,27.3,-84.9,0,528,0,243,0, 
0.2967,-140.1,-190.2,-1065.6,-168.6,-326.4,-254.7,-59.4,393.9,-3408.6,-174.0,-187.2,-156.3,-4898.7,-5109.9,-2493.9,-1161.9,-6.9,-6.0,-116.1,383.7,-0.9,-85.5,13.8,-98.1,0,534,0,244,0, 
0.3000,-144.3,-201.0,-2930.1,-177.6,-334.5,-260.4,-65.4,388.8,-2667.6,-170.4,-201.9,-166.2,-5117.7,-5726.7,-3081.0,-2360.7,-7.2,-6.3,-131.1,379.2,-0.9,-87.3,14.4,-104.4,0,540,0,245,0, 
0.3033,-148.2,-197.7,-868.2,-175.2,-257.1,-259.5,-42.0,385.2,-1778.4,-177.3,-214.2,-165.0,-4166.1,-4518.9,-529.8,-1536.3,-7.2,-6.0,-137.1,383.7,-0.9,-91.5,21.3,-94.8,0,546,0,246,0, 
0.3067,-138.9,-197.1,2359.5,-168.3,-176.1,-248.7,-15.0,392.7,-1852.5,-168.9,-206.4,-153.9,-3392.1,-3064.8,1522.2,94.2,-6.9,-6.0,-124.2,396.9,-0.9,-84.9,39.0,-70.5,0,552,0,247,0, 
0.3100,-136.5,-196.8,2123.7,-164.1,-220.2,-248.1,-21.6,390.6,-2889.9,-161.7,-206.1,-145.2,-3876.6,-3457.5,267.3,318.0,-6.9,-6.0,-128.7,403.2,-0.9,-68.7,38.4,-66.0,0,558,0,248,0, 
0.3133,-139.8,-195.0,-1062.0,-166.2,-323.7,-244.5,-61.8,389.4,-3408.6,-160.5,-204.3,-153.0,-4882.2,-5085.0,-2662.8,-1269.6,-7.2,-6.0,-123.9,393.6,-0.9,-84.0,21.9,-84.9,0,564,0,249,0, 
0.3167,-143.4,-191.1,-2908.5,-162.3,-334.5,-253.2,-74.1,383.4,-2667.6,-174.9,-201.3,-151.8,-5091.9,-5703.3,-3206.7,-2397.6,-6.9,-5.7,-125.1,399.9,-0.9,-78.9,14.7,-93.9,0,570,0,250,0, 
0.3200,-147.3,-199.2,-780.0,-165.6,-252.9,-251.7,-41.4,381.6,-1778.4,-171.0,-194.4,-163.8,-4111.8,-4388.4,-448.8,-1629.9,-7.2,-5.7,-118.8,393.6,-0.9,-81.9,24.6,-86.7,0,576,0,251,0, 
0.3233,-151.2,-204.3,2252.1,-168.3,-177.3,-255.3,-24.6,376.2,-1926.6,-173.4,-199.8,-162.6,-3381.6,-3062.4,1450.2,-10.2,-6.9,-6.0,-130.5,396.3,-1.2,-87.0,34.5,-74.1,0,582,0,252,0, 
0.3267,-147.6,-199.5,2624.1,-168.9,-187.8,-253.2,-13.2,381.6,-3038.1,-172.5,-199.2,-162.9,-3520.5,-3130.8,750.6,567.0,-6.9,-6.0,-122.7,394.8,-0.9,-82.5,39.6,-71.4,0,588,0,253,0, 
0.3300,-148.5,-196.8,-656.1,-168.3,-308.1,-254.1,-51.0,375.6,-3482.7,-169.2,-198.6,-158.1,-4656.0,-4890.9,-2305.2,-1087.5,-6.6,-5.7,-130.2,396.6,-0.9,-86.7,30.6,-87.6,0,594,0,254,0, 
0.3333,-150.9,-200.7,-2672.7,-175.8,-324.9,-258.0,-60.6,372.9,-2741.7,-172.8,-202.5,-167.1,-4903.8,-5603.4,-3019.2,-2341.2,-7.2,-5.7,-133.2,392.1,-0.9,-89.1,24.3,-104.1,0,600,0,255,0, 
0.3367,-152.4,-202.2,-741.3,-176.4,-245.4,-259.5,-31.5,372.3,-1852.5,-170.7,-192.3,-162.6,-4016.4,-4387.8,-511.2,-1556.4,-6.9,-6.0,-123.6,389.7,-0.9,-93.0,26.4,-104.7,0,606,0,0,0, 
0.3400,-152.7,-196.5,2357.1,-177.3,-165.6,-252.0,-6.9,371.7,-1852.5,-170.4,-205.8,-166.8,-3248.1,-2879.4,1677.6,150.3,-6.6,-5.7,-126.9,382.5,-0.3,-79.2,40.8,-87.3,0,612,0,1,0, 
0.3433,-148.2,-189.6,2232.6,-175.2,-238.8,-258.9,-17.1,371.7,-2889.9,-167.7,-204.9,-156.3,-3725.7,-3289.2,403.2,347.4,-6.9,-6.0,-130.5,386.7,-0.9,-82.8,36.9,-91.5,0,618,0,2,0, 
0.3467,-149.1,-188.1,-886.8,-176.4,-328.5,-255.6,-49.8,374.4,-3408.6,-168.6,-205.2,-162.0,-4751.4,-4884.6,-2507.7,-1211.7,-6.9,-6.3,-131.4,380.4,-0.3,-88.5,24.3,-115.5,0,624,0,3,0, 
0.3500,-147.6,-189.3,-2762.7,-179.4,-345.0,-262.5,-56.7,371.4,-2741.7,-163.8,-209.4,-162.9,-4944.0,-5542.5,-2978.7,-2367.0,-7.2,-6.0,-134.7,373.8,-0.9,-87.9,16.5,-112.2,0,630,0,4,0, 
0.3533,-148.5,-193.8,-813.6,-180.9,-243.9,-270.6,-39.3,372.0,-1852.5,-177.6,-211.8,-170.1,-4002.0,-4315.5,-441.6,-1586.7,-7.2,-5.7,-136.2,376.8,-0.3,-89.1,21.6,-103.8,0,636,0,5,0, 
0.3567,-149.1,-199.8,2242.5,-185.7,-181.8,-266.7,-10.8,369.0,-2000.7,-169.8,-214.8,-171.3,-3265.2,-2935.2,1557.3,54.0,-7.2,-6.0,-143.1,371.4,-0.9,-84.9,34.5,-89.7,0,642,0,6,0, 
0.3600,-148.5,-192.6,2127.0,-186.6,-245.7,-273.3,-36.3,372.0,-2964.0,-171.9,-207.0,-164.4,-3768.6,-3246.6,308.1,268.5,-6.9,-6.0,-131.7,375.0,-0.9,-94.2,25.2,-95.4,0,648,0,7,0, 
0.3633,-153.9,-201.3,-1018.8,-193.2,-348.3,-276.3,-69.6,372.9,-3482.7,-183.6,-222.0,-170.7,-4761.0,-4853.7,-2575.5,-1155.9,-6.6,-6.0,-151.5,370.5,-1.2,-97.2,6.0,-112.8,0,654,0,8,0, 
0.3667,-148.8,-196.8,-2879.4,-192.9,-353.7,-274.8,-73.2,377.7,-2815.8,-180.6,-223.5,-178.2,-4986.6,-5520.3,-3032.1,-2329.2,-6.9,-5.7,-144.3,368.1,0.0,-97.8,4.8,-121.5,0,660,0,9,0, 
0.3700,-153.9,-200.7,-881.4,-194.1,-254.7,-282.9,-46.2,370.2,-1778.4,-190.8,-224.1,-187.2,-4046.4,-4314.3,-570.3,-1556.7,-7.2,-6.3,-145.5,363.9,-0.9,-99.9,7.8,-112.8,0,666,0,10,0, 
0.3733,-154.5,-203.7,2235.3,-196.5,-203.7,-282.9,-15.3,368.4,-2000.7,-188.7,-219.0,-182.1,-3271.2,-2907.3,1557.0,74.7,-6.6,-6.3,-139.5,365.4,-0.9,-105.6,17.7,-97.5,0,672,0,11,0, 
0.3767,-156.6,-201.6,2147.7,-186.6,-241.2,-272.7,-21.9,374.1,-3038.1,-178.8,-203.1,-159.9,-3711.9,-3213.3,254.1,333.0,-6.9,-6.3,-125.4,381.9,-0.9,-88.8,21.9,-90.9,0,678,0,12,0, 
0.3800,-161.4,-196.5,-1049.1,-192.0,-336.0,-273.9,-63.6,373.8,-3556.8,-179.7,-216.9,-173.1,-4760.7,-4887.6,-2679.3,-1173.0,-6.9,-6.0,-140.4,368.4,-0.9,-97.2,8.7,-118.8,0,684,0,13,0, 
0.3833,-160.2,-200.4,-2829.0,-187.2,-346.2,-267.3,-65.1,379.8,-2741.7,-179.4,-214.5,-180.9,-4916.7,-5502.0,-3125.1,-2352.3,-6.6,-6.0,-136.8,368.4,-0.6,-98.7,10.2,-128.4,0,690,0,14,0, 
0.3867,-163.8,-204.3,-840.0,-190.5,-256.8,-276.9,-37.8,379.5,-1852.5,-186.3,-224.4,-188.7,-3984.0,-4294.5,-492.9,-1572.0,-6.3,-6.3,-143.7,367.2,-0.6,-96.0,18.9,-114.3,0,696,0,15,0, 
0.3900,-159.6,-199.5,2296.5,-182.7,-187.2,-273.3,-22.5,387.3,-1778.4,-180.6,-220.5,-179.7,-3266.4,-2850.9,1571.1,65.4,-6.9,-5.7,-142.8,377.7,-0.9,-103.2,27.6,-102.0,0,702,0,16,0, 
0.3933,-159.6,-196.2,2248.5,-181.8,-240.0,-275.4,-21.9,384.6,-3038.1,-181.8,-218.1,-177.0,-3725.4,-3237.0,309.3,345.3,-6.9,-5.7,-140.7,371.7,-0.9,-99.9,31.5,-102.6,0,708,0,17,0, 
0.3967,-154.2,-191.1,-963.9,-174.9,-349.5,-269.1,-56.4,389.7,-3334.5,-172.5,-203.7,-164.1,-4776.0,-4838.1,-2509.2,-1211.4,-6.6,-5.4,-130.5,383.7,-0.6,-89.4,24.3,-113.4,0,714,0,18,0, 
0.4000,-160.5,-189.6,-2860.2,-183.9,-354.3,-275.1,-69.6,377.4,-2741.7,-180.3,-209.4,-172.8,-4964.7,-5480.4,-3078.3,-2367.6,-6.9,-5.7,-128.7,382.8,-0.6,-82.5,16.5,-117.9,0,720,0,19,0, 
0.4033,-153.3,-179.7,-883.2,-169.2,-251.4,-261.9,-43.5,382.8,-1926.6,-165.3,-196.8,-163.8,-3994.2,-4261.5,-458.1,-1627.8,-7.2,-6.0,-115.5,388.8,-1.2,-83.7,29.4,-106.8,0,726,0,20,0, 
0.4067,-151.2,-184.8,2279.7,-171.3,-189.3,-264.3,-19.5,382.5,-1926.6,-164.4,-201.3,-160.5,-3185.7,-2788.2,1689.6,56.4,-6.3,-6.3,-126.6,394.8,-0.9,-84.9,36.3,-92.4,0,732,0,21,0, 
0.4100,-156.0,-189.3,2163.9,-166.5,-231.6,-255.6,-30.9,389.7,-2889.9,-173.4,-190.5,-156.9,-3681.6,-3132.9,369.6,314.4,-6.9,-6.0,-121.2,395.4,-0.6,-83.7,34.8,-87.6,0,738,0,22,0, 
0.4133,-154.8,-186.6,-1005.9,-170.4,-325.2,-259.8,-47.7,387.0,-3260.4,-168.0,-203.4,-161.1,-4749.0,-4777.8,-2514.3,-1189.2,-6.9,-6.6,-122.1,393.9,-0.9,-81.0,28.8,-105.0,0,744,0,23,0, 
0.4167,-154.5,-186.9,-2894.4,-174.6,-349.2,-260.7,-69.0,382.8,-2889.9,-180.6,-204.9,-161.7,-4945.8,-5417.4,-3100.5,-2383.5,-6.9,-6.0,-129.9,389.7,-0.6,-88.8,21.0,-109.8,0,750,0,24,0, 
0.4200,-153.3,-182.7,-891.3,-172.2,-243.9,-254.4,-42.9,383.4,-1852.5,-168.9,-196.2,-156.0,-4051.5,-4200.3,-546.3,-1659.6,-6.6,-5.7,-126.3,400.5,-0.6,-84.6,26.7,-99.6,0,756,0,25,0, 
0.4233,-155.7,-189.6,2241.3,-168.9,-168.3,-253.5,-22.2,382.2,-1852.5,-167.7,-195.0,-153.0,-3287.1,-2824.5,1530.3,24.3,-7.2,-6.0,-117.9,391.8,-0.6,-76.2,45.3,-72.0,0,762,0,26,0, 
0.4267,-157.8,-193.2,2125.5,-174.6,-230.7,-259.8,-28.8,380.4,-2815.8,-169.8,-208.5,-156.0,-3705.3,-3090.6,346.5,312.0,-6.9,-6.0,-132.9,393.9,-0.6,-87.6,42.0,-77.7,0,768,0,27,0, 
0.4300,-166.5,-192.3,-926.7,-180.3,-335.7,-260.1,-57.6,371.1,-3260.4,-174.0,-212.7,-156.0,-4731.9,-4693.5,-2507.4,-1193.7,-6.9,-6.3,-138.0,378.0,-0.9,-92.1,30.9,-99.0,0,774,0,28,0, 
0.4333,-164.1,-186.9,-2862.0,-177.6,-358.8,-261.6,-56.1,369.9,-2815.8,-170.7,-208.5,-161.4,-4921.8,-5382.0,-3117.0,-2418.9,-6.9,-6.0,-126.9,385.5,-0.9,-82.5,27.6,-114.3,0,780,0,29,0, 
0.4367,-165.6,-192.3,-855.3,-181.5,-260.1,-262.2,-31.2,364.2,-1852.5,-166.5,-215.7,-177.6,-3963.9,-4178.1,-603.3,-1635.6,-7.2,-5.7,-140.1,379.8,-0.9,-93.3,32.4,-106.2,0,786,0,30,0, 
0.4400,-165.6,-190.5,2288.7,-177.6,-187.8,-260.1,-14.7,360.0,-2000.7,-175.8,-211.2,-177.6,-3197.7,-2754.3,1510.2,-13.2,-6.6,-6.0,-135.9,381.6,-0.6,-89.1,39.9,-90.3,0,792,0,31,0, 
0.4433,-166.5,-194.4,2246.4,-179.1,-252.3,-264.0,-27.6,356.4,-3038.1,-172.2,-209.7,-169.8,-3658.2,-3059.4,302.7,228.3,-7.2,-6.3,-131.1,384.9,-0.6,-85.8,39.3,-87.3,0,798,0,32,0, 
0.4467,-163.2,-185.4,-891.0,-174.6,-353.7,-263.1,-69.0,357.3,-3334.5,-177.6,-204.3,-170.7,-4731.0,-4644.0,-2548.5,-1249.2,-6.9,-6.0,-132.0,380.4,-1.2,-91.2,27.3,-111.0,0,804,0,33,0, 
0.4500,-165.6,-192.3,-2862.6,-184.8,-364.2,-270.0,-80.4,353.4,-2667.6,-181.8,-220.5,-176.4,-4926.3,-5339.1,-3160.2,-2496.3,-6.9,-6.3,-146.1,369.0,-1.2,-94.2,20.7,-122.1,0,810,0,34,0, 
0.4533,-164.1,-183.9,-888.9,-180.3,-261.0,-274.2,-52.5,358.5,-1704.3,-187.2,-211.8,-173.7,-4005.6,-4109.1,-632.7,-1692.3,-6.6,-6.0,-137.4,377.4,-0.6,-101.1,22.5,-115.5,0,816,0,35,0, 
0.4567,-161.7,-183.3,2199.9,-177.6,-204.3,-266.4,-30.6,360.9,-2000.7,-180.6,-198.9,-167.7,-3252.9,-2701.8,1548.9,-67.8,-6.9,-6.3,-123.9,379.8,-0.6,-93.0,33.3,-98.7,0,822,0,36,0, 
0.4600,-158.4,-185.1,2157.0,-175.8,-247.2,-267.3,-36.6,361.8,-2815.8,-184.8,-209.7,-171.9,-3688.5,-2939.4,301.2,180.0,-6.3,-5.7,-126.9,370.8,-0.9,-102.3,27.0,-105.6,0,828,0,37,0, 
0.4633,-159.0,-182.4,-958.8,-173.7,-357.3,-264.3,-72.3,366.0,-3408.6,-176.4,-216.9,-165.0,-4750.5,-4626.3,-2575.2,-1267.2,-6.6,-5.7,-138.6,380.4,-0.9,-100.8,15.3,-110.4,0,834,0,38,0, 
0.4667,-159.9,-186.0,-2854.8,-181.2,-375.3,-269.4,-71.4,366.6,-2889.9,-185.4,-217.2,-180.6,-4976.1,-5322.9,-3253.5,-2441.4,-6.9,-5.7,-139.5,360.9,-1.2,-104.7,7.8,-127.8,0,840,0,39,0, 
0.4700,-158.1,-184.8,-841.5,-179.4,-261.9,-270.3,-49.8,367.8,-1852.5,-190.2,-218.7,-178.8,-4008.0,-4110.6,-616.8,-1683.6,-6.9,-5.7,-141.0,364.2,-0.3,-108.3,14.1,-113.1,0,846,0,40,0, 
0.4733,-160.8,-195.9,2301.6,-186.3,-198.9,-275.7,-25.8,364.5,-2000.7,-187.8,-214.8,-181.2,-3167.4,-2641.2,1490.4,-69.3,-6.9,-6.3,-137.7,355.8,-0.6,-113.1,18.0,-103.2,0,852,0,41,0, 
0.4767,-163.5,-198.9,2266.2,-185.1,-248.7,-278.7,-48.3,366.0,-2964.0,-195.6,-217.8,-183.3,-3614.7,-2961.3,357.3,173.4,-6.9,-6.0,-141.6,354.6,-0.6,-113.7,17.4,-105.9,0,858,0,42,0, 
0.4800,-162.0,-196.5,-916.2,-184.5,-360.0,-281.1,-63.9,372.0,-3408.6,-189.6,-222.0,-189.3,-4684.5,-4581.6,-2604.6,-1326.9,-7.2,-6.0,-146.7,352.8,-0.9,-110.4,12.0,-124.8,0,864,0,43,0, 
0.4833,-164.1,-188.4,-2830.2,-182.1,-375.9,-279.3,-75.9,381.3,-2815.8,-198.6,-220.8,-183.9,-4845.6,-5242.2,-3236.4,-2493.3,-7.2,-5.7,-143.1,355.8,-0.3,-115.2,2.4,-136.2,0,870,0,44,0, 
0.4867,-168.9,-193.2,-861.9,-182.7,-274.5,-282.9,-48.3,374.4,-1852.5,-191.7,-219.6,-176.7,-3952.2,-4018.2,-620.1,-1713.6,-7.2,-6.3,-137.7,361.8,-0.9,-117.6,8.7,-130.8,0,876,0,45,0, 
0.4900,-156.9,-188.7,2358.3,-174.3,-202.5,-270.6,-19.8,381.6,-2000.7,-178.5,-213.9,-167.1,-3208.8,-2568.3,1491.6,-69.0,-6.9,-5.7,-134.7,367.5,-0.3,-107.7,21.0,-114.9,0,882,0,46,0, 
0.4933,-163.5,-189.0,2338.2,-177.9,-263.1,-276.9,-21.6,383.4,-2889.9,-191.1,-214.8,-180.6,-3644.7,-2905.8,264.0,258.0,-6.9,-6.0,-137.7,362.1,-0.9,-105.6,21.6,-113.7,0,888,0,47,0, 
0.4967,-167.4,-202.2,-833.4,-184.2,-364.5,-278.1,-69.9,375.0,-3408.6,-183.0,-218.1,-183.3,-4712.1,-4534.2,-2602.5,-1227.6,-6.6,-5.7,-143.4,366.0,-0.6,-102.6,10.8,-129.9,0,894,0,48,0, 
0.5000,-165.9,-199.8,-2751.9,-185.7,-362.7,-272.1,-65.1,379.2,-2741.7,-190.2,-221.1,-179.7,-4901.1,-5223.9,-3110.7,-2438.7,-6.6,-5.7,-147.9,367.5,-1.2,-104.7,11.4,-129.9,0,900,0,49,0, 
0.5033,-164.4,-193.5,-730.8,-185.4,-268.2,-268.5,-36.9,377.4,-1778.4,-189.3,-218.4,-172.8,-3949.2,-4011.9,-542.7,-1710.0,-7.2,-6.3,-141.3,371.7,-0.6,-98.7,15.9,-109.8,0,906,0,50,0, 
0.5067,-161.7,-196.2,2374.5,-187.2,-200.4,-264.0,-14.4,381.3,-1926.6,-183.9,-214.2,-179.4,-3165.3,-2597.7,1637.7,-89.7,-6.9,-6.0,-149.7,369.3,-0.6,-91.5,33.9,-99.3,0,912,0,51,0, 
0.5100,-168.0,-202.8,2332.8,-191.7,-259.8,-269.1,-24.9,379.8,-2964.0,-180.9,-213.3,-179.4,-3598.5,-2882.4,402.0,227.4,-7.2,-6.0,-138.9,370.8,-0.9,-99.0,27.6,-98.1,0,918,0,52,0, 
0.5133,-174.0,-195.0,-854.1,-193.2,-340.8,-270.9,-49.5,376.8,-3334.5,-185.7,-224.4,-181.8,-4668.9,-4554.9,-2502.6,-1261.5,-6.9,-5.7,-149.7,366.0,-0.9,-110.4,12.6,-121.5,0,924,0,53,0, 
0.5167,-173.4,-201.9,-2726.7,-191.7,-368.4,-272.1,-61.2,377.4,-2741.7,-182.1,-222.6,-175.2,-4865.4,-5181.6,-3053.4,-2443.8,-7.2,-6.0,-148.8,364.2,-0.6,-98.4,7.5,-130.5,0,930,0,54,0, 
0.5200,-178.5,-198.3,-748.5,-192.3,-266.7,-268.5,-41.1,375.0,-1778.4,-190.8,-224.7,-179.1,-3953.4,-4055.1,-613.5,-1678.5,-7.2,-6.3,-152.4,365.1,-0.9,-108.0,15.3,-121.8,0,936,0,55,0, 
0.5233,-177.6,-207.0,2448.6,-192.0,-191.7,-275.1,-19.5,371.1,-2074.8,-186.9,-219.9,-178.8,-3148.8,-2566.8,1592.7,30.0,-7.2,-5.7,-146.1,363.3,-0.9,-109.8,19.8,-112.5,0,942,0,56,0, 
0.5267,-171.6,-205.8,2429.4,-187.8,-236.7,-268.5,-28.8,373.2,-2815.8,-188.1,-224.4,-182.1,-3617.4,-2935.2,413.4,353.4,-6.6,-6.0,-148.2,369.0,-0.6,-103.2,23.1,-104.1,0,948,0,57,0, 
0.5300,-174.9,-202.5,-752.1,-192.6,-341.4,-280.2,-72.6,372.9,-3482.7,-190.8,-222.6,-186.3,-4673.7,-4473.6,-2547.0,-1182.6,-7.2,-6.0,-155.1,369.3,-0.9,-103.5,13.8,-114.9,0,954,0,58,0, 
0.5333,-176.1,-207.0,-2785.5,-197.1,-340.5,-271.5,-79.5,368.1,-2667.6,-190.5,-221.7,-189.9,-4891.5,-5220.9,-3235.8,-2461.8,-6.9,-6.0,-150.9,365.4,-0.3,-105.0,9.3,-125.1,0,960,0,59,0, 
0.5367,-180.9,-207.6,-833.1,-199.2,-259.2,-279.0,-58.5,360.6,-1778.4,-199.8,-236.4,-190.2,-3933.0,-4013.4,-630.3,-1666.5,-7.5,-5.7,-154.2,366.0,-0.3,-108.6,15.3,-115.8,0,966,0,60,0, 
0.5400,-179.1,-203.4,2324.7,-196.8,-193.5,-271.5,-29.4,365.7,-1778.4,-188.4,-233.4,-183.3,-3138.9,-2548.8,1527.0,4.2,-7.2,-5.7,-165.6,366.6,-0.6,-103.8,31.2,-100.8,0,972,0,61,0, 
0.5433,-176.4,-209.7,2367.9,-196.2,-256.8,-277.2,-33.9,365.4,-2889.9,-183.6,-228.0,-183.9,-3552.3,-2841.9,387.3,328.8,-7.2,-6.3,-153.0,366.6,-0.9,-99.6,26.1,-97.8,0,978,0,62,0, 
0.5467,-178.2,-199.2,-864.3,-195.0,-332.4,-277.2,-65.1,366.0,-3408.6,-179.4,-225.9,-182.7,-4675.5,-4448.4,-2480.1,-1167.6,-6.9,-6.0,-154.2,375.3,-0.9,-93.9,13.2,-108.0,0,984,0,63,0, 
0.5500,-176.7,-198.6,-2795.7,-197.1,-362.1,-278.1,-71.7,364.8,-2815.8,-186.0,-222.9,-180.3,-4942.5,-5140.2,-3076.8,-2342.1,-6.9,-6.0,-150.9,376.2,-0.6,-98.1,8.4,-117.9,0,990,0,64,0, 
0.5533,-170.4,-195.9,-887.7,-200.1,-264.3,-279.9,-53.1,364.2,-1852.5,-186.0,-230.7,-183.6,-3996.6,-3975.3,-624.0,-1661.1,-7.2,-6.0,-153.6,358.5,-0.6,-107.1,10.2,-116.7,0,996,0,65,0, 
0.5567,-173.4,-195.6,2319.6,-197.4,-186.6,-275.4,-23.7,371.1,-1926.6,-186.3,-224.7,-182.1,-3201.0,-2557.8,1525.5,23.1,-7.2,-6.0,-151.5,361.8,-0.9,-104.1,27.3,-97.8,0,1002,0,66,0, 
0.5600,-178.5,-203.4,2311.2,-201.0,-254.1,-285.6,-39.9,369.3,-2889.9,-193.5,-225.9,-190.8,-3643.8,-2840.1,285.3,296.4,-7.5,-5.7,-156.6,353.7,-0.6,-105.0,17.1,-102.6,0,1008,0,67,0, 
0.5633,-175.8,-196.8,-810.3,-192.6,-332.4,-269.1,-54.6,381.9,-3260.4,-200.1,-215.1,-186.6,-4647.6,-4392.3,-2577.9,-1157.4,-6.6,-6.0,-148.2,357.6,-0.9,-106.8,9.3,-118.2,0,1014,0,68,0, 
0.5667,-181.8,-202.2,-2788.5,-194.1,-354.0,-282.0,-80.4,382.2,-2741.7,-194.4,-226.5,-183.9,-4909.2,-5158.2,-3269.1,-2396.7,-7.2,-6.0,-153.0,358.5,-0.6,-102.3,-0.6,-122.7,0,1020,0,69,0, 
0.5700,-172.5,-198.0,-896.4,-188.1,-244.2,-277.2,-48.9,388.8,-1852.5,-195.6,-225.0,-173.1,-4005.0,-3947.1,-701.7,-1678.5,-6.6,-6.0,-146.7,363.0,-0.6,-109.2,5.7,-111.9,0,1026,0,70,0, 
0.5733,-171.6,-197.4,2274.6,-189.3,-184.8,-282.3,-33.6,385.8,-1852.5,-202.2,-228.9,-184.2,-3213.3,-2509.8,1548.3,11.4,-6.9,-6.0,-153.6,358.5,-0.9,-110.4,11.1,-102.0,0,1032,0,71,0, 
0.5767,-174.6,-198.6,2272.8,-186.9,-235.8,-279.0,-49.2,389.1,-2964.0,-198.3,-227.1,-190.8,-3682.5,-2802.3,354.9,264.9,-6.9,-5.7,-153.3,364.8,-0.9,-117.3,9.6,-97.5,0,1038,0,72,0, 
0.5800,-174.0,-203.4,-813.3,-189.9,-333.3,-282.6,-74.4,383.4,-3408.6,-196.5,-222.0,-194.4,-4710.9,-4410.0,-2521.8,-1174.8,-6.6,-6.3,-150.3,353.4,-0.9,-111.6,-6.0,-117.0,0,1044,0,73,0, 
0.5833,-173.7,-196.8,-2856.0,-193.5,-367.5,-285.6,-81.9,384.0,-2741.7,-204.3,-231.3,-191.4,-4978.8,-5174.7,-3237.3,-2473.8,-6.6,-6.0,-157.2,354.3,-0.6,-118.8,-15.9,-133.8,0,1050,0,74,0, 
0.5867,-174.3,-205.2,-1185.6,-195.6,-284.7,-284.7,-57.9,380.1,-1926.6,-202.2,-232.5,-196.8,-4234.5,-4115.4,-1003.5,-1893.6,-7.2,-5.7,-156.6,351.0,-0.9,-113.1,-4.5,-125.1,0,1056,0,75,0, 
0.5900,-172.5,-198.9,2049.9,-193.5,-204.9,-290.7,-39.9,379.8,-1852.5,-203.1,-230.7,-189.3,-3396.3,-2562.0,1374.9,-142.5,-6.9,-6.0,-152.4,361.8,-0.6,-120.6,3.6,-110.7,0,1062,0,76,0, 
0.5933,-172.5,-207.9,2117.4,-192.9,-265.2,-285.0,-37.2,383.4,-2964.0,-197.4,-227.4,-187.8,-3807.6,-2877.6,269.1,202.2,-6.9,-6.0,-146.1,357.9,-0.9,-113.7,8.7,-106.8,0,1068,0,77,0, 
0.5967,-176.1,-206.4,-933.6,-194.4,-362.7,-284.7,-72.0,387.0,-3408.6,-194.7,-228.0,-189.6,-4785.9,-4419.0,-2534.7,-1224.3,-6.6,-6.0,-160.5,364.2,-0.6,-114.6,4.2,-123.9,0,1074,0,78,0, 
0.6000,-174.9,-204.3,-2924.4,-193.5,-377.1,-277.5,-75.0,386.1,-2964.0,-195.9,-231.3,-191.4,-5009.7,-5165.7,-3205.2,-2425.5,-6.9,-6.0,-160.8,366.6,-0.6,-119.4,-1.5,-134.4,0,1080,0,79,0, 
0.6033,-174.3,-204.6,-992.1,-195.0,-275.7,-284.7,-38.4,378.0,-1852.5,-190.8,-226.5,-197.1,-4072.8,-3944.1,-676.8,-1676.1,-6.9,-5.7,-154.5,362.1,-0.3,-115.2,7.2,-121.2,0,1086,0,80,0, 
0.6067,-174.0,-203.7,2190.3,-187.5,-193.5,-276.3,-20.7,378.6,-1926.6,-194.4,-221.4,-189.6,-3247.5,-2429.7,1573.5,-38.4,-6.6,-5.7,-147.9,372.9,-0.9,-105.0,19.8,-96.6,0,1092,0,81,0, 
0.6100,-169.2,-198.9,2232.9,-183.0,-257.1,-270.6,-24.3,385.8,-2964.0,-185.1,-214.8,-182.4,-3679.8,-2760.9,402.3,251.7,-6.9,-5.7,-143.4,378.6,-0.3,-97.8,27.6,-100.8,0,1098,0,82,0, 
0.6133,-174.0,-197.1,-822.9,-185.7,-328.8,-273.0,-56.4,388.5,-3260.4,-186.0,-224.1,-180.3,-4710.9,-4367.1,-2489.4,-1189.8,-6.9,-5.7,-157.5,376.8,-0.9,-103.2,17.7,-113.4,0,1104,0,83,0, 
0.6167,-166.2,-198.9,-2804.7,-181.8,-351.9,-273.6,-61.8,394.2,-2741.7,-189.3,-222.6,-180.0,-4880.7,-5089.5,-3130.8,-2445.0,-7.2,-5.4,-150.9,374.4,-0.6,-97.8,22.8,-126.3,0,1110,0,84,0, 
0.6200,-165.9,-193.2,-927.6,-185.4,-270.3,-267.3,-26.1,393.0,-1778.4,-192.6,-222.9,-176.1,-3992.7,-3883.5,-639.6,-1744.2,-6.9,-6.0,-150.3,371.4,-0.9,-99.9,22.2,-112.8,0,1116,0,85,0, 
0.6233,-170.1,-195.0,2215.2,-187.5,-173.7,-270.3,-12.0,390.9,-1926.6,-187.8,-219.6,-177.6,-3198.0,-2379.9,1659.9,-96.3,-7.2,-6.0,-146.4,368.7,-0.6,-103.2,30.3,-99.3,0,1122,0,86,0, 
0.6267,-169.8,-195.0,2284.8,-195.0,-252.3,-276.6,-19.5,387.6,-2889.9,-201.6,-227.4,-183.6,-3621.3,-2712.6,487.8,282.9,-6.9,-6.0,-154.2,368.7,-1.2,-107.7,25.8,-105.9,0,1128,0,87,0, 
0.6300,-171.3,-200.4,-774.6,-194.1,-343.5,-268.5,-58.8,386.1,-3482.7,-186.9,-222.6,-184.2,-4683.3,-4380.0,-2502.9,-1183.8,-7.2,-6.0,-151.2,365.7,-0.6,-105.6,18.0,-113.7,0,1134,0,88,0, 
0.6333,-170.7,-195.9,-2790.6,-188.1,-345.9,-270.0,-59.7,388.5,-2889.9,-188.1,-212.7,-175.8,-4877.4,-5120.1,-3193.2,-2427.9,-6.6,-6.0,-140.7,377.7,-1.2,-88.5,9.3,-111.0,0,1140,0,89,0, 
0.6367,-173.4,-194.4,-949.2,-195.6,-271.5,-272.1,-35.4,380.1,-1926.6,-184.2,-227.4,-186.9,-3976.8,-3953.4,-711.6,-1675.5,-6.9,-6.0,-153.0,372.0,-0.9,-99.9,21.3,-105.3,0,1146,0,90,0, 
0.6400,-167.7,-196.5,2226.9,-194.4,-190.2,-270.3,-13.8,380.1,-2000.7,-181.5,-225.0,-183.0,-3137.7,-2470.5,1583.1,4.2,-6.9,-6.0,-148.8,369.3,-0.3,-101.1,33.3,-90.6,0,1152,0,91,0, 
0.6433,-166.2,-187.5,2325.6,-190.2,-242.7,-268.8,-31.2,381.6,-2889.9,-176.4,-215.1,-178.5,-3576.9,-2742.0,401.1,242.1,-7.2,-6.3,-143.4,377.4,-0.9,-88.8,35.4,-95.4,0,1158,0,92,0, 
0.6467,-162.6,-194.4,-794.7,-189.3,-335.7,-270.9,-53.7,384.3,-3334.5,-172.8,-208.2,-176.7,-4608.6,-4340.4,-2492.1,-1215.6,-6.6,-5.7,-138.3,370.8,-0.9,-93.9,26.7,-112.2,0,1164,0,93,0, 
0.6500,-162.3,-181.5,-2764.2,-185.4,-352.2,-266.4,-71.7,384.6,-2741.7,-172.8,-213.0,-176.1,-4886.4,-5031.9,-3169.5,-2416.2,-6.9,-6.0,-141.0,375.6,-0.9,-89.1,18.9,-115.8,0,1170,0,94,0, 
0.6533,-157.5,-181.5,-830.7,-179.7,-244.5,-261.6,-41.1,387.3,-1926.6,-170.7,-211.5,-168.6,-3925.8,-3798.6,-583.5,-1703.1,-6.9,-6.0,-133.5,381.9,-0.6,-91.2,26.4,-102.6,0,1176,0,95,0, 
0.6567,-161.1,-180.6,2325.9,-180.9,-176.4,-264.0,-14.7,392.7,-2000.7,-161.7,-204.9,-165.9,-3106.8,-2340.0,1596.6,-11.7,-6.9,-6.3,-126.0,383.4,-0.6,-87.6,30.9,-92.7,0,1182,0,96,0, 
0.6600,-159.0,-177.9,2437.8,-174.0,-224.7,-261.6,-21.0,400.8,-2964.0,-173.1,-201.6,-160.8,-3530.1,-2577.9,508.2,330.0,-7.2,-5.7,-122.7,383.7,-0.9,-91.5,30.6,-86.1,0,1188,0,97,0, 
0.6633,-165.3,-190.5,-630.9,-175.5,-345.9,-264.6,-62.1,404.4,-3408.6,-176.4,-207.9,-162.6,-4545.3,-4229.4,-2456.1,-1170.3,-6.9,-5.4,-134.4,381.3,-0.6,-89.1,18.3,-107.7,0,1194,0,98,0, 
0.6667,-165.3,-182.1,-2624.4,-172.2,-345.0,-261.0,-57.3,406.5,-2741.7,-174.0,-198.6,-165.6,-4756.8,-4912.8,-3093.9,-2373.9,-6.9,-6.3,-129.6,390.3,-0.9,-89.1,16.2,-115.8,0,1200,0,99,0, 
0.6700,-168.6,-197.1,-744.0,-178.2,-249.3,-255.9,-34.2,402.6,-1778.4,-175.2,-201.0,-178.8,-3830.4,-3745.2,-618.9,-1637.1,-6.9,-6.0,-131.4,381.3,-0.3,-92.7,21.6,-111.0,0,1206,0,100,0, 
0.6733,-167.1,-193.2,2527.5,-179.1,-175.2,-260.7,-10.8,399.0,-2000.7,-183.3,-202.8,-177.9,-2944.5,-2188.2,1645.2,102.3,-6.6,-6.3,-130.8,378.9,-1.2,-96.0,26.4,-96.3,0,1212,0,101,0, 
0.6767,-173.1,-204.6,2585.1,-180.3,-235.2,-266.7,-24.6,393.0,-2815.8,-188.7,-213.6,-177.3,-3397.2,-2502.9,543.9,405.3,-7.2,-6.0,-141.9,381.0,-0.6,-90.9,21.0,-99.0,0,1218,0,102,0, 
0.6800,-173.1,-207.9,-597.6,-189.3,-330.0,-265.5,-57.9,395.1,-3408.6,-185.1,-223.5,-180.3,-4468.2,-4186.2,-2414.7,-1023.6,-6.9,-6.0,-147.6,372.0,-0.9,-99.0,10.2,-111.6,0,1224,0,103,0, 
0.6833,-174.6,-205.2,-2649.9,-189.9,-364.2,-270.0,-73.2,399.0,-2815.8,-184.2,-214.8,-174.3,-4692.3,-4907.1,-3051.6,-2271.6,-7.2,-5.7,-144.6,377.4,-0.6,-105.3,6.0,-132.0,0,1230,0,104,0, 
0.6867,-171.0,-201.6,-655.5,-194.4,-273.3,-272.1,-41.1,398.1,-1852.5,-192.3,-213.9,-180.3,-3677.7,-3640.5,-493.2,-1584.6,-6.6,-6.0,-141.9,366.6,-0.3,-106.2,11.7,-120.3,0,1236,0,105,0, 
0.6900,-170.7,-205.8,2638.2,-195.9,-186.6,-279.0,-22.8,394.5,-1926.6,-192.3,-230.7,-182.4,-2775.6,-2051.4,1854.9,120.6,-6.9,-6.0,-156.6,362.7,-0.9,-111.0,20.4,-105.0,0,1242,0,106,0, 
0.6933,-165.3,-205.5,2696.7,-193.2,-230.1,-275.7,-39.9,393.0,-3038.1,-188.4,-228.0,-178.8,-3194.4,-2349.0,559.8,519.9,-6.9,-6.0,-154.5,371.4,-0.9,-100.8,22.8,-99.3,0,1248,0,107,0, 
0.6967,-164.7,-201.3,-641.7,-195.6,-343.2,-275.7,-62.1,393.6,-3556.8,-186.6,-223.5,-180.6,-4416.9,-4247.4,-2537.7,-985.5,-7.2,-5.7,-156.3,371.4,-0.9,-103.8,20.4,-118.5,0,1254,0,108,0, 
0.7000,-170.4,-200.7,-2894.4,-197.1,-351.0,-265.8,-71.1,392.4,-2741.7,-183.9,-217.5,-184.8,-4820.4,-5180.7,-3357.0,-2282.1,-6.9,-5.7,-146.1,370.5,-0.9,-108.9,10.8,-138.3,0,1260,0,109,0, 
0.7033,-168.3,-195.3,-759.0,-193.8,-245.4,-276.9,-42.6,392.7,-1852.5,-182.1,-212.7,-177.9,-3738.9,-3745.5,-411.3,-1462.5,-6.9,-6.0,-144.0,378.3,-0.9,-105.6,12.6,-125.1,0,1266,0,110,0, 
0.7067,-167.1,-195.6,2808.6,-184.2,-169.2,-265.2,-19.2,387.6,-1778.4,-177.6,-213.3,-174.9,-2694.0,-1879.5,2050.5,312.0,-6.3,-5.7,-144.0,383.7,-1.2,-99.6,25.8,-102.3,0,1272,0,111,0, 
0.7100,-159.3,-182.7,2936.4,-177.0,-224.7,-261.3,-30.6,396.6,-2815.8,-166.5,-205.5,-166.5,-3129.0,-2174.1,710.7,658.5,-7.2,-6.0,-135.3,393.9,-0.9,-83.4,27.0,-91.8,0,1278,0,112,0, 
0.7133,-156.6,-183.0,-572.1,-171.3,-307.5,-251.7,-59.7,402.6,-3408.6,-159.6,-190.5,-159.9,-4410.3,-4112.1,-2443.8,-894.6,-6.9,-5.7,-124.5,401.7,-1.2,-72.6,18.3,-99.6,0,1284,0,113,0, 
0.7167,-155.4,-176.1,-2806.5,-168.9,-320.4,-251.1,-75.3,404.1,-2667.6,-165.9,-197.7,-164.4,-4692.0,-5032.5,-3033.9,-2186.7,-6.9,-5.7,-127.8,392.1,-0.6,-76.8,8.1,-112.5,0,1290,0,114,0, 
0.7200,-156.3,-181.8,-666.0,-171.3,-224.4,-251.1,-44.1,401.1,-1482.0,-170.4,-195.9,-159.3,-3639.6,-3648.9,-163.8,-1405.5,-6.9,-5.7,-123.6,399.6,-0.9,-86.4,12.0,-103.2,0,1296,0,115,0, 
0.7233,-161.1,-185.4,2956.2,-171.6,-150.9,-256.5,-11.7,395.7,-1852.5,-169.2,-181.5,-159.3,-2539.5,-1766.1,2316.9,436.8,-6.6,-6.3,-118.5,393.3,-0.6,-89.7,21.6,-85.2,0,1302,0,116,0, 
0.7267,-164.1,-189.9,3121.2,-175.8,-221.1,-257.4,-23.4,397.5,-2889.9,-180.9,-193.2,-167.7,-2971.2,-2103.9,963.9,784.5,-6.9,-6.0,-128.1,382.2,-0.9,-96.9,19.8,-94.8,0,1308,0,117,0, 
0.7300,-159.9,-185.4,-457.5,-173.4,-300.9,-251.4,-51.0,397.5,-3482.7,-162.9,-209.4,-166.8,-4226.7,-4078.5,-2336.1,-815.7,-6.9,-6.3,-128.4,387.0,-0.6,-83.1,16.2,-105.3,0,1314,0,118,0, 
0.7333,-162.3,-188.1,-2738.1,-181.8,-333.6,-260.4,-67.5,390.3,-2815.8,-171.9,-214.8,-162.9,-4600.5,-4992.3,-2982.6,-2066.1,-6.6,-5.7,-137.1,380.7,-1.5,-90.3,7.5,-111.3,0,1320,0,119,0, 
0.7367,-161.4,-186.9,-557.1,-178.8,-236.4,-257.1,-31.2,396.0,-1778.4,-166.2,-209.4,-160.2,-3524.4,-3561.0,-143.1,-1322.4,-7.2,-6.3,-134.4,382.2,-0.9,-87.6,19.5,-96.3,0,1326,0,120,0, 
0.7400,-163.8,-190.2,3035.1,-181.8,-149.1,-257.7,-12.3,398.4,-1778.4,-164.4,-209.4,-168.9,-2456.7,-1666.8,2389.2,525.3,-7.2,-6.0,-130.2,373.8,-0.9,-90.0,31.8,-81.6,0,1332,0,121,0, 
0.7433,-163.8,-198.0,3141.9,-187.8,-216.6,-256.8,-21.6,393.6,-2964.0,-166.8,-216.3,-179.7,-2866.5,-1941.6,1122.9,885.3,-6.6,-5.4,-140.1,372.0,-0.9,-90.6,35.7,-82.2,0,1338,0,122,0, 
0.7467,-162.6,-192.3,-399.3,-182.1,-297.0,-261.3,-53.1,398.1,-3705.0,-164.4,-206.4,-166.8,-4153.8,-3969.9,-2120.4,-729.9,-6.9,-6.0,-133.2,381.0,-0.6,-82.8,21.9,-93.9,0,1344,0,123,0, 
0.7500,-170.1,-198.9,-2734.8,-184.8,-324.6,-259.5,-69.9,389.1,-2741.7,-167.4,-208.8,-170.4,-4522.5,-4986.3,-2880.9,-2055.3,-6.6,-5.7,-135.9,372.9,-0.9,-90.0,9.0,-102.3,0,1350,0,124,0, 
0.7533,-172.2,-201.3,-619.5,-190.8,-238.8,-268.8,-46.2,382.8,-1852.5,-181.5,-214.5,-174.9,-3414.3,-3539.7,25.5,-1240.5,-7.2,-6.0,-143.1,369.0,-0.6,-95.7,19.2,-94.8,0,1356,0,125,0, 
0.7567,-174.0,-204.9,3050.1,-191.4,-158.7,-265.8,-17.7,383.7,-1704.3,-170.7,-212.7,-177.3,-2389.2,-1717.5,2485.8,548.1,-7.2,-6.3,-142.2,370.2,-1.5,-90.9,31.2,-72.3,0,1362,0,126,0, 
0.7600,-165.6,-199.8,3271.8,-184.2,-199.2,-267.6,-28.5,383.1,-3038.1,-172.2,-204.9,-166.5,-2795.7,-1968.6,1255.5,975.0,-7.2,-5.7,-128.1,375.9,-0.9,-86.7,27.0,-75.6,0,1368,0,127,0, 
0.7633,-172.5,-198.6,-397.8,-183.9,-312.3,-266.1,-63.9,381.6,-3482.7,-171.3,-202.8,-173.1,-4169.1,-4030.5,-2069.4,-632.7,-6.6,-6.0,-135.3,377.4,-0.6,-82.2,12.6,-88.2,0,1374,0,128,0, 
0.7667,-174.0,-198.3,-2672.7,-187.5,-330.0,-269.1,-71.1,383.4,-2815.8,-176.1,-199.8,-171.9,-4583.1,-5002.2,-2748.3,-1967.1,-6.9,-5.4,-137.1,378.9,-0.9,-89.1,2.1,-104.7,0,1380,0,129,0, 
0.7700,-176.1,-193.5,-552.3,-183.3,-239.7,-275.1,-52.2,388.8,-1704.3,-169.8,-206.7,-174.6,-3533.1,-3609.9,118.5,-1179.3,-6.6,-6.0,-136.8,378.3,-0.6,-93.3,11.4,-101.1,0,1386,0,130,0, 
0.7733,-173.1,-190.8,3095.1,-182.1,-152.7,-270.9,-27.9,393.9,-1778.4,-172.5,-216.0,-164.4,-2448.3,-1676.4,2645.7,667.5,-6.6,-6.0,-138.0,387.6,-1.2,-94.8,18.6,-84.6,0,1392,0,131,0, 
0.7767,-174.6,-194.4,3285.6,-178.8,-214.5,-271.2,-31.5,396.3,-2964.0,-174.9,-219.0,-167.4,-2889.3,-2014.2,1348.5,1047.6,-6.9,-6.0,-143.4,381.0,-0.9,-92.4,17.4,-85.8,0,1398,0,132,0, 
0.7800,-176.7,-196.8,-316.5,-186.3,-321.6,-267.9,-73.8,393.9,-3630.9,-180.0,-219.9,-177.0,-4258.2,-4102.5,-2084.4,-566.4,-7.2,-6.0,-146.1,380.4,-0.6,-103.2,9.0,-101.7,0,1404,0,133,0, 
0.7833,-179.7,-198.9,-2597.4,-191.1,-331.5,-274.2,-71.7,388.8,-2815.8,-179.4,-214.8,-182.7,-4623.9,-5044.5,-2767.8,-1891.5,-6.6,-5.7,-144.0,365.7,-0.6,-101.1,6.3,-113.7,0,1410,0,134,0, 
0.7867,-178.5,-199.5,-454.8,-195.3,-240.0,-282.0,-43.5,387.0,-1778.4,-184.8,-213.0,-179.4,-3586.5,-3624.6,177.9,-1112.7,-6.9,-6.0,-140.1,369.3,0.0,-110.1,11.7,-105.0,0,1416,0,135,0, 
0.7900,-183.0,-207.3,3156.0,-196.2,-168.0,-280.8,-23.7,385.2,-1778.4,-189.6,-219.6,-185.7,-2596.8,-1764.3,2667.3,721.5,-6.6,-5.7,-146.1,363.9,-0.9,-110.7,16.2,-91.8,0,1422,0,136,0, 
0.7933,-181.2,-207.0,3349.2,-196.5,-218.1,-280.5,-33.6,386.1,-2964.0,-190.8,-218.7,-183.9,-3012.0,-2092.2,1392.0,1077.9,-7.5,-5.7,-147.6,366.9,-0.9,-103.8,17.1,-93.9,0,1428,0,137,0, 
0.7967,-186.6,-205.5,-279.0,-201.0,-351.0,-287.1,-67.5,384.9,-3556.8,-192.0,-230.1,-191.1,-4392.6,-4107.3,-1945.8,-567.3,-6.6,-6.3,-164.4,357.9,-1.2,-111.9,-1.8,-121.5,0,1434,0,138,0, 
0.8000,-185.4,-205.5,-2564.4,-205.5,-363.6,-286.5,-69.0,381.0,-2889.9,-201.9,-242.7,-207.0,-4794.3,-5078.7,-2592.9,-1852.5,-7.2,-6.0,-172.2,344.7,-1.2,-123.9,-3.6,-129.0,0,1440,0,139,0, 
0.8033,-180.0,-199.8,-522.9,-204.3,-260.1,-284.7,-46.5,384.9,-1704.3,-196.5,-241.5,-209.1,-3759.3,-3658.5,259.2,-1138.8,-6.6,-5.4,-173.7,344.1,-0.9,-125.4,1.5,-121.8,0,1446,0,140,0, 
0.8067,-180.6,-202.5,3150.3,-200.1,-186.0,-285.3,-15.3,387.9,-1704.3,-197.1,-226.8,-194.4,-2640.0,-1780.8,2795.1,756.6,-6.9,-6.0,-148.2,357.0,-0.9,-115.2,15.3,-105.3,0,1452,0,141,0, 
0.8100,-181.2,-200.7,3295.5,-196.2,-236.4,-279.3,-23.7,390.9,-2964.0,-197.4,-217.5,-177.9,-3107.4,-2032.2,1560.6,1067.7,-6.6,-5.7,-143.4,365.4,-0.9,-116.1,9.9,-100.8,0,1458,0,142,0, 
0.8133,-180.6,-206.7,-231.6,-194.7,-341.4,-285.6,-63.3,387.3,-3630.9,-195.3,-215.7,-174.3,-4459.8,-4112.4,-1780.2,-537.3,-6.9,-6.0,-145.8,366.6,-0.6,-112.2,-0.3,-111.0,0,1464,0,143,0, 
0.8167,-181.8,-195.3,-2609.1,-188.4,-340.8,-280.2,-67.2,388.8,-2741.7,-198.6,-206.1,-169.5,-4905.3,-5088.0,-2544.0,-1914.3,-6.9,-5.7,-140.7,368.7,-0.3,-110.4,-6.9,-126.9,0,1470,0,144,0, 
0.8200,-181.8,-198.3,-515.7,-186.9,-237.3,-281.1,-51.6,388.5,-1778.4,-191.4,-198.0,-153.9,-3856.5,-3667.2,362.7,-1117.5,-6.6,-6.0,-130.2,379.5,-1.2,-111.0,2.4,-112.5,0,1476,0,145,0, 
0.8233,-178.5,-201.0,3084.0,-192.9,-172.8,-282.0,-22.8,386.1,-1778.4,-193.5,-205.5,-170.4,-2807.4,-1815.9,2873.4,695.1,-6.9,-5.7,-138.3,370.5,-0.6,-116.4,14.1,-104.7,0,1482,0,146,0, 
0.8267,-176.4,-198.3,3289.8,-188.1,-215.1,-281.4,-37.2,395.4,-2889.9,-187.5,-198.9,-166.5,-3251.1,-2117.4,1649.1,1086.0,-7.2,-6.0,-132.6,374.1,-0.9,-109.5,20.4,-96.6,0,1488,0,147,0, 
0.8300,-174.9,-199.8,-225.6,-187.5,-308.1,-280.5,-68.7,396.3,-3482.7,-187.2,-199.2,-166.8,-4560.3,-4142.4,-1599.0,-549.6,-6.6,-6.0,-135.6,376.5,-0.6,-106.2,11.7,-109.2,0,1494,0,148,0, 
0.8333,-170.1,-196.8,-2602.8,-189.3,-333.6,-279.3,-73.8,396.9,-2667.6,-186.0,-194.1,-161.4,-5007.3,-5164.2,-2355.9,-1874.7,-7.2,-6.3,-133.8,376.5,-1.2,-102.9,6.3,-121.2,0,1500,0,149,0, 
0.8367,-178.2,-202.5,-473.4,-195.9,-228.0,-282.6,-44.1,393.3,-1778.4,-190.2,-195.9,-162.3,-3939.6,-3723.9,435.3,-1084.5,-6.9,-5.7,-135.0,375.0,-0.6,-106.8,12.0,-108.0,0,1506,0,150,0, 
0.8400,-182.4,-206.1,3162.9,-203.4,-165.0,-285.6,-16.2,384.0,-1778.4,-190.2,-213.6,-168.0,-2867.4,-1801.2,2998.5,753.3,-6.9,-6.0,-146.1,365.4,-0.9,-105.0,21.0,-92.7,0,1512,0,151,0, 
0.8433,-180.0,-209.7,3323.1,-202.2,-217.8,-285.6,-33.0,381.0,-2964.0,-183.0,-215.1,-166.5,-3281.1,-2102.1,1791.3,1074.6,-6.6,-5.7,-145.2,375.3,-1.2,-105.6,15.6,-87.0,0,1518,0,152,0, 
0.8467,-179.1,-204.6,-250.2,-203.7,-324.9,-289.8,-63.6,380.1,-3408.6,-189.6,-210.0,-174.6,-4654.2,-4182.9,-1578.6,-435.3,-7.2,-5.7,-141.9,362.7,-0.6,-105.6,3.0,-102.9,0,1524,0,153,0, 
0.8500,-179.7,-207.0,-2574.6,-202.8,-330.0,-285.0,-72.6,384.3,-2889.9,-187.5,-207.3,-174.9,-5058.6,-5159.1,-2340.6,-1793.4,-6.6,-6.0,-140.1,362.1,-0.9,-107.7,-6.0,-107.7,0,1530,0,154,0, 
0.8533,-177.3,-200.4,-530.4,-200.4,-226.8,-286.8,-40.2,383.4,-1778.4,-179.7,-213.0,-161.1,-3951.0,-3792.9,533.7,-1011.6,-6.6,-5.7,-148.2,369.3,-1.2,-103.8,3.0,-98.4,0,1536,0,155,0, 
0.8567,-171.3,-195.0,3131.4,-191.7,-148.8,-282.3,-9.3,388.8,-1852.5,-177.3,-205.5,-153.9,-2876.1,-1816.8,3123.6,811.8,-6.9,-5.7,-138.6,376.8,-0.9,-105.6,12.6,-87.9,0,1542,0,156,0, 
0.8600,-172.2,-202.8,3282.3,-194.1,-206.4,-284.4,-25.2,388.5,-2964.0,-178.2,-207.9,-168.0,-3293.7,-2154.6,1857.9,1143.6,-6.9,-5.7,-144.3,369.3,-0.9,-95.7,17.4,-86.7,0,1548,0,157,0, 
0.8633,-172.8,-200.4,-240.6,-191.4,-322.5,-288.6,-65.1,390.0,-3482.7,-178.2,-202.8,-169.8,-4644.0,-4098.9,-1449.9,-452.1,-6.6,-5.7,-136.8,373.5,-0.9,-104.4,5.4,-98.4,0,1554,0,158,0, 
0.8667,-170.7,-202.2,-2590.8,-193.8,-332.7,-287.7,-78.6,389.4,-2815.8,-184.8,-207.0,-171.6,-5013.3,-5135.4,-2213.1,-1733.4,-6.9,-5.7,-142.2,372.0,-0.6,-103.5,-0.9,-115.2,0,1560,0,159,0, 
0.8700,-168.9,-199.2,-512.7,-191.4,-233.4,-282.6,-44.1,394.5,-1852.5,-176.4,-197.4,-164.1,-3917.7,-3719.1,705.6,-985.5,-6.6,-6.0,-135.6,379.2,-0.6,-90.9,1.8,-102.6,0,1566,0,160,0, 
0.8733,-168.6,-197.7,3126.0,-187.8,-149.1,-291.0,-17.7,394.5,-1852.5,-176.7,-196.5,-160.2,-2830.5,-1810.2,3265.8,872.7,-6.9,-6.3,-132.0,378.0,-0.6,-92.4,10.5,-83.7,0,1572,0,161,0, 
0.8767,-166.5,-194.4,3376.2,-182.4,-211.8,-286.5,-25.2,402.0,-2889.9,-170.4,-190.2,-160.8,-3237.3,-2100.6,2053.5,1259.1,-6.9,-6.0,-125.7,383.1,-0.6,-96.0,13.2,-78.0,0,1578,0,162,0, 
0.8800,-168.6,-192.9,-175.2,-184.8,-312.0,-285.0,-62.1,399.3,-3705.0,-177.0,-204.0,-161.7,-4599.0,-4127.1,-1343.1,-283.2,-6.9,-6.3,-133.8,374.7,-0.9,-100.5,0.3,-97.5,0,1584,0,163,0, 
0.8833,-168.3,-193.2,-2530.8,-192.0,-334.2,-288.3,-86.1,393.9,-2593.5,-184.2,-208.5,-166.2,-4989.6,-5131.2,-1967.1,-1626.3,-6.9,-6.0,-140.4,371.7,-0.9,-105.9,-8.7,-117.6,0,1590,0,164,0, 
0.8867,-167.1,-195.6,-427.8,-194.4,-228.0,-289.8,-41.1,391.2,-1778.4,-183.6,-199.5,-166.8,-3865.8,-3646.2,911.1,-801.6,-6.9,-6.0,-134.7,376.2,-0.9,-109.2,-5.4,-111.6,0,1596,0,165,0, 
0.8900,-165.9,-199.8,3198.6,-194.1,-156.6,-290.4,-27.0,393.6,-1630.2,-186.9,-207.0,-169.8,-2857.5,-1793.4,3460.5,934.2,-6.6,-5.4,-136.8,370.8,-0.9,-101.1,3.9,-105.0,0,1602,0,166,0, 
0.8933,-164.1,-195.3,3432.9,-188.1,-197.1,-282.9,-37.2,393.9,-2964.0,-174.6,-196.2,-158.4,-3229.8,-1977.9,2252.1,1339.2,-6.9,-6.0,-135.6,375.3,-1.2,-104.4,5.7,-105.3,0,1608,0,167,0, 
0.8967,-166.8,-200.7,-86.1,-189.9,-325.8,-284.7,-68.1,396.6,-3408.6,-179.7,-208.2,-160.2,-4580.7,-4090.8,-1140.0,-270.3,-6.6,-5.7,-144.9,374.1,-0.9,-101.1,-0.6,-123.6,0,1614,0,168,0, 
0.9000,-169.5,-195.3,-2104.8,-191.4,-289.2,-279.3,-61.2,399.6,-2815.8,-186.0,-213.6,-172.2,-4717.2,-4887.6,-1428.0,-1242.3,-6.9,-6.0,-148.5,366.6,-1.2,-111.6,-5.1,-123.3,0,1620,0,169,0, 
0.9033,-170.1,-200.7,17.4,-189.0,-204.9,-279.6,-39.6,408.6,-1704.3,-190.8,-213.3,-172.2,-3634.5,-3504.3,1393.5,-529.2,-6.9,-5.7,-147.9,372.3,-0.6,-108.6,-1.2,-115.5,0,1626,0,170,0, 
0.9067,-164.1,-200.4,3498.9,-183.9,-139.2,-270.3,-12.6,410.4,-1704.3,-182.1,-207.0,-164.4,-2658.0,-1670.1,3750.3,1165.8,-7.2,-6.3,-142.5,380.1,-1.2,-101.4,11.1,-96.3,0,1632,0,171,0, 
0.9100,-170.4,-199.5,3649.8,-183.0,-188.4,-283.8,-29.1,407.4,-2889.9,-188.4,-198.0,-165.6,-3082.8,-1907.4,2397.3,1512.6,-7.2,-6.0,-135.0,374.1,-0.9,-97.5,6.3,-90.3,0,1638,0,172,0, 
0.9133,-168.3,-195.6,122.1,-181.5,-309.3,-276.6,-58.8,402.6,-3556.8,-181.5,-198.9,-165.9,-4418.7,-3927.0,-926.4,-66.6,-6.9,-6.3,-137.1,377.7,-0.9,-95.7,-5.1,-107.7,0,1644,0,173,0, 
0.9167,-165.3,-189.0,-2219.4,-181.2,-328.5,-272.1,-62.1,398.4,-2815.8,-178.5,-197.1,-159.6,-4836.9,-4941.3,-1673.1,-1392.9,-6.9,-5.7,-129.6,378.6,-0.3,-93.3,-4.2,-115.5,0,1650,0,174,0, 
0.9200,-165.6,-188.7,-202.5,-182.1,-230.1,-276.6,-36.0,396.9,-1926.6,-181.8,-196.2,-159.9,-3708.3,-3532.8,1215.3,-660.9,-6.6,-5.7,-135.9,378.3,-0.3,-96.3,-0.6,-109.2,0,1656,0,175,0, 
0.9233,-165.0,-189.6,3453.6,-187.5,-158.4,-281.7,-14.7,395.7,-1778.4,-183.6,-196.2,-164.7,-2599.8,-1617.6,3805.2,1202.4,-6.9,-6.0,-139.2,369.3,-0.6,-106.8,11.1,-99.9,0,1662,0,176,0, 
0.9267,-164.4,-192.6,3690.3,-187.2,-202.8,-284.7,-36.0,396.3,-2889.9,-186.6,-204.3,-170.7,-2969.1,-1821.9,2557.8,1583.1,-6.6,-6.0,-142.8,362.1,-0.9,-112.2,6.0,-103.8,0,1668,0,177,0, 
0.9300,-168.0,-189.9,178.5,-190.5,-311.7,-288.3,-66.0,391.8,-3705.0,-189.3,-209.1,-170.1,-4303.2,-3843.9,-737.1,38.4,-6.9,-6.0,-150.6,362.7,-0.3,-104.7,-6.0,-115.2,0,1674,0,178,0, 
0.9333,-167.7,-184.5,-2250.3,-188.7,-333.3,-287.1,-70.2,391.5,-2741.7,-183.6,-212.4,-173.1,-4737.0,-4873.2,-1493.7,-1362.3,-6.9,-6.0,-142.5,365.1,-0.6,-108.0,-7.2,-127.2,0,1680,0,179,0, 
0.9367,-168.9,-183.3,-177.6,-194.7,-249.6,-290.4,-43.8,389.7,-1778.4,-184.5,-215.7,-179.7,-3663.6,-3411.9,1443.9,-635.1,-7.2,-5.7,-141.6,362.1,-0.6,-100.5,2.4,-118.5,0,1686,0,180,0, 
0.9400,-168.6,-192.3,3522.6,-194.7,-166.2,-291.0,-21.9,387.0,-1926.6,-186.0,-213.6,-174.0,-2539.2,-1490.4,3924.6,1231.5,-6.6,-5.7,-143.4,366.0,-0.6,-105.3,2.7,-109.8,0,1692,0,181,0, 
0.9433,-165.6,-186.0,3759.0,-187.2,-205.2,-287.4,-32.1,395.4,-2964.0,-181.2,-203.7,-159.9,-2887.2,-1738.5,2779.2,1711.2,-7.5,-6.0,-138.3,369.3,-0.9,-101.4,4.5,-102.9,0,1698,0,182,0, 
0.9467,-171.6,-184.5,251.7,-189.9,-309.9,-286.5,-67.5,390.9,-3556.8,-184.8,-212.7,-165.3,-4206.9,-3750.0,-469.2,102.0,-6.9,-6.0,-144.3,375.3,-0.9,-103.2,-2.4,-127.8,0,1704,0,183,0, 
0.9500,-172.8,-190.5,-2135.1,-199.2,-337.5,-290.4,-78.3,383.7,-2889.9,-186.3,-218.4,-180.3,-4610.1,-4821.0,-1261.2,-1278.9,-6.6,-6.3,-148.2,359.7,-1.2,-102.3,-8.7,-135.6,0,1710,0,184,0, 
0.9533,-169.8,-188.7,-95.7,-194.4,-240.3,-295.5,-44.1,384.3,-1704.3,-186.6,-209.1,-173.4,-3517.8,-3339.6,1612.2,-492.9,-6.9,-6.0,-141.9,369.0,-0.6,-101.7,0.6,-125.7,0,1716,0,185,0, 
0.9567,-166.8,-188.7,3511.8,-192.3,-170.7,-288.3,-17.7,385.8,-1778.4,-189.9,-211.2,-176.7,-2413.8,-1443.6,4227.3,1311.3,-6.9,-6.3,-144.6,367.8,-0.9,-101.1,14.7,-102.0,0,1722,0,186,0, 
0.9600,-176.1,-188.7,3834.3,-191.7,-219.3,-294.6,-39.6,387.0,-2815.8,-185.4,-212.7,-180.0,-2769.9,-1683.0,2976.6,1724.1,-6.6,-6.0,-144.3,369.3,-0.6,-108.3,7.8,-108.9,0,1728,0,187,0, 
0.9633,-173.1,-189.6,329.4,-194.1,-327.6,-294.6,-63.6,389.4,-3630.9,-189.3,-217.5,-174.6,-4019.4,-3766.2,-326.1,210.3,-7.2,-5.7,-151.2,371.7,-0.9,-106.8,3.6,-126.3,0,1734,0,188,0, 
0.9667,-175.2,-192.3,-2136.9,-192.6,-348.0,-293.7,-77.4,390.3,-2741.7,-192.0,-210.6,-172.8,-4459.5,-4806.9,-1143.0,-1217.1,-6.9,-6.0,-151.8,368.1,-0.9,-107.7,-7.2,-139.2,0,1740,0,189,0, 
0.9700,-173.7,-194.1,-58.8,-193.2,-240.0,-297.9,-52.2,387.3,-1778.4,-184.8,-211.8,-168.9,-3349.8,-3348.0,1762.2,-427.8,-6.9,-6.3,-147.0,366.6,-0.9,-113.4,-6.0,-127.8,0,1746,0,190,0, 
0.9733,-174.9,-191.1,3593.1,-195.3,-148.8,-298.8,-21.0,386.7,-1778.4,-196.5,-220.8,-174.0,-2260.2,-1452.6,4432.2,1392.6,-6.6,-6.0,-150.6,361.5,-1.2,-117.6,3.9,-113.1,0,1752,0,191,0, 
0.9767,-172.5,-181.8,3864.3,-189.3,-200.7,-295.8,-35.1,400.8,-2964.0,-189.0,-207.9,-167.1,-2625.0,-1616.1,3285.0,1821.6,-6.9,-5.7,-141.9,373.5,-1.2,-103.2,7.5,-104.4,0,1758,0,192,0, 
0.9800,-173.7,-189.9,380.1,-192.3,-321.6,-293.7,-64.8,405.0,-3408.6,-189.3,-205.8,-173.1,-3955.5,-3693.9,-8.4,306.6,-6.9,-5.7,-141.9,364.8,-0.6,-111.6,-5.7,-117.0,0,1764,0,193,0, 
0.9833,-169.2,-181.2,-2064.9,-190.8,-340.5,-293.7,-70.5,405.0,-2815.8,-189.6,-203.1,-171.6,-4360.5,-4756.8,-808.5,-1111.2,-6.6,-6.0,-138.6,368.7,-0.9,-105.9,-15.6,-126.9,0,1770,0,194,0, 
0.9867,-165.0,-185.7,-49.5,-195.3,-231.9,-297.9,-38.7,402.9,-1778.4,-191.4,-212.1,-171.9,-3294.0,-3337.8,2099.4,-353.1,-6.9,-5.7,-149.1,365.4,-0.9,-111.3,-6.6,-114.0,0,1776,0,195,0, 
0.9900,-169.5,-174.0,3591.9,-191.4,-166.5,-293.4,-9.6,404.1,-1778.4,-185.4,-198.0,-162.6,-2295.6,-1401.3,4678.8,1456.2,-6.9,-6.0,-129.3,375.6,-0.9,-101.4,4.2,-99.3,0,1782,0,196,0, 
0.9933,-167.4,-187.8,3856.8,-187.8,-202.8,-286.8,-14.1,407.7,-2815.8,-181.8,-198.6,-159.0,-2664.3,-1638.6,3502.5,1890.3,-6.6,-5.4,-129.3,377.4,-0.6,-101.4,11.7,-96.6,0,1788,0,197,0, 
0.9967,-174.6,-190.2,339.6,-187.8,-304.8,-289.8,-54.6,409.5,-3482.7,-188.4,-204.0,-155.1,-3974.7,-3703.2,184.5,303.3,-6.6,-6.3,-135.0,377.1,-0.6,-106.5,1.5,-112.5,0,1794,0,198,0, 
1.0000,-171.3,-187.5,-2130.3,-181.8,-320.7,-279.3,-60.3,412.8,-2889.9,-184.8,-198.0,-158.7,-4460.1,-4723.8,-733.8,-1123.2,-7.2,-6.3,-134.1,383.1,-0.6,-104.4,0.3,-120.9,0,1800,0,199,0, 
1.0033,-172.8,-186.3,-148.2,-185.7,-218.7,-287.1,-33.3,408.9,-1778.4,-191.7,-200.1,-175.2,-3431.1,-3321.9,2170.5,-339.0,-7.2,-5.7,-135.3,376.2,-0.9,-108.6,7.5,-108.6,0,1806,0,200,0, 
1.0067,-171.6,-186.9,3578.1,-180.3,-138.0,-282.9,-9.9,415.5,-1852.5,-193.2,-196.2,-170.7,-2344.2,-1427.4,4862.4,1538.7,-6.9,-6.0,-129.9,383.1,-0.6,-109.5,15.0,-98.4,0,1812,0,201,0, 
1.0100,-169.2,-183.0,3868.2,-174.9,-169.5,-273.0,-5.7,421.5,-2889.9,-185.1,-200.4,-157.5,-2735.7,-1647.0,3627.9,2012.7,-6.9,-6.0,-126.9,387.0,-0.9,-94.2,17.1,-84.6,0,1818,0,202,0, 
1.0133,-165.3,-176.4,380.7,-174.6,-285.6,-272.1,-38.4,419.7,-3482.7,-183.9,-193.8,-155.7,-4032.6,-3702.9,320.4,423.6,-6.9,-5.7,-124.8,391.8,-1.5,-98.1,5.4,-109.5,0,1824,0,203,0, 
1.0167,-162.3,-171.9,-2119.5,-176.1,-291.3,-276.3,-46.8,417.6,-2741.7,-178.5,-193.5,-153.3,-4485.3,-4697.1,-455.4,-990.0,-7.2,-6.3,-128.7,391.2,-0.6,-108.9,-7.2,-125.4,0,1830,0,204,0, 
1.0200,-164.7,-171.6,-142.5,-180.9,-220.2,-282.9,-29.7,412.8,-1630.2,-187.5,-199.2,-154.8,-3403.5,-3311.4,2349.0,-337.8,-6.9,-6.3,-131.1,398.1,-0.9,-98.7,-3.3,-113.4,0,1836,0,205,0, 
1.0233,-165.0,-171.6,3511.2,-180.0,-145.8,-285.3,0.0,410.1,-1778.4,-183.0,-193.8,-158.1,-2322.0,-1357.2,4983.0,1475.4,-7.5,-6.0,-129.0,398.1,-0.9,-99.6,2.1,-98.1,0,1842,0,206,0, 
1.0267,-160.8,-166.2,3792.0,-177.0,-189.3,-276.0,-14.7,413.4,-2741.7,-175.5,-175.2,-149.4,-2717.1,-1590.0,3812.1,1989.3,-6.6,-6.0,-113.1,402.9,-0.9,-90.0,7.8,-90.3,0,1848,0,207,0, 
1.0300,-160.8,-157.8,308.7,-177.3,-280.2,-280.5,-52.5,417.3,-3408.6,-167.4,-183.0,-149.1,-4035.3,-3614.7,528.3,411.6,-6.9,-6.0,-114.0,402.6,-0.6,-86.7,-5.7,-107.4,0,1854,0,208,0, 
1.0333,-162.3,-155.4,-2217.3,-177.9,-312.0,-276.9,-57.0,413.1,-2815.8,-161.7,-188.7,-147.6,-4453.2,-4693.2,-351.6,-989.4,-6.6,-6.3,-117.6,403.5,-0.9,-89.1,-9.6,-115.8,0,1860,0,209,0, 
1.0367,-154.8,-149.4,-219.3,-176.1,-189.0,-273.0,-31.5,411.0,-1630.2,-167.4,-183.6,-149.1,-3334.8,-3238.2,2528.4,-222.6,-6.6,-6.0,-110.7,409.2,-0.6,-80.1,3.9,-100.5,0,1866,0,210,0, 
1.0400,-155.1,-149.1,3511.5,-174.6,-124.5,-273.9,-11.4,410.7,-1778.4,-160.5,-175.8,-141.0,-2253.3,-1350.0,5147.7,1617.0,-7.2,-6.0,-102.6,406.5,-0.9,-84.9,13.2,-91.5,0,1872,0,211,0, 
1.0433,-153.0,-158.4,3780.6,-176.7,-171.3,-264.0,-7.2,412.8,-2815.8,-163.5,-177.3,-144.0,-2621.4,-1545.0,4030.8,2005.8,-6.6,-6.3,-109.2,401.7,-0.9,-85.2,20.7,-95.4,0,1878,0,212,0, 
1.0467,-159.9,-160.8,302.7,-177.0,-298.5,-276.0,-49.8,413.4,-3556.8,-156.0,-183.6,-147.0,-3938.1,-3594.6,666.9,451.5,-6.9,-6.0,-112.8,406.2,-0.9,-87.0,8.7,-110.7,0,1884,0,213,0, 
1.0500,-162.3,-168.9,-2159.4,-183.0,-327.6,-279.6,-60.0,409.8,-2964.0,-170.4,-191.1,-153.9,-4402.8,-4630.8,-168.0,-988.8,-6.9,-6.0,-125.1,401.1,-0.6,-88.2,-4.5,-126.6,0,1890,0,214,0, 
1.0533,-156.6,-165.3,-183.0,-182.7,-210.9,-278.4,-36.9,412.2,-1852.5,-169.8,-185.4,-148.2,-3323.1,-3236.1,2799.9,-268.5,-6.6,-6.0,-120.0,403.8,-0.9,-89.1,3.6,-114.0,0,1896,0,215,0, 
1.0567,-158.4,-171.0,3500.7,-183.3,-132.9,-279.9,-14.4,411.6,-1778.4,-166.8,-186.9,-154.2,-2206.5,-1314.6,5394.6,1545.3,-7.2,-6.3,-122.1,401.1,-0.6,-91.2,10.2,-99.3,0,1902,0,216,0, 
1.0600,-162.3,-176.4,3832.8,-183.6,-185.4,-283.5,-16.5,415.5,-2964.0,-168.9,-194.7,-163.8,-2595.6,-1540.5,4181.1,1996.2,-7.2,-5.7,-125.4,393.9,-0.9,-93.6,6.9,-104.1,0,1908,0,217,0, 
1.0633,-164.7,-176.1,401.1,-184.2,-293.1,-279.3,-47.1,413.7,-3556.8,-175.5,-195.3,-159.0,-3874.5,-3555.3,923.1,506.4,-6.6,-6.0,-126.0,392.1,-0.6,-95.1,-3.3,-116.7,0,1914,0,218,0, 
1.0667,-165.3,-175.5,-2106.6,-185.4,-317.7,-281.1,-65.1,414.3,-2889.9,-168.9,-194.4,-161.4,-4352.1,-4653.9,63.6,-904.8,-7.2,-6.0,-123.6,393.6,-0.6,-91.2,-6.3,-122.1,0,1920,0,219,0, 
1.0700,-168.6,-171.0,-138.3,-182.1,-220.8,-286.8,-41.7,417.6,-1704.3,-175.5,-189.6,-159.3,-3258.0,-3256.5,2988.9,-177.6,-6.9,-5.7,-120.6,396.6,-0.6,-102.3,-3.6,-114.6,0,1926,0,220,0, 
1.0733,-166.2,-180.0,3542.4,-180.6,-138.6,-289.5,-15.0,411.6,-1852.5,-175.5,-190.5,-151.8,-2118.6,-1340.4,5571.6,1659.9,-6.6,-5.7,-117.6,403.5,-0.9,-97.2,3.0,-97.8,0,1932,0,221,0, 
1.0767,-160.5,-169.2,3893.7,-174.0,-174.3,-287.4,-24.9,418.8,-2815.8,-172.2,-181.2,-154.8,-2520.6,-1530.0,4461.6,2124.9,-6.9,-6.3,-113.1,390.0,-0.6,-104.7,5.1,-99.6,0,1938,0,222,0, 
1.0800,-165.6,-178.2,409.2,-175.2,-284.1,-285.9,-57.3,424.5,-3482.7,-169.2,-186.9,-156.6,-3841.2,-3564.9,1137.6,561.0,-7.2,-6.0,-120.0,392.4,-0.6,-92.4,-5.4,-106.2,0,1944,0,223,0, 
1.0833,-170.1,-174.0,-2098.8,-173.1,-308.7,-284.1,-70.2,425.4,-2889.9,-172.8,-178.2,-149.4,-4294.2,-4641.6,217.5,-873.0,-6.9,-5.7,-109.2,393.0,-0.9,-95.1,-12.0,-121.2,0,1950,0,224,0, 
1.0867,-178.8,-178.5,-186.9,-183.0,-201.6,-287.4,-45.0,416.1,-1852.5,-180.0,-195.3,-153.0,-3214.2,-3262.8,3061.8,-131.4,-7.2,-6.0,-123.3,388.5,-0.6,-100.5,-8.4,-127.5,0,1956,0,225,0, 
1.0900,-177.3,-184.8,3493.2,-189.0,-129.9,-296.4,-21.9,414.3,-1778.4,-178.5,-202.5,-165.0,-2171.1,-1341.6,5648.4,1658.7,-6.6,-5.7,-133.8,381.6,-1.2,-105.6,0.9,-113.4,0,1962,0,226,0, 
1.0933,-177.0,-189.0,3833.1,-192.0,-193.2,-293.4,-27.9,413.7,-2815.8,-178.5,-211.5,-173.1,-2502.6,-1503.9,4575.6,2071.5,-6.9,-5.7,-138.0,373.8,-0.9,-107.1,5.1,-111.0,0,1968,0,227,0, 
1.0967,-172.5,-177.6,403.5,-181.2,-294.6,-282.9,-44.4,418.8,-3630.9,-171.6,-195.3,-154.2,-3813.9,-3520.2,1218.0,543.6,-7.5,-6.0,-123.6,390.3,-1.2,-95.4,0.3,-110.4,0,1974,0,228,0, 
1.1000,-168.3,-177.0,-2104.2,-180.9,-310.2,-284.7,-57.9,417.9,-2667.6,-174.0,-194.4,-154.5,-4223.1,-4609.5,358.8,-859.5,-7.2,-6.0,-125.4,382.5,-0.9,-104.7,-13.5,-123.6,0,1980,0,229,0, 
1.1033,-169.8,-173.7,-120.6,-182.4,-218.1,-287.1,-35.4,416.4,-1630.2,-174.9,-191.1,-171.0,-3123.3,-3207.3,3171.3,-208.8,-6.6,-5.7,-121.2,377.7,-0.9,-102.6,-4.8,-116.4,0,1986,0,230,0, 
1.1067,-167.4,-173.4,3486.3,-177.0,-141.0,-281.4,-11.7,423.0,-1630.2,-176.1,-190.2,-158.4,-2131.8,-1296.3,5718.6,1558.5,-6.9,-5.7,-120.0,380.4,-0.9,-101.1,9.6,-100.8,0,1992,0,231,0, 
1.1100,-169.2,-180.3,3849.9,-174.9,-186.9,-279.9,-19.5,426.9,-2889.9,-174.0,-181.5,-152.1,-2484.6,-1487.7,4546.8,2026.5,-6.6,-6.0,-114.0,388.5,-1.2,-89.4,10.2,-95.7,0,1998,0,232,0, 
1.1133,-168.9,-176.1,352.8,-176.7,-299.7,-281.7,-58.8,427.5,-3408.6,-168.9,-181.2,-155.4,-3783.6,-3480.3,1227.0,434.7,-6.9,-6.0,-109.8,387.6,-0.9,-93.6,3.0,-112.2,0,2004,0,233,0, 
1.1167,-171.0,-178.8,-2133.9,-174.3,-312.9,-283.8,-62.7,425.1,-2889.9,-176.1,-185.7,-153.9,-4260.3,-4594.5,352.2,-1015.2,-6.9,-6.6,-112.5,388.2,-0.9,-101.7,-3.9,-129.3,0,2010,0,234,0, 
1.1200,-165.6,-171.6,-216.0,-168.9,-218.4,-276.9,-38.7,431.1,-1630.2,-170.4,-183.3,-148.2,-3286.8,-3257.7,3143.1,-361.8,-6.6,-6.0,-110.4,395.1,-0.6,-95.4,-4.5,-117.3,0,2016,0,235,0, 
1.1233,-165.3,-182.7,3491.7,-166.2,-142.8,-275.1,-4.8,434.1,-1852.5,-168.9,-174.0,-146.1,-2138.1,-1316.7,5757.3,1456.2,-7.2,-5.7,-107.1,403.2,-0.6,-91.8,10.8,-98.1,0,2022,0,236,0, 
1.1267,-158.4,-185.4,3830.4,-163.2,-195.6,-273.6,-17.4,433.8,-2889.9,-175.2,-177.0,-148.2,-2459.7,-1494.6,4568.4,1912.5,-6.9,-6.0,-106.8,399.0,-0.6,-85.5,11.7,-93.9,0,2028,0,237,0, 
1.1300,-161.1,-182.7,288.9,-164.7,-300.0,-272.1,-50.4,433.2,-3482.7,-175.5,-189.6,-150.6,-3810.3,-3621.0,1201.5,296.4,-6.6,-6.3,-115.8,399.0,-0.9,-91.8,-0.3,-112.2,0,2034,0,238,0, 
1.1333,-165.6,-187.5,-2494.8,-166.8,-349.8,-272.7,-69.3,431.1,-2741.7,-178.5,-189.9,-139.5,-4446.9,-4882.5,-36.0,-1387.8,-6.9,-5.7,-121.5,403.2,-0.6,-92.4,-9.6,-131.7,0,2040,0,239,0, 
1.1367,-167.4,-185.1,-476.4,-170.4,-240.9,-271.8,-45.0,429.9,-1778.4,-185.1,-188.7,-147.3,-3334.8,-3408.0,2914.2,-599.4,-6.6,-5.7,-122.4,391.2,-0.9,-100.5,-12.6,-124.2,0,2046,0,240,0, 
1.1400,-164.7,-183.9,3235.2,-174.3,-151.8,-283.8,-21.0,426.0,-1778.4,-176.4,-190.5,-156.3,-2169.3,-1453.2,5655.0,1275.0,-7.2,-5.7,-118.2,390.0,-0.6,-106.2,4.2,-107.4,0,2052,0,241,0, 
1.1433,-166.8,-186.3,3631.8,-175.2,-220.5,-281.7,-36.3,426.6,-2815.8,-181.5,-185.7,-158.1,-2575.5,-1576.8,4493.4,1654.5,-6.6,-6.0,-119.7,387.6,-0.6,-105.6,5.7,-106.5,0,2058,0,242,0, 
1.1467,-168.9,-188.4,231.3,-177.3,-331.8,-287.1,-64.2,426.3,-3556.8,-180.3,-184.5,-158.4,-3865.5,-3635.1,1173.0,155.7,-7.2,-6.3,-118.2,397.8,-0.9,-98.7,-2.4,-118.2,0,2064,0,243,0, 
1.1500,-165.9,-184.8,-2352.9,-183.3,-340.5,-287.4,-79.2,424.2,-2815.8,-179.1,-195.0,-162.9,-4323.9,-4765.2,196.2,-1376.7,-7.2,-6.0,-126.3,386.7,-0.9,-109.2,-9.0,-133.5,0,2070,0,244,0, 
1.1533,-167.7,-186.0,-470.7,-188.4,-231.0,-291.6,-49.2,422.1,-1630.2,-188.4,-199.8,-171.0,-3283.5,-3362.1,2918.4,-720.3,-7.2,-6.0,-129.3,381.3,-0.6,-110.7,-3.6,-130.5,0,2076,0,245,0, 
1.1567,-166.8,-191.7,3133.2,-186.6,-158.4,-287.1,-20.1,420.6,-1778.4,-177.6,-194.4,-163.5,-2211.3,-1464.9,5526.0,1101.9,-7.2,-6.0,-124.5,385.2,-0.9,-99.6,12.6,-111.9,0,2082,0,246,0, 
1.1600,-172.8,-197.1,3540.0,-184.2,-205.2,-288.0,-29.7,418.8,-2815.8,-178.5,-195.0,-161.7,-2559.0,-1629.6,4482.6,1546.8,-7.2,-6.0,-127.8,385.2,-1.2,-100.8,4.8,-110.4,0,2088,0,247,0, 
1.1633,-167.4,-191.7,111.6,-177.6,-307.2,-286.5,-63.9,427.5,-3482.7,-185.4,-193.2,-155.4,-3882.6,-3678.6,1126.2,17.4,-7.2,-6.3,-124.8,387.0,-0.6,-95.7,1.8,-117.6,0,2094,0,248,0, 
1.1667,-173.4,-195.0,-2403.9,-179.7,-325.2,-292.2,-69.3,427.5,-2964.0,-188.7,-200.1,-161.7,-4371.3,-4803.3,50.1,-1452.6,-7.2,-6.0,-133.2,380.7,-0.9,-112.2,-11.7,-144.3,0,2100,0,249,0, 
1.1700,-172.8,-191.7,-542.4,-175.2,-235.5,-287.4,-49.2,429.3,-1704.3,-183.6,-192.3,-163.5,-3350.1,-3447.3,2801.7,-861.3,-6.9,-6.0,-121.8,384.0,-0.9,-109.5,-2.1,-124.8,0,2106,0,250,0, 
1.1733,-168.6,-183.9,3177.6,-161.1,-144.6,-275.7,-10.2,438.0,-1852.5,-176.7,-179.7,-152.1,-2245.8,-1538.7,5438.4,953.7,-6.6,-6.3,-110.7,399.3,-0.6,-100.2,7.2,-109.8,0,2112,0,251,0, 
1.1767,-168.6,-188.7,3522.0,-164.1,-196.2,-276.3,-18.3,437.4,-2964.0,-179.7,-179.7,-154.8,-2593.5,-1717.5,4324.5,1400.7,-6.9,-6.0,-109.5,397.5,-0.6,-94.2,8.4,-100.8,0,2118,0,252,0, 
1.1800,-167.7,-182.1,20.7,-168.3,-304.5,-286.2,-60.0,435.6,-3556.8,-178.5,-182.4,-151.5,-3952.8,-3723.9,923.7,-200.4,-6.9,-5.7,-111.9,404.7,-0.6,-99.0,-9.3,-116.4,0,2124,0,253,0, 
1.1833,-171.6,-182.7,-2547.9,-172.5,-333.9,-284.4,-69.6,429.0,-2889.9,-181.2,-180.9,-159.3,-4449.0,-4825.2,-5.7,-1583.7,-7.2,-6.0,-116.7,395.1,-0.9,-103.5,-8.4,-127.5,0,2130,0,254,0, 
1.1867,-173.4,-184.2,-624.6,-174.0,-238.5,-283.8,-51.3,431.1,-1630.2,-182.4,-186.9,-157.2,-3420.3,-3474.6,2774.4,-944.1,-6.9,-6.3,-117.0,399.9,0.0,-102.3,0.6,-122.1,0,2136,0,255,0, 
1.1900,-176.7,-191.1,3101.4,-186.0,-159.3,-287.1,-21.6,426.6,-1778.4,-192.0,-203.1,-161.7,-2344.5,-1559.1,5284.2,794.4,-6.9,-5.7,-128.1,393.3,-0.3,-105.6,6.9,-101.7,0,2142,0,0,0, 
1.1933,-171.9,-193.8,3460.5,-186.9,-205.2,-288.3,-25.2,429.6,-2889.9,-181.8,-204.9,-156.0,-2680.5,-1763.4,4133.7,1238.7,-6.9,-5.7,-137.4,394.2,-0.6,-101.7,6.9,-98.1,0,2148,0,1,0, 
1.1967,-168.6,-186.6,22.2,-186.0,-305.4,-284.4,-54.9,429.9,-3630.9,-185.4,-197.1,-160.5,-4036.5,-3793.2,707.1,-311.7,-7.2,-5.7,-133.8,395.4,-1.2,-102.9,2.7,-113.4,0,2154,0,2,0, 
1.2000,-171.6,-184.8,-2521.8,-186.6,-328.5,-285.6,-67.2,423.0,-2741.7,-183.6,-196.2,-172.2,-4510.2,-4898.1,-284.7,-1784.7,-6.6,-6.0,-133.8,387.6,-0.9,-103.8,-2.1,-121.5,0,2160,0,3,0, 
1.2033,-166.8,-181.2,-720.0,-190.5,-263.1,-288.6,-52.8,421.5,-1630.2,-186.0,-200.4,-169.2,-3514.8,-3581.7,2433.6,-1181.1,-7.5,-6.6,-129.9,391.8,-0.9,-98.7,8.7,-106.8,0,2166,0,4,0, 
1.2067,-158.4,-176.1,3006.6,-185.4,-163.5,-280.5,-18.0,426.9,-1704.3,-180.3,-197.4,-159.3,-2383.5,-1679.4,5132.4,656.7,-6.6,-6.3,-129.9,391.5,-0.9,-98.7,25.2,-85.8,0,2172,0,5,0, 
1.2100,-154.5,-175.8,3318.3,-180.0,-211.8,-279.6,-22.5,429.0,-2889.9,-179.4,-192.6,-157.5,-2806.8,-1827.3,3940.2,1055.1,-6.9,-5.7,-125.7,400.5,-1.2,-100.5,25.8,-83.1,0,2178,0,6,0, 
1.2133,-157.5,-177.9,-104.1,-179.1,-314.1,-276.3,-59.4,427.5,-3408.6,-176.1,-191.7,-160.5,-4108.5,-3853.8,561.0,-455.4,-6.9,-5.7,-123.9,391.8,-0.9,-89.4,16.2,-94.2,0,2184,0,7,0, 
1.2167,-158.7,-176.1,-2694.6,-182.1,-328.8,-279.0,-59.7,423.9,-2889.9,-180.0,-190.2,-160.8,-4586.1,-4965.3,-413.4,-1970.1,-7.5,-6.0,-121.8,393.0,-0.9,-99.3,14.1,-105.3,0,2190,0,8,0, 
1.2200,-158.7,-175.8,-860.7,-182.1,-232.8,-283.8,-41.4,418.2,-1778.4,-176.4,-190.8,-161.1,-3584.4,-3655.8,2234.1,-1311.6,-6.6,-6.3,-121.8,391.2,-1.2,-94.5,7.8,-99.0,0,2196,0,9,0, 
1.2233,-165.3,-180.9,2841.6,-181.8,-163.5,-279.6,-23.1,415.8,-1778.4,-176.7,-192.3,-160.2,-2459.7,-1727.7,4923.9,498.6,-6.9,-6.0,-122.7,398.7,-0.9,-92.1,21.0,-89.4,0,2202,0,10,0, 
1.2267,-165.0,-186.3,3234.6,-183.6,-202.8,-276.6,-30.6,413.4,-2964.0,-178.5,-194.7,-168.6,-2854.5,-1864.5,3699.9,960.6,-6.6,-6.3,-128.1,386.7,-0.9,-96.0,19.8,-84.3,0,2208,0,11,0, 
1.2300,-165.9,-181.8,-232.8,-180.3,-322.8,-287.4,-75.0,415.2,-3556.8,-175.8,-183.0,-162.9,-4194.0,-3889.8,282.3,-645.3,-6.9,-6.3,-119.4,391.2,-1.2,-95.4,6.6,-105.9,0,2214,0,12,0, 
1.2333,-162.3,-177.6,-2869.8,-179.4,-328.8,-277.8,-81.9,416.7,-2889.9,-170.4,-183.6,-151.8,-4683.3,-5027.4,-821.4,-2100.6,-6.9,-5.7,-116.4,400.5,-0.6,-89.1,4.2,-112.8,0,2220,0,13,0, 
1.2367,-163.5,-173.7,-971.4,-175.2,-244.2,-274.2,-52.8,414.9,-1852.5,-165.6,-177.6,-137.1,-3657.6,-3675.3,1879.2,-1448.4,-7.2,-6.3,-111.3,411.9,-0.6,-80.4,12.0,-107.4,0,2226,0,14,0, 
1.2400,-156.0,-168.0,2789.1,-170.7,-164.7,-267.6,-15.9,420.0,-1852.5,-157.8,-171.0,-132.3,-2547.6,-1802.1,4578.9,357.3,-6.9,-6.0,-103.8,408.9,-0.9,-70.8,28.8,-82.2,0,2232,0,15,0, 
1.2433,-151.5,-165.9,3239.7,-166.8,-214.8,-260.1,-16.5,426.9,-2741.7,-154.5,-172.8,-132.6,-2912.7,-1887.0,3511.2,795.3,-6.9,-6.0,-100.2,417.0,-0.9,-72.3,32.1,-81.9,0,2238,0,16,0, 
1.2467,-152.7,-163.8,-203.1,-167.4,-315.0,-257.4,-50.4,431.4,-3482.7,-146.4,-158.1,-140.7,-4196.7,-3941.4,143.1,-687.9,-6.9,-6.0,-93.9,410.1,-0.9,-76.5,29.1,-94.8,0,2244,0,17,0, 
1.2500,-154.5,-169.5,-2877.9,-171.6,-331.8,-261.0,-59.4,425.1,-2741.7,-153.9,-172.8,-141.6,-4747.5,-5060.7,-973.2,-2208.6,-7.2,-6.0,-104.7,413.1,-0.9,-77.7,15.9,-102.6,0,2250,0,18,0, 
1.2533,-150.6,-167.7,-1034.1,-168.0,-223.2,-256.5,-35.1,423.9,-1778.4,-156.0,-179.1,-136.8,-3742.8,-3730.8,1692.3,-1545.0,-6.9,-6.0,-106.5,417.9,-0.9,-80.1,23.4,-91.2,0,2256,0,19,0, 
1.2567,-156.3,-172.5,2627.4,-166.5,-152.1,-262.8,-14.1,419.4,-1778.4,-157.5,-175.2,-140.4,-2681.1,-1848.6,4277.4,241.5,-7.2,-6.0,-108.3,414.6,-0.6,-78.9,31.5,-73.5,0,2262,0,20,0, 
1.2600,-152.7,-176.1,3001.2,-168.6,-202.8,-261.9,-20.7,422.4,-2815.8,-159.0,-173.7,-150.0,-3084.9,-2001.6,3157.5,696.0,-6.9,-6.3,-108.9,411.3,-1.2,-85.8,34.2,-71.1,0,2268,0,21,0, 
1.2633,-149.7,-167.4,-379.5,-162.6,-284.1,-262.5,-65.4,431.1,-3482.7,-156.0,-165.6,-141.6,-4352.4,-4002.3,-137.4,-797.1,-7.2,-6.3,-104.1,418.8,-0.3,-80.4,22.8,-88.5,0,2274,0,22,0, 
1.2667,-153.3,-169.2,-2968.5,-169.8,-333.3,-260.7,-75.3,429.3,-2815.8,-167.7,-189.3,-159.0,-4864.5,-5101.5,-1153.8,-2308.8,-6.6,-6.0,-120.6,399.6,-1.2,-88.8,14.1,-102.3,0,2280,0,23,0, 
1.2700,-154.8,-182.4,-1185.0,-177.9,-252.6,-278.1,-66.3,420.9,-1704.3,-183.6,-205.5,-176.1,-3880.2,-3859.8,1339.8,-1701.3,-7.2,-5.7,-128.7,383.1,-0.6,-105.3,10.8,-106.2,0,2286,0,24,0, 
1.2733,-152.7,-182.4,2505.0,-180.3,-154.2,-285.6,-36.6,417.9,-1630.2,-188.1,-207.3,-179.7,-2793.3,-1939.8,3993.0,163.2,-7.2,-6.0,-129.3,378.0,-0.9,-108.0,20.4,-95.4,0,2292,0,25,0, 
1.2767,-151.2,-177.6,2948.7,-168.0,-184.5,-277.2,-43.2,428.7,-2815.8,-170.7,-184.8,-144.3,-3096.0,-2094.3,2904.0,573.3,-7.5,-5.7,-112.8,406.2,-0.9,-90.9,23.1,-83.4,0,2298,0,26,0, 
1.2800,-150.3,-175.5,-376.5,-164.7,-307.5,-276.9,-69.3,431.1,-3408.6,-165.3,-162.0,-124.5,-4333.5,-4009.2,-356.7,-889.5,-6.9,-6.0,-100.5,420.9,-0.6,-85.8,9.3,-92.1,0,2304,0,27,0, 
1.2833,-158.4,-184.2,-2952.9,-183.6,-351.3,-285.3,-88.5,422.1,-2964.0,-179.7,-190.5,-153.0,-4831.2,-5157.3,-1459.8,-2436.3,-7.2,-6.0,-124.8,391.2,-0.3,-98.4,-3.3,-120.9,0,2310,0,28,0, 
1.2867,-163.2,-185.1,-1184.1,-191.1,-264.6,-288.6,-66.6,420.0,-1778.4,-192.0,-216.3,-168.6,-3899.7,-3867.9,1160.7,-1836.9,-7.2,-6.6,-144.0,383.4,-0.9,-108.3,-0.6,-117.0,0,2316,0,29,0, 
1.2900,-156.6,-182.1,2493.0,-188.7,-176.7,-284.7,-30.3,425.4,-1778.4,-184.2,-199.8,-168.0,-2823.6,-1982.7,3709.8,4.8,-6.9,-6.0,-135.0,393.3,-0.6,-102.3,19.2,-96.0,0,2322,0,30,0, 
1.2933,-155.7,-183.3,2883.6,-183.9,-227.4,-284.7,-37.2,424.5,-2889.9,-176.7,-187.2,-166.2,-3184.5,-2148.6,2639.1,450.0,-6.6,-6.0,-123.6,394.2,-0.9,-93.3,16.2,-99.0,0,2328,0,31,0, 
1.2967,-150.0,-179.4,-457.2,-178.5,-324.9,-278.4,-62.4,430.2,-3630.9,-174.3,-195.9,-174.9,-4507.8,-4083.6,-651.9,-1025.7,-6.9,-5.7,-129.9,397.2,-0.6,-88.8,14.4,-108.6,0,2334,0,32,0, 
1.3000,-151.2,-174.6,-3023.4,-178.5,-343.8,-279.0,-81.0,433.5,-2889.9,-174.9,-204.0,-178.5,-5012.1,-5240.1,-1706.7,-2503.5,-6.9,-5.7,-134.7,393.3,-0.6,-92.4,11.7,-123.0,0,2340,0,33,0, 
1.3033,-157.2,-183.3,-1278.9,-186.9,-253.5,-285.6,-53.1,420.6,-1852.5,-179.1,-206.7,-178.2,-4071.6,-3990.6,876.0,-1956.0,-6.9,-6.6,-137.4,396.0,-0.9,-95.1,11.4,-114.0,0,2346,0,34,0, 
1.3067,-152.4,-176.4,2377.8,-179.4,-168.9,-276.0,-17.1,429.3,-1926.6,-169.8,-204.0,-173.4,-3010.5,-2045.7,3484.8,-116.4,-6.6,-5.7,-132.6,392.7,-0.3,-93.0,27.3,-103.2,0,2352,0,35,0, 
1.3100,-151.8,-176.7,2868.6,-168.9,-205.5,-271.8,-24.6,433.5,-2815.8,-159.6,-189.6,-162.3,-3307.5,-2202.9,2445.9,472.2,-6.9,-5.7,-123.3,411.0,-0.9,-81.3,23.4,-93.3,0,2358,0,36,0, 
1.3133,-153.6,-172.2,-475.8,-165.6,-311.1,-273.0,-62.4,435.3,-3556.8,-157.2,-178.2,-154.2,-4626.3,-4126.5,-843.6,-1005.6,-6.6,-6.3,-116.4,402.3,-0.3,-80.4,11.7,-104.7,0,2364,0,37,0, 
1.3167,-150.9,-167.4,-3069.9,-167.4,-347.1,-268.5,-67.5,433.2,-2964.0,-159.3,-185.4,-148.5,-5081.7,-5288.4,-1905.6,-2519.4,-6.9,-6.3,-118.8,412.2,-1.5,-76.8,10.8,-111.6,0,2370,0,38,0, 
1.3200,-155.4,-166.2,-1273.8,-163.8,-228.9,-268.5,-38.7,430.5,-1778.4,-145.5,-180.9,-135.0,-4130.1,-4000.2,711.0,-1963.2,-6.9,-5.7,-115.2,420.6,-0.3,-61.8,20.1,-100.5,0,2376,0,39,0, 
1.3233,-153.3,-163.8,2322.0,-162.9,-141.3,-265.2,-15.3,432.0,-1778.4,-154.2,-185.1,-137.4,-3025.2,-2124.0,3287.4,-237.9,-6.9,-6.3,-111.3,421.8,-0.9,-54.3,32.4,-82.2,0,2382,0,40,0, 
1.3267,-150.3,-167.1,2811.3,-168.6,-203.7,-267.9,-30.9,431.1,-2741.7,-148.5,-188.7,-155.1,-3362.4,-2236.8,2304.6,338.1,-6.9,-6.0,-115.2,416.4,-0.9,-63.3,31.8,-84.0,0,2388,0,41,0, 
1.3300,-151.2,-168.3,-542.4,-168.6,-300.9,-270.0,-56.1,430.8,-3482.7,-150.3,-178.8,-150.9,-4685.1,-4192.5,-1025.1,-1116.0,-6.9,-5.7,-112.2,411.3,-0.9,-60.0,22.2,-97.8,0,2394,0,42,0, 
1.3333,-155.1,-171.3,-3099.9,-181.5,-331.8,-277.5,-75.9,418.8,-2889.9,-154.5,-193.2,-169.8,-5241.6,-5321.1,-2119.5,-2599.8,-6.9,-6.0,-125.1,398.7,-0.9,-75.3,9.6,-123.6,0,2400,0,43,0, 
1.3367,-156.9,-172.5,-1346.4,-187.5,-249.3,-281.7,-60.3,412.8,-1926.6,-160.8,-202.8,-174.0,-4267.2,-4072.5,439.5,-2043.9,-6.9,-6.0,-130.5,396.3,-0.9,-83.1,11.1,-118.2,0,2406,0,44,0, 
1.3400,-153.9,-169.2,2319.3,-185.7,-150.6,-279.6,-35.7,415.5,-1778.4,-151.8,-201.3,-172.8,-3171.9,-2198.1,3062.7,-229.5,-7.2,-5.7,-127.2,395.7,-0.6,-78.9,19.5,-98.4,0,2412,0,45,0, 
1.3433,-159.9,-180.3,2738.1,-189.0,-203.4,-282.3,-48.0,418.5,-2889.9,-160.8,-209.4,-183.3,-3541.2,-2329.2,2019.0,306.9,-6.9,-6.0,-135.9,382.8,-0.6,-89.4,12.9,-112.2,0,2418,0,46,0, 
1.3467,-157.5,-176.4,-539.7,-185.7,-314.1,-282.9,-77.7,417.6,-3556.8,-163.5,-203.4,-177.6,-4841.4,-4270.5,-1291.8,-1191.0,-7.2,-6.3,-133.8,389.4,-1.2,-83.7,2.1,-117.6,0,2424,0,47,0, 
1.3500,-164.1,-179.1,-3169.8,-187.8,-351.0,-282.9,-78.3,417.9,-2889.9,-154.8,-200.4,-171.0,-5349.6,-5409.0,-2364.9,-2676.9,-6.6,-6.0,-132.6,398.1,-0.6,-75.9,6.9,-120.6,0,2430,0,48,0, 
1.3533,-163.8,-177.0,-1420.5,-189.6,-256.5,-282.6,-61.5,414.6,-1852.5,-164.7,-200.7,-168.9,-4375.5,-4143.0,275.1,-2095.5,-6.9,-6.0,-133.5,397.2,-1.2,-77.1,12.9,-111.9,0,2436,0,49,0, 
1.3567,-162.6,-181.2,2264.7,-192.6,-175.5,-285.9,-25.5,411.6,-1852.5,-157.8,-210.0,-174.9,-3246.9,-2231.1,2886.9,-248.4,-6.9,-6.0,-135.3,394.2,-0.6,-74.7,17.4,-99.6,0,2442,0,50,0, 
1.3600,-165.0,-180.3,2810.1,-189.3,-189.9,-277.8,-30.9,418.2,-2889.9,-158.4,-205.8,-177.6,-3601.5,-2345.4,1840.8,256.8,-7.2,-6.6,-130.8,393.3,-0.9,-77.1,24.3,-93.6,0,2448,0,51,0, 
1.3633,-166.5,-180.3,-599.1,-188.1,-321.3,-277.2,-73.5,418.2,-3556.8,-153.9,-207.0,-162.3,-4903.8,-4289.4,-1457.1,-1224.3,-7.2,-5.7,-133.8,398.4,-0.6,-71.1,13.5,-114.3,0,2454,0,52,0, 
1.3667,-168.6,-181.5,-3150.6,-187.8,-331.2,-288.9,-86.7,417.0,-2741.7,-157.2,-198.9,-169.8,-5378.4,-5436.0,-2583.3,-2697.9,-7.2,-5.7,-132.0,399.3,-0.9,-80.4,1.5,-124.2,0,2460,0,53,0, 
1.3700,-168.9,-187.8,-1406.1,-192.9,-248.1,-290.4,-56.4,416.1,-1852.5,-159.0,-212.7,-182.7,-4389.0,-4167.3,93.6,-2066.1,-6.6,-6.0,-134.7,392.1,-0.6,-80.1,10.8,-111.9,0,2466,0,54,0, 
1.3733,-164.7,-181.2,2230.8,-187.8,-164.1,-289.5,-24.9,418.8,-1852.5,-161.1,-209.1,-184.2,-3311.1,-2282.4,2753.4,-243.9,-7.2,-5.7,-134.7,383.7,-0.9,-78.0,23.7,-91.5,0,2472,0,55,0, 
1.3767,-167.4,-186.6,2757.6,-190.5,-211.5,-286.5,-38.7,420.9,-2741.7,-166.2,-210.9,-179.4,-3583.8,-2320.5,1821.0,285.0,-7.2,-6.0,-132.6,387.6,-0.9,-81.3,22.2,-88.5,0,2478,0,56,0, 
1.3800,-165.6,-182.4,-573.9,-187.2,-332.7,-289.5,-64.8,421.8,-3482.7,-169.2,-210.3,-182.4,-4946.4,-4278.6,-1506.6,-1254.0,-6.6,-6.0,-130.5,382.2,-0.6,-79.5,12.3,-109.8,0,2484,0,57,0, 
1.3833,-162.6,-175.5,-3126.9,-179.1,-355.5,-287.7,-70.8,426.6,-2815.8,-165.0,-196.8,-177.9,-5393.4,-5336.1,-2571.6,-2690.7,-6.9,-5.7,-122.1,385.5,-1.2,-81.6,4.8,-126.9,0,2490,0,58,0, 
1.3867,-165.0,-179.1,-1363.5,-184.2,-256.2,-290.7,-54.3,420.9,-1852.5,-171.0,-208.2,-182.1,-4339.8,-4109.4,17.7,-2121.0,-7.2,-5.7,-125.1,381.0,-0.9,-88.2,9.9,-125.7,0,2496,0,59,0, 
1.3900,-159.3,-176.4,2326.2,-184.5,-182.7,-289.5,-35.7,421.8,-1852.5,-170.7,-214.2,-173.7,-3228.6,-2176.5,2664.6,-278.1,-6.6,-6.0,-129.6,387.0,-1.2,-92.4,18.0,-108.9,0,2502,0,60,0, 
1.3933,-159.3,-178.8,2756.4,-181.5,-220.5,-287.7,-40.5,417.6,-2815.8,-167.1,-206.4,-169.2,-3549.3,-2307.3,1624.5,280.8,-7.2,-6.0,-129.9,387.6,-0.9,-91.8,17.7,-108.9,0,2508,0,61,0, 
1.3967,-160.8,-178.5,-459.0,-180.0,-315.0,-289.2,-69.6,418.5,-3556.8,-161.4,-202.8,-169.5,-4743.9,-4153.8,-1544.7,-1063.2,-6.9,-6.0,-125.7,388.8,-1.2,-88.5,6.6,-122.1,0,2514,0,62,0, 
1.4000,-165.3,-179.4,-2686.5,-183.0,-313.8,-285.6,-76.5,410.1,-2815.8,-174.0,-199.5,-173.7,-5008.8,-5193.9,-2244.0,-2243.4,-6.9,-6.0,-125.4,381.9,-0.6,-88.5,0.3,-130.2,0,2520,0,63,0, 
1.4033,-167.1,-182.4,-1188.3,-185.4,-255.3,-286.5,-60.3,411.6,-1852.5,-179.7,-207.3,-179.1,-4185.0,-4089.0,18.9,-1906.5,-6.9,-5.7,-134.4,381.3,-0.6,-93.3,8.4,-126.6,0,2526,0,64,0, 
1.4067,-165.3,-183.3,2451.3,-184.2,-163.5,-279.9,-26.4,412.5,-1704.3,-175.5,-216.0,-182.4,-3123.9,-2210.7,2652.0,-146.4,-6.6,-6.0,-132.9,381.3,-0.9,-95.4,13.2,-109.8,0,2532,0,65,0, 
1.4100,-159.9,-180.0,2913.0,-176.7,-210.6,-282.0,-33.6,415.8,-2815.8,-154.8,-203.7,-165.6,-3467.4,-2257.8,1684.8,370.2,-7.2,-6.0,-129.6,393.6,-1.2,-81.6,22.2,-98.7,0,2538,0,66,0, 
1.4133,-165.3,-186.9,-360.9,-177.6,-330.6,-278.4,-60.0,412.8,-3556.8,-164.7,-196.5,-164.1,-4761.3,-4177.8,-1683.0,-1083.9,-7.2,-6.3,-123.0,396.0,-0.9,-79.5,13.8,-113.7,0,2544,0,67,0, 
1.4167,-167.4,-184.8,-3032.1,-184.2,-341.4,-278.1,-82.2,410.7,-2889.9,-168.9,-208.5,-167.4,-5289.0,-5319.9,-2818.5,-2546.1,-6.6,-6.0,-128.4,386.1,-1.2,-94.2,3.3,-127.5,0,2550,0,68,0, 
1.4200,-168.9,-198.6,-1380.6,-190.5,-269.7,-285.0,-62.4,408.0,-1778.4,-177.6,-212.7,-183.0,-4373.4,-4142.7,-346.2,-1972.5,-6.6,-5.7,-134.4,379.8,-0.9,-100.2,2.4,-126.9,0,2556,0,69,0, 
1.4233,-168.0,-201.6,2295.6,-193.8,-179.4,-290.7,-29.4,406.5,-1926.6,-177.6,-218.4,-196.5,-3219.6,-2225.4,2417.4,-161.1,-7.2,-6.0,-142.8,376.8,-0.9,-102.3,15.3,-114.0,0,2562,0,70,0, 
1.4267,-171.9,-201.0,2735.1,-194.4,-240.9,-286.5,-46.5,400.2,-2741.7,-171.0,-211.2,-179.7,-3538.8,-2353.2,1500.9,402.3,-6.6,-5.7,-135.0,382.5,-0.9,-91.2,8.1,-109.5,0,2568,0,71,0, 
1.4300,-168.3,-191.7,-615.3,-194.7,-327.9,-286.5,-67.5,397.8,-3482.7,-177.6,-204.9,-178.5,-4871.1,-4238.4,-1865.1,-1097.1,-6.9,-6.0,-131.7,381.9,-0.6,-99.0,4.2,-124.5,0,2574,0,72,0, 
1.4333,-174.9,-196.2,-3209.4,-197.4,-370.8,-289.5,-89.1,394.2,-2964.0,-175.2,-209.1,-181.8,-5388.9,-5391.6,-3009.6,-2567.4,-6.9,-5.7,-132.3,378.6,-0.9,-95.7,-8.7,-132.6,0,2580,0,73,0, 
1.4367,-170.1,-189.3,-1477.2,-189.9,-271.2,-286.2,-58.5,397.2,-1704.3,-178.5,-205.5,-186.3,-4359.3,-4141.2,-484.5,-1979.1,-6.9,-6.3,-133.8,375.6,-0.9,-100.2,3.6,-122.4,0,2586,0,74,0, 
1.4400,-165.6,-185.7,2109.0,-180.3,-189.3,-281.1,-27.9,402.6,-1778.4,-166.5,-194.4,-171.0,-3311.7,-2271.0,2122.8,-169.8,-6.9,-5.7,-125.1,389.7,-0.9,-94.2,19.2,-99.9,0,2592,0,75,0, 
1.4433,-167.7,-187.2,2736.9,-183.9,-224.4,-281.7,-39.6,400.2,-2815.8,-167.1,-201.3,-174.0,-3584.7,-2356.5,1311.0,394.8,-6.9,-6.0,-122.4,385.5,-0.9,-86.1,21.0,-87.0,0,2598,0,76,0, 
1.4467,-164.7,-189.3,-576.3,-185.1,-332.1,-285.6,-71.1,399.3,-3630.9,-162.9,-208.2,-176.4,-4900.5,-4280.1,-1978.5,-1070.7,-6.9,-5.7,-127.2,384.9,-0.9,-90.6,4.2,-104.4,0,2604,0,77,0, 
1.4500,-168.6,-190.8,-3182.1,-180.0,-340.5,-281.1,-90.3,403.5,-2815.8,-167.7,-210.0,-168.0,-5337.0,-5432.4,-3134.7,-2535.6,-6.9,-6.3,-129.3,390.3,-0.6,-93.9,-2.1,-114.0,0,2610,0,78,0, 
1.4533,-168.0,-193.8,-1532.7,-192.9,-264.9,-286.2,-70.8,399.3,-1926.6,-182.7,-218.1,-191.1,-4398.3,-4232.7,-565.5,-1989.6,-6.9,-6.0,-139.5,372.0,-0.6,-106.5,6.0,-120.0,0,2616,0,79,0, 
1.4567,-167.7,-187.8,2175.3,-183.3,-177.6,-286.8,-35.4,408.6,-1852.5,-178.5,-210.0,-180.6,-3314.1,-2354.4,2137.8,-186.9,-6.9,-6.0,-131.4,386.4,-0.9,-97.8,15.6,-99.0,0,2622,0,80,0, 
1.4600,-159.9,-184.8,2836.5,-182.7,-215.1,-291.0,-45.9,413.4,-2964.0,-172.2,-206.4,-180.3,-3557.7,-2396.1,1212.0,410.4,-6.9,-5.4,-129.0,388.8,-1.2,-96.0,14.7,-99.9,0,2628,0,81,0, 
1.4633,-162.6,-184.5,-490.2,-182.7,-330.0,-291.3,-70.2,415.8,-3630.9,-175.2,-202.8,-186.0,-4869.0,-4354.2,-2108.4,-1119.9,-6.9,-6.3,-128.1,378.0,-0.3,-101.4,2.7,-119.1,0,2634,0,82,0, 
1.4667,-159.9,-181.5,-3073.2,-176.4,-359.4,-284.4,-77.4,422.4,-2964.0,-171.0,-198.3,-182.1,-5338.8,-5450.4,-3209.7,-2522.4,-6.6,-5.7,-121.5,383.4,-0.6,-96.9,-1.8,-134.4,0,2640,0,83,0, 
1.4700,-155.1,-178.5,-1374.6,-178.2,-265.2,-282.6,-54.3,424.2,-1778.4,-174.9,-187.5,-177.6,-4406.1,-4216.8,-546.0,-1953.9,-7.5,-6.0,-114.0,387.0,-1.2,-91.5,1.5,-124.2,0,2646,0,84,0, 
1.4733,-156.9,-181.5,2211.0,-180.9,-189.9,-288.0,-38.4,417.6,-1852.5,-171.9,-200.4,-178.2,-3329.7,-2375.7,2101.8,-147.9,-7.2,-6.0,-117.9,381.0,-0.6,-94.5,9.3,-112.2,0,2652,0,85,0, 
1.4767,-157.5,-184.5,2831.4,-183.3,-210.0,-287.1,-43.8,415.5,-2667.6,-176.4,-209.7,-175.2,-3601.2,-2346.0,1255.5,434.1,-7.5,-5.7,-125.7,384.0,-0.6,-93.6,9.6,-111.6,0,2658,0,86,0, 
1.4800,-156.3,-182.4,-530.7,-179.4,-313.5,-281.1,-72.9,418.5,-3705.0,-174.9,-198.9,-180.6,-4863.3,-4322.7,-1994.7,-1002.3,-7.2,-6.3,-125.1,380.4,-0.6,-94.8,3.9,-126.0,0,2664,0,87,0, 
1.4833,-157.5,-180.9,-3153.0,-181.2,-356.7,-288.0,-86.7,423.3,-2815.8,-174.9,-211.5,-183.6,-5372.7,-5403.9,-3159.9,-2485.8,-6.9,-6.0,-129.3,378.3,-0.6,-103.2,-0.6,-139.5,0,2670,0,88,0, 
1.4867,-165.3,-189.0,-1464.6,-187.2,-257.1,-290.1,-68.1,417.0,-1778.4,-186.3,-218.7,-185.1,-4362.6,-4247.4,-567.9,-1938.9,-6.9,-6.0,-138.9,375.3,-0.9,-109.8,-6.6,-132.9,0,2676,0,89,0, 
1.4900,-165.9,-195.6,2164.2,-189.9,-175.8,-292.2,-36.6,407.7,-1778.4,-186.0,-215.4,-186.9,-3251.4,-2349.6,2082.0,-100.5,-6.6,-6.0,-137.4,375.6,-0.3,-105.0,11.7,-114.9,0,2682,0,90,0, 
1.4933,-159.6,-189.3,2746.2,-186.0,-216.0,-292.2,-49.8,407.4,-2889.9,-176.7,-207.9,-189.9,-3506.7,-2406.0,1170.6,473.7,-7.2,-6.0,-129.3,371.4,-0.6,-113.1,13.8,-116.1,0,2688,0,91,0, 
1.4967,-159.3,-189.6,-539.4,-186.3,-329.4,-285.9,-78.6,407.7,-3482.7,-179.1,-211.2,-192.6,-4796.7,-4254.0,-2047.8,-953.1,-6.9,-6.6,-135.3,376.8,-0.9,-102.3,10.8,-123.3,0,2694,0,92,0, 
1.5000,-162.3,-188.7,-3162.6,-185.4,-344.7,-282.9,-80.4,401.7,-2889.9,-184.2,-210.6,-186.6,-5279.7,-5367.3,-3159.6,-2384.7,-6.9,-5.4,-137.7,373.8,-0.6,-106.5,5.1,-139.5,0,2700,0,93,0, 
1.5033,-162.0,-190.8,-1508.1,-189.0,-261.6,-282.9,-60.0,398.7,-1778.4,-186.9,-210.3,-181.8,-4349.1,-4182.6,-585.3,-1804.8,-6.6,-6.3,-133.8,373.2,0.0,-111.0,4.5,-136.8,0,2706,0,94,0, 
1.5067,-161.1,-195.0,2118.6,-192.6,-194.4,-296.1,-34.2,396.6,-1778.4,-189.0,-214.8,-183.6,-3218.4,-2332.5,2109.0,-35.7,-7.2,-5.7,-134.7,375.0,-0.9,-102.3,18.9,-120.3,0,2712,0,95,0, 
1.5100,-166.2,-191.4,2692.8,-187.5,-227.1,-289.2,-42.3,395.4,-2964.0,-186.9,-213.3,-189.3,-3528.9,-2363.1,1164.9,584.4,-6.9,-5.7,-131.4,376.2,-0.6,-101.1,20.4,-113.1,0,2718,0,96,0, 
1.5133,-156.0,-184.5,-492.3,-182.4,-314.4,-283.2,-71.4,398.4,-3482.7,-167.7,-206.4,-179.1,-4747.5,-4256.7,-1969.5,-863.4,-7.2,-5.7,-126.6,383.1,-1.2,-84.9,12.9,-122.4,0,2724,0,97,0, 
1.5167,-159.0,-189.3,-3134.7,-186.0,-355.2,-283.5,-84.6,391.8,-2889.9,-169.2,-203.1,-179.1,-5308.2,-5374.8,-3110.7,-2334.6,-6.6,-6.0,-128.4,380.1,-0.3,-87.9,-2.4,-140.7,0,2730,0,98,0, 
1.5200,-161.1,-194.7,-1476.9,-188.4,-269.4,-285.6,-55.2,383.1,-1852.5,-169.5,-196.8,-179.1,-4348.2,-4194.0,-494.4,-1760.7,-6.6,-6.0,-118.5,383.7,-0.6,-86.1,0.9,-129.3,0,2736,0,99,0, 
1.5233,-164.1,-190.8,2195.1,-188.7,-176.4,-288.0,-35.7,387.3,-1852.5,-172.5,-207.3,-183.3,-3264.9,-2314.2,2135.4,58.8,-6.9,-6.0,-128.7,381.0,-0.6,-94.5,12.3,-113.4,0,2742,0,100,0, 
1.5267,-161.4,-192.6,2812.8,-189.0,-224.7,-283.8,-31.8,387.6,-2741.7,-166.8,-203.7,-172.2,-3482.4,-2376.0,1274.4,686.4,-6.6,-5.7,-126.3,382.8,-1.2,-87.3,14.4,-111.9,0,2748,0,101,0, 
1.5300,-166.8,-199.2,-392.7,-192.6,-334.2,-291.0,-65.7,384.3,-3556.8,-176.4,-215.4,-175.8,-4757.4,-4290.9,-1949.7,-747.9,-6.6,-5.7,-134.1,373.2,-0.6,-98.1,0.6,-136.2,0,2754,0,102,0, 
1.5333,-161.1,-186.3,-3037.8,-189.9,-361.5,-285.6,-76.5,393.3,-2964.0,-171.9,-210.6,-179.4,-5268.3,-5457.9,-3058.2,-2237.1,-7.5,-6.0,-130.8,375.3,-0.6,-88.2,-0.3,-140.7,0,2760,0,103,0, 
1.5367,-165.0,-192.0,-1399.2,-194.1,-273.9,-288.9,-48.6,395.7,-1778.4,-170.7,-205.5,-181.5,-4349.7,-4276.5,-551.7,-1695.3,-6.9,-5.4,-128.4,380.1,-0.6,-91.8,5.1,-132.3,0,2766,0,104,0, 
1.5400,-162.6,-192.6,2230.5,-199.5,-187.5,-296.4,-25.2,385.8,-1704.3,-171.6,-214.2,-184.2,-3245.4,-2380.8,2141.7,113.4,-6.9,-6.0,-138.3,372.3,-0.9,-99.0,15.3,-126.3,0,2772,0,105,0, 
1.5433,-154.2,-184.8,2847.6,-190.2,-226.8,-293.1,-36.0,393.9,-2741.7,-174.0,-202.5,-176.7,-3516.6,-2413.2,1282.2,679.2,-6.9,-5.7,-126.3,382.8,-0.9,-89.7,12.3,-121.8,0,2778,0,106,0, 
1.5467,-159.0,-184.2,-391.5,-193.2,-335.7,-294.9,-80.4,393.9,-3408.6,-159.9,-208.8,-177.6,-4812.6,-4287.3,-1982.7,-765.0,-7.2,-6.0,-125.4,378.0,-0.6,-89.7,1.5,-136.8,0,2784,0,107,0, 
1.5500,-162.3,-186.6,-3067.5,-192.0,-360.0,-290.1,-80.7,395.1,-2889.9,-160.5,-211.2,-177.3,-5345.4,-5483.7,-3092.1,-2207.1,-7.2,-6.3,-128.4,373.8,-0.9,-89.4,1.2,-148.2,0,2790,0,108,0, 
1.5533,-159.3,-186.9,-1403.7,-195.6,-276.3,-308.1,-66.6,387.6,-1926.6,-158.4,-213.3,-186.6,-4422.3,-4267.8,-609.9,-1641.9,-7.2,-5.7,-130.8,374.1,-0.6,-95.7,-0.3,-142.5,0,2796,0,109,0, 
1.5567,-155.7,-181.2,2225.7,-191.4,-186.0,-297.0,-31.5,392.7,-1926.6,-159.3,-204.6,-179.1,-3328.2,-2415.9,2078.1,159.0,-6.6,-6.0,-123.3,379.8,-0.6,-89.1,15.0,-121.5,0,2802,0,110,0, 
1.5600,-156.6,-184.2,2838.6,-190.5,-218.7,-296.7,-37.2,397.8,-2741.7,-164.7,-203.7,-177.9,-3568.2,-2423.1,1305.3,698.4,-7.5,-5.7,-124.2,386.4,-0.9,-88.8,14.4,-115.5,0,2808,0,111,0, 
1.5633,-155.7,-187.2,-414.0,-193.8,-333.3,-293.7,-66.6,399.3,-3482.7,-164.7,-203.1,-180.3,-4853.1,-4352.7,-1929.6,-693.6,-6.9,-6.0,-123.9,377.7,-0.6,-90.9,6.6,-133.8,0,2814,0,112,0, 
1.5667,-158.7,-180.0,-3041.1,-193.2,-364.2,-291.9,-85.2,402.0,-2889.9,-161.1,-205.5,-178.5,-5394.0,-5474.7,-3100.8,-2193.3,-6.9,-6.0,-123.6,379.8,-0.9,-92.4,-4.8,-137.1,0,2820,0,113,0, 
1.5700,-157.2,-179.7,-1402.5,-195.3,-264.9,-284.4,-60.6,400.8,-1778.4,-152.4,-211.8,-171.0,-4481.7,-4304.7,-555.6,-1656.9,-6.9,-5.7,-129.3,390.0,-0.3,-85.2,9.6,-126.0,0,2826,0,114,0, 
1.5733,-161.4,-185.7,2203.5,-197.1,-200.4,-291.9,-36.0,396.9,-1778.4,-158.4,-204.3,-178.5,-3378.9,-2410.8,2193.9,115.5,-6.9,-5.7,-131.7,385.8,-1.2,-83.1,21.3,-106.8,0,2832,0,115,0, 
1.5767,-163.5,-184.5,2884.8,-192.6,-225.6,-288.0,-41.7,401.7,-2815.8,-163.8,-203.4,-174.6,-3631.8,-2408.7,1436.1,750.6,-6.9,-6.0,-132.9,386.4,-0.6,-89.4,18.3,-102.9,0,2838,0,116,0, 
1.5800,-162.0,-184.8,-391.8,-193.8,-328.5,-287.4,-73.8,402.0,-3556.8,-164.7,-209.1,-165.3,-4904.7,-4311.3,-1811.4,-696.3,-6.6,-5.7,-129.3,393.0,-0.9,-84.6,7.2,-110.7,0,2844,0,117,0, 
1.5833,-159.9,-179.7,-3047.4,-184.5,-365.4,-281.7,-75.3,406.2,-2889.9,-157.2,-213.3,-161.1,-5431.5,-5508.0,-3055.5,-2174.7,-7.5,-6.0,-129.6,393.3,-1.2,-84.3,7.8,-119.7,0,2850,0,118,0, 
1.5867,-163.2,-182.1,-1418.4,-189.6,-267.6,-285.3,-53.1,399.6,-1778.4,-164.1,-211.8,-170.4,-4488.0,-4281.0,-455.7,-1605.3,-7.2,-6.0,-130.5,393.9,-1.2,-94.8,6.9,-119.4,0,2856,0,119,0, 
1.5900,-163.5,-185.1,2230.2,-191.4,-181.2,-282.6,-26.4,392.7,-1778.4,-169.5,-213.3,-186.0,-3354.9,-2396.1,2330.1,207.0,-6.9,-5.7,-136.2,382.5,-0.6,-96.3,17.7,-110.7,0,2862,0,120,0, 
1.5933,-160.8,-180.6,2902.8,-180.6,-210.9,-287.4,-30.0,401.7,-2815.8,-163.5,-202.5,-174.9,-3590.4,-2377.2,1467.0,805.2,-6.6,-6.0,-124.5,392.1,-0.9,-87.6,18.0,-105.6,0,2868,0,121,0, 
1.5967,-163.2,-181.2,-360.6,-178.2,-310.8,-278.4,-63.0,406.8,-3556.8,-162.0,-196.8,-174.0,-4859.4,-4371.9,-1771.8,-637.8,-6.9,-6.0,-124.8,388.5,-0.6,-83.7,3.3,-115.8,0,2874,0,122,0, 
1.6000,-163.2,-177.9,-3020.1,-178.2,-339.9,-282.0,-77.7,409.2,-2889.9,-164.7,-196.8,-168.6,-5443.5,-5516.4,-3077.1,-2147.7,-6.9,-5.7,-126.0,395.7,-0.9,-90.9,-6.9,-132.6,0,2880,0,123,0, 
1.6033,-165.3,-174.3,-1390.8,-178.5,-245.1,-279.6,-50.7,407.7,-2000.7,-162.0,-195.9,-171.3,-4452.3,-4296.9,-476.4,-1564.5,-7.2,-5.7,-126.9,386.7,-0.9,-86.4,6.0,-116.4,0,2886,0,124,0, 
1.6067,-166.8,-182.4,2265.0,-177.9,-170.4,-282.6,-21.3,404.1,-1630.2,-172.8,-197.7,-171.3,-3389.1,-2474.1,2304.3,181.2,-6.6,-5.7,-125.1,388.8,-0.9,-90.9,12.6,-102.3,0,2892,0,125,0, 
1.6100,-167.1,-181.2,2902.2,-178.5,-210.3,-283.2,-38.7,404.7,-2815.8,-165.0,-195.6,-170.7,-3616.8,-2453.7,1522.5,802.5,-7.5,-5.7,-126.3,383.4,-1.2,-99.9,9.9,-110.1,0,2898,0,126,0, 
1.6133,-163.8,-179.1,-287.4,-177.0,-309.3,-277.2,-65.7,409.2,-3482.7,-166.2,-195.3,-168.3,-4840.2,-4344.0,-1739.4,-543.9,-6.6,-5.7,-123.3,385.2,-0.6,-97.5,5.1,-123.9,0,2904,0,127,0, 
1.6167,-167.4,-176.1,-2985.3,-181.2,-340.2,-277.8,-79.8,407.7,-3038.1,-169.5,-201.3,-167.1,-5390.7,-5467.2,-2849.4,-2015.1,-7.8,-6.0,-124.8,386.1,-0.9,-96.0,-4.8,-135.6,0,2910,0,128,0, 
1.6200,-170.7,-176.4,-1370.1,-180.9,-243.6,-283.5,-51.0,402.0,-1778.4,-170.7,-201.3,-167.4,-4449.6,-4280.7,-317.4,-1528.5,-6.3,-5.4,-128.4,383.7,-0.3,-102.0,-5.4,-130.2,0,2916,0,129,0, 
1.6233,-174.0,-182.7,2236.8,-180.0,-166.2,-286.2,-25.5,398.7,-1778.4,-167.1,-201.6,-170.4,-3337.2,-2504.1,2367.6,250.8,-7.2,-6.0,-128.1,382.5,-0.6,-96.3,1.5,-109.2,0,2922,0,130,0, 
1.6267,-175.8,-180.0,2877.3,-183.6,-210.9,-286.8,-34.2,399.9,-2815.8,-185.4,-215.4,-187.2,-3575.1,-2462.7,1514.7,912.9,-6.6,-5.7,-135.3,365.7,-0.9,-106.5,-2.7,-112.2,0,2928,0,131,0, 
1.6300,-174.9,-176.1,-399.9,-171.9,-320.4,-283.8,-50.7,410.1,-3630.9,-169.5,-205.2,-165.3,-4834.8,-4335.9,-1755.6,-540.6,-7.2,-6.0,-131.4,380.7,-0.6,-90.9,-8.4,-122.4,0,2934,0,132,0, 
1.6333,-178.8,-185.7,-3098.7,-182.7,-348.3,-290.1,-76.8,404.1,-2889.9,-178.8,-213.3,-171.0,-5373.6,-5509.2,-2922.0,-1981.5,-6.9,-6.0,-138.9,372.6,-0.9,-105.6,-17.1,-137.7,0,2940,0,133,0, 
1.6367,-178.2,-183.9,-1509.3,-187.2,-253.8,-289.8,-57.9,405.3,-1852.5,-186.6,-216.3,-187.2,-4453.8,-4445.1,-332.1,-1470.3,-7.2,-5.7,-140.7,363.0,-0.9,-111.3,-11.1,-129.9,0,2946,0,134,0, 
1.6400,-179.1,-183.3,2118.6,-190.8,-189.3,-299.1,-23.4,403.8,-1704.3,-188.1,-223.5,-202.5,-3384.3,-2555.4,2447.7,342.9,-6.6,-6.0,-144.9,357.0,-0.9,-120.0,0.9,-123.9,0,2952,0,135,0, 
1.6433,-178.5,-181.5,2779.8,-191.7,-233.4,-290.1,-36.3,407.1,-2889.9,-188.1,-217.2,-198.6,-3650.4,-2560.2,1621.2,910.5,-6.6,-5.7,-141.9,355.8,-0.6,-115.8,2.7,-120.6,0,2958,0,136,0, 
1.6467,-178.8,-185.7,-452.7,-191.1,-340.5,-299.7,-72.6,409.2,-3705.0,-187.2,-219.6,-197.4,-4881.6,-4382.1,-1541.7,-390.0,-7.2,-6.0,-146.4,358.8,-0.9,-113.1,-5.7,-136.2,0,2964,0,137,0, 
1.6500,-175.5,-176.1,-3145.2,-187.2,-362.1,-291.9,-86.4,411.9,-3038.1,-181.5,-214.5,-191.7,-5424.6,-5589.9,-2850.9,-1929.0,-6.9,-6.0,-139.5,355.8,-0.6,-111.0,-10.5,-149.4,0,2970,0,138,0, 
1.6533,-177.6,-176.1,-1568.1,-190.5,-269.7,-297.9,-54.3,412.8,-1852.5,-184.8,-212.7,-192.9,-4486.5,-4435.5,-281.4,-1402.2,-6.9,-6.0,-139.5,360.3,-0.9,-109.2,-4.8,-133.8,0,2976,0,139,0, 
1.6567,-176.7,-174.0,2046.9,-187.5,-190.2,-295.2,-36.0,408.9,-1704.3,-184.2,-210.3,-193.5,-3420.9,-2580.6,2505.9,377.4,-6.9,-6.0,-134.7,358.5,-0.6,-110.7,3.0,-118.8,0,2982,0,140,0, 
1.6600,-183.3,-177.9,2713.8,-191.7,-229.5,-304.2,-49.5,404.1,-2815.8,-187.8,-218.1,-194.4,-3652.5,-2549.7,1728.6,1026.0,-6.9,-6.0,-144.0,356.7,-1.5,-120.9,2.4,-119.7,0,2988,0,141,0, 
1.6633,-178.2,-181.8,-480.0,-191.7,-344.1,-296.4,-73.2,401.7,-3408.6,-185.1,-229.5,-183.3,-4957.8,-4467.9,-1404.3,-359.1,-6.9,-6.0,-144.3,358.5,-0.6,-110.7,-7.2,-129.3,0,2994,0,142,0, 
1.6667,-176.4,-181.2,-3208.5,-189.6,-363.3,-289.5,-69.6,406.5,-2815.8,-183.9,-229.2,-179.4,-5502.6,-5658.9,-2675.4,-1926.0,-7.5,-6.0,-146.4,359.4,-1.2,-108.0,-13.8,-139.5,0,3000,0,143,0, 
1.6700,-178.5,-183.6,-1649.4,-191.1,-287.4,-290.1,-51.0,402.3,-1926.6,-184.8,-222.9,-190.2,-4549.5,-4479.9,-156.0,-1386.6,-6.6,-5.7,-147.6,357.3,-0.6,-106.8,-5.7,-133.8,0,3006,0,144,0, 
1.6733,-176.1,-187.2,1959.6,-187.8,-180.0,-287.4,-26.7,403.5,-1852.5,-180.6,-215.7,-185.4,-3446.7,-2645.1,2565.6,385.8,-6.9,-6.3,-141.6,362.4,-0.6,-100.5,7.5,-114.0,0,3012,0,145,0, 
1.6767,-180.0,-192.6,2752.5,-188.1,-206.4,-286.8,-41.7,402.9,-2741.7,-182.7,-222.6,-192.9,-3696.3,-2608.5,1875.0,1014.9,-7.2,-6.3,-144.9,360.3,-0.6,-109.2,6.3,-119.1,0,3018,0,146,0, 
1.6800,-177.3,-197.7,-473.7,-192.0,-334.5,-287.7,-67.5,401.4,-3556.8,-174.9,-219.9,-195.0,-4943.1,-4482.6,-1344.6,-427.8,-6.9,-6.0,-144.0,355.2,-0.9,-100.5,-1.2,-138.9,0,3024,0,147,0, 
1.6833,-177.3,-192.6,-3154.8,-188.1,-363.9,-295.5,-82.8,399.9,-2889.9,-177.6,-213.9,-186.3,-5471.7,-5652.0,-2537.7,-1858.8,-6.9,-6.0,-138.6,357.9,-0.6,-108.9,-10.8,-145.5,0,3030,0,148,0, 
1.6867,-177.3,-187.8,-1641.0,-183.3,-264.6,-285.0,-46.5,399.6,-1926.6,-168.6,-203.4,-183.0,-4536.6,-4528.2,5.1,-1332.6,-7.2,-6.3,-127.2,364.8,-0.9,-99.0,1.8,-124.2,0,3036,0,149,0, 
1.6900,-174.3,-191.7,1969.2,-185.1,-196.8,-286.2,-20.1,402.0,-1704.3,-173.1,-198.0,-185.4,-3544.2,-2732.1,2681.1,404.1,-6.6,-5.7,-123.3,363.9,-0.9,-100.2,14.1,-111.3,0,3042,0,150,0, 
1.6933,-173.1,-185.7,2419.8,-176.7,-233.4,-282.0,-29.1,405.6,-2815.8,-170.4,-195.6,-180.0,-3935.7,-2792.4,1607.1,885.0,-7.2,-6.0,-120.9,359.1,-0.9,-90.6,17.4,-99.6,0,3048,0,151,0, 
1.6967,-175.8,-189.6,-748.2,-176.7,-332.7,-279.0,-59.4,404.1,-3482.7,-166.2,-199.8,-172.2,-5156.1,-4569.9,-1497.9,-455.1,-7.2,-5.7,-126.0,365.7,-0.9,-93.0,8.4,-111.0,0,3054,0,152,0, 
1.7000,-171.9,-183.0,-3330.3,-173.7,-348.6,-279.9,-67.8,402.6,-2964.0,-169.8,-195.6,-173.1,-5618.4,-5731.8,-2701.2,-1892.1,-7.2,-6.0,-118.5,368.4,-0.9,-98.4,-3.3,-124.2,0,3060,0,153,0, 
1.7033,-175.5,-190.5,-1782.6,-181.8,-276.9,-284.4,-45.6,398.1,-1704.3,-172.8,-197.1,-173.4,-4698.0,-4601.4,-94.5,-1465.2,-6.6,-5.7,-130.2,366.6,-0.9,-91.8,-0.6,-119.1,0,3066,0,154,0, 
1.7067,-170.7,-187.5,1882.5,-179.1,-180.6,-284.1,-20.1,400.8,-1778.4,-170.7,-196.2,-171.0,-3612.3,-2724.9,2663.7,323.4,-6.9,-6.0,-121.5,373.2,-0.9,-93.0,11.1,-102.6,0,3072,0,155,0, 
1.7100,-174.6,-197.4,2593.2,-177.9,-206.1,-281.1,-39.6,402.3,-2667.6,-170.7,-195.3,-169.8,-3825.9,-2672.7,1929.3,1041.6,-6.3,-6.3,-121.8,374.7,-0.6,-94.8,9.6,-96.3,0,3078,0,156,0, 
1.7133,-168.3,-184.5,-581.4,-172.2,-304.8,-280.2,-68.4,405.0,-3556.8,-163.8,-190.2,-165.0,-5029.5,-4509.0,-1232.7,-378.9,-7.5,-6.0,-115.2,382.2,-0.6,-87.6,-8.7,-108.3,0,3084,0,157,0, 
1.7167,-170.7,-184.5,-3249.3,-172.2,-351.9,-288.6,-75.3,399.9,-2889.9,-171.0,-196.2,-170.7,-5562.3,-5712.3,-2443.5,-1865.4,-6.9,-6.0,-119.7,379.5,-1.5,-89.7,-17.7,-116.1,0,3090,0,158,0, 
1.7200,-167.1,-174.0,-1750.2,-170.7,-262.8,-278.7,-55.8,407.7,-1704.3,-162.9,-187.8,-157.8,-4686.0,-4611.9,-41.4,-1424.4,-7.2,-6.0,-112.2,390.6,-0.9,-83.4,-12.9,-106.2,0,3096,0,159,0, 
1.7233,-165.3,-180.9,1951.5,-168.0,-171.6,-280.8,-20.1,409.2,-1630.2,-160.5,-179.4,-153.3,-3563.1,-2751.9,2723.7,427.5,-6.6,-6.3,-108.3,390.0,-0.9,-81.6,2.1,-94.2,0,3102,0,160,0, 
1.7267,-163.8,-183.3,2665.5,-165.3,-212.7,-276.9,-27.6,413.1,-2815.8,-153.0,-175.8,-155.4,-3775.8,-2706.9,1957.8,1014.0,-6.9,-6.0,-100.2,387.0,-1.2,-92.1,2.4,-91.5,0,3108,0,161,0, 
1.7300,-167.7,-185.4,-537.0,-171.9,-324.9,-295.8,-59.4,408.6,-3408.6,-161.4,-188.7,-165.9,-5034.0,-4530.0,-1331.7,-394.2,-6.3,-6.0,-106.8,384.0,-0.6,-86.1,-6.3,-108.6,0,3114,0,162,0, 
1.7333,-169.5,-183.9,-3252.6,-170.7,-373.8,-286.5,-77.4,408.9,-2889.9,-164.1,-189.9,-167.1,-5551.5,-5741.4,-2517.6,-1933.8,-7.2,-6.3,-113.7,380.4,-0.9,-88.8,-15.9,-123.6,0,3120,0,163,0, 
1.7367,-170.1,-187.2,-1742.4,-174.3,-274.8,-290.4,-49.5,403.8,-1704.3,-168.9,-186.0,-157.2,-4660.5,-4666.2,-59.1,-1464.0,-6.9,-5.7,-112.5,381.0,-0.9,-94.8,-13.8,-120.6,0,3126,0,164,0, 
1.7400,-167.1,-191.4,1946.1,-175.2,-182.4,-285.6,-19.5,406.8,-1852.5,-175.5,-195.9,-167.7,-3564.9,-2755.2,2794.2,357.6,-6.9,-5.7,-120.3,381.9,-0.9,-102.0,-1.8,-104.7,0,3132,0,165,0, 
1.7433,-172.5,-198.3,2672.4,-179.1,-220.2,-290.4,-27.9,400.2,-2741.7,-171.0,-196.8,-170.1,-3758.7,-2728.5,2041.5,1035.9,-6.9,-6.0,-121.2,373.8,-0.9,-95.4,2.7,-103.8,0,3138,0,166,0, 
1.7467,-168.6,-188.4,-514.8,-172.5,-318.9,-282.6,-52.8,404.7,-3482.7,-167.7,-195.3,-163.8,-5031.3,-4560.6,-1190.4,-431.7,-6.9,-6.0,-122.4,384.6,-0.6,-89.1,-4.5,-116.7,0,3144,0,167,0, 
1.7500,-165.3,-180.9,-3193.2,-175.5,-340.5,-283.5,-63.6,408.6,-3038.1,-174.9,-190.8,-170.4,-5569.5,-5754.9,-2478.0,-1947.3,-6.6,-5.7,-114.0,379.5,-0.6,-96.6,-10.5,-128.1,0,3150,0,168,0, 
1.7533,-165.3,-179.1,-1723.2,-175.5,-261.3,-284.1,-56.4,409.8,-1926.6,-173.1,-195.6,-171.9,-4677.6,-4683.0,-76.5,-1518.9,-6.6,-5.7,-116.7,387.9,-0.6,-93.6,-4.5,-120.0,0,3156,0,169,0, 
1.7567,-162.0,-181.8,1924.5,-170.7,-159.9,-275.1,-20.1,407.1,-1778.4,-174.9,-195.9,-159.6,-3529.2,-2766.9,2752.8,323.7,-6.9,-6.3,-120.0,389.7,-0.6,-95.4,7.5,-98.1,0,3162,0,170,0, 
1.7600,-165.3,-182.4,2683.5,-169.8,-213.0,-284.4,-26.1,405.6,-2667.6,-167.1,-178.2,-162.3,-3768.3,-2764.8,2041.8,915.3,-6.9,-5.7,-104.1,392.4,-1.2,-81.3,10.5,-94.2,0,3168,0,171,0, 
1.7633,-166.5,-183.3,-529.8,-172.2,-328.8,-279.9,-60.6,404.7,-3556.8,-162.3,-182.1,-166.8,-5010.6,-4623.0,-1179.0,-537.9,-6.6,-6.0,-104.4,390.6,-0.3,-90.3,2.4,-108.0,0,3174,0,172,0, 
1.7667,-170.7,-182.4,-3230.1,-175.8,-368.7,-282.0,-72.9,401.7,-2889.9,-173.4,-191.7,-165.3,-5541.0,-5782.8,-2432.4,-2002.2,-6.6,-6.0,-116.1,383.1,-0.9,-85.2,-6.0,-125.7,0,3180,0,173,0, 
1.7700,-169.8,-185.1,-1780.8,-177.9,-261.6,-283.5,-45.9,399.9,-1852.5,-175.5,-200.7,-160.8,-4689.3,-4719.3,27.3,-1537.2,-7.2,-5.7,-125.4,388.2,0.0,-91.5,0.6,-117.0,0,3186,0,174,0, 
1.7733,-171.9,-195.0,1892.7,-189.9,-187.8,-292.8,-26.7,391.8,-1778.4,-177.6,-210.0,-173.7,-3575.7,-2796.9,2843.4,280.8,-7.2,-5.7,-132.6,375.6,-0.9,-104.4,12.0,-108.9,0,3192,0,175,0, 
1.7767,-171.6,-195.9,2681.7,-182.4,-210.9,-282.6,-24.3,396.3,-2741.7,-173.4,-202.5,-173.1,-3726.3,-2725.2,2087.7,921.0,-6.9,-5.7,-129.0,389.4,-1.2,-94.5,21.9,-103.2,0,3198,0,176,0, 
1.7800,-171.6,-192.6,-442.5,-186.3,-339.3,-286.8,-61.5,395.4,-3408.6,-175.8,-212.1,-179.1,-4995.9,-4562.4,-1122.0,-433.5,-7.5,-5.7,-132.9,373.5,-0.9,-101.4,9.9,-126.3,0,3204,0,177,0, 
1.7833,-172.2,-193.2,-3172.8,-180.3,-358.8,-282.9,-74.1,400.8,-2964.0,-173.4,-201.3,-162.9,-5553.3,-5807.1,-2388.3,-1951.8,-6.9,-6.0,-130.5,384.6,-0.9,-94.2,-1.8,-136.2,0,3210,0,178,0, 
1.7867,-172.2,-198.6,-1693.8,-183.6,-286.5,-292.8,-61.5,394.2,-1778.4,-186.3,-200.4,-174.6,-4659.0,-4684.8,35.1,-1479.3,-6.6,-5.7,-130.2,378.6,-0.9,-98.7,-5.1,-133.5,0,3216,0,179,0, 
1.7900,-171.3,-201.6,1973.7,-190.2,-198.9,-290.4,-36.0,390.0,-1778.4,-177.6,-206.7,-187.2,-3511.5,-2780.4,2855.7,304.2,-6.9,-6.0,-134.4,368.4,-0.6,-99.9,6.6,-124.8,0,3222,0,180,0, 
1.7933,-176.7,-209.7,2757.6,-189.6,-228.0,-297.9,-45.0,386.4,-2741.7,-177.0,-207.6,-187.5,-3741.0,-2736.0,2140.5,950.1,-6.9,-5.7,-135.3,369.3,-0.6,-105.6,11.4,-116.7,0,3228,0,181,0, 
1.7967,-173.7,-200.7,-416.7,-187.5,-340.2,-294.0,-73.8,390.0,-3408.6,-170.4,-192.3,-173.4,-4919.1,-4559.7,-1134.3,-402.3,-6.9,-5.7,-122.4,375.9,-0.9,-92.1,0.9,-130.5,0,3234,0,182,0, 
1.8000,-175.2,-201.9,-3222.9,-190.5,-389.4,-294.9,-85.5,388.5,-2889.9,-175.5,-204.3,-185.1,-5581.5,-5834.7,-2490.9,-1945.5,-6.6,-6.0,-126.0,368.1,-0.9,-93.6,-9.3,-135.0,0,3240,0,183,0, 
1.8033,-178.5,-201.3,-1749.9,-192.3,-294.3,-297.9,-63.6,391.2,-2074.8,-172.2,-210.6,-181.2,-4697.4,-4684.8,4.2,-1425.0,-6.3,-5.7,-131.1,370.2,-0.6,-98.7,-10.8,-132.3,0,3246,0,184,0, 
1.8067,-173.7,-198.0,1979.4,-187.5,-200.7,-292.8,-31.8,390.6,-1556.1,-180.0,-210.0,-166.5,-3517.8,-2746.5,2875.8,370.5,-6.6,-6.0,-134.7,376.8,-0.9,-98.7,4.2,-109.8,0,3252,0,185,0, 
1.8100,-180.0,-205.5,2795.7,-191.1,-234.3,-294.3,-35.4,382.5,-2815.8,-174.3,-207.6,-169.8,-3694.2,-2661.6,2145.3,992.7,-7.2,-6.0,-131.1,379.2,-0.9,-91.8,1.8,-110.1,0,3258,0,186,0, 
1.8133,-175.5,-201.6,-363.0,-190.8,-328.8,-297.3,-70.8,387.6,-3408.6,-172.2,-207.0,-179.4,-4948.8,-4516.2,-1045.2,-400.5,-6.9,-6.0,-131.1,375.0,-0.6,-94.8,-7.5,-122.1,0,3264,0,187,0, 
1.8167,-177.9,-202.8,-3171.9,-193.2,-387.0,-297.9,-92.4,389.1,-2964.0,-174.3,-207.0,-181.2,-5466.9,-5759.7,-2344.2,-1941.0,-6.9,-6.0,-132.6,369.9,-1.2,-96.9,-20.4,-134.7,0,3270,0,188,0, 
1.8200,-172.2,-205.2,-1650.6,-192.3,-287.1,-296.7,-62.4,386.1,-1852.5,-170.4,-207.6,-178.8,-4567.5,-4676.7,54.9,-1502.1,-6.3,-5.7,-128.7,365.7,-0.9,-100.2,-12.3,-135.3,0,3276,0,189,0, 
1.8233,-178.2,-209.4,2003.4,-197.7,-218.1,-302.4,-39.6,381.0,-1778.4,-177.0,-208.8,-184.8,-3429.6,-2760.9,2879.7,348.0,-6.9,-6.0,-132.3,358.8,-0.6,-101.7,-5.4,-129.3,0,3282,0,190,0, 
1.8267,-180.0,-212.1,2823.6,-188.7,-234.3,-302.7,-44.1,384.0,-2741.7,-170.1,-195.6,-174.0,-3644.4,-2724.3,2128.5,950.1,-6.9,-6.0,-119.7,361.8,-0.9,-96.9,-3.9,-119.4,0,3288,0,191,0, 
1.8300,-182.1,-207.9,-397.8,-186.6,-354.3,-305.7,-72.6,385.5,-3482.7,-165.9,-194.4,-163.5,-4844.7,-4555.2,-1120.5,-420.3,-6.9,-5.7,-120.0,370.2,-0.6,-97.2,-19.2,-136.5,0,3294,0,192,0, 
1.8333,-178.5,-204.6,-3111.0,-186.0,-383.4,-294.9,-91.8,389.4,-2889.9,-176.1,-193.8,-166.8,-5418.6,-5792.4,-2402.7,-1934.7,-6.9,-5.7,-118.8,366.3,-0.9,-98.1,-24.9,-152.1,0,3300,0,193,0, 
1.8367,-186.0,-212.4,-1636.2,-192.3,-305.4,-304.8,-77.1,381.9,-1778.4,-186.0,-207.9,-177.3,-4500.9,-4673.1,47.1,-1499.1,-7.2,-6.3,-128.1,365.1,-0.9,-103.8,-24.6,-153.9,0,3306,0,194,0, 
1.8400,-181.2,-207.9,2027.1,-191.1,-197.1,-310.2,-47.7,383.7,-1778.4,-179.7,-198.3,-182.1,-3358.5,-2763.6,2823.9,304.2,-6.6,-6.0,-126.3,366.0,-0.6,-100.5,-11.1,-133.8,0,3312,0,195,0, 
1.8433,-184.5,-213.6,2835.6,-189.3,-232.8,-305.1,-37.5,386.4,-2667.6,-174.6,-202.2,-182.7,-3531.3,-2655.6,2159.1,1023.0,-6.9,-6.0,-124.5,363.9,-0.9,-104.1,-14.7,-130.8,0,3318,0,196,0, 
1.8467,-185.7,-210.3,-365.7,-189.9,-337.8,-305.1,-80.7,391.2,-3482.7,-167.4,-212.7,-183.6,-4847.4,-4540.5,-1106.1,-439.5,-6.6,-6.0,-129.9,363.9,-0.6,-102.9,-22.8,-143.1,0,3324,0,197,0, 
1.8500,-185.1,-210.0,-3091.2,-192.3,-378.3,-307.2,-95.1,388.8,-2889.9,-177.0,-210.0,-182.1,-5362.2,-5759.7,-2344.2,-1901.4,-7.5,-6.0,-131.7,368.1,-0.6,-100.5,-26.1,-148.5,0,3330,0,198,0, 
1.8533,-189.3,-213.9,-1658.7,-193.2,-312.0,-310.2,-70.5,381.3,-1926.6,-177.0,-201.0,-183.6,-4455.0,-4705.2,55.2,-1506.3,-6.9,-6.3,-132.6,364.5,-0.3,-105.0,-25.8,-145.5,0,3336,0,199,0, 
1.8567,-181.5,-211.8,2029.5,-186.3,-209.7,-305.1,-42.3,384.6,-1704.3,-182.4,-199.8,-175.2,-3312.6,-2770.2,2895.0,309.3,-6.9,-5.7,-125.7,369.6,-0.6,-109.2,-9.9,-129.9,0,3342,0,200,0, 
1.8600,-181.5,-215.7,2827.8,-192.6,-237.9,-304.8,-37.5,383.7,-2741.7,-179.7,-210.6,-177.6,-3499.2,-2696.1,2210.1,976.8,-6.9,-6.0,-134.4,363.0,-0.6,-110.1,-6.9,-127.8,0,3348,0,201,0, 
1.8633,-182.7,-216.9,-240.3,-194.1,-352.2,-308.1,-69.9,377.4,-3705.0,-185.4,-210.9,-180.3,-4767.6,-4528.8,-993.6,-343.2,-7.5,-5.7,-134.7,359.4,-0.9,-111.3,-20.1,-143.4,0,3354,0,202,0, 
1.8667,-181.2,-212.1,-3034.8,-194.4,-379.5,-302.7,-76.2,380.4,-3038.1,-182.1,-201.0,-177.6,-5363.4,-5774.4,-2361.0,-1885.2,-6.6,-5.7,-128.7,366.0,-0.9,-108.0,-26.1,-147.6,0,3360,0,203,0, 
1.8700,-179.4,-208.8,-1605.0,-192.9,-285.9,-301.8,-51.9,386.1,-2000.7,-179.4,-201.3,-175.2,-4454.1,-4709.1,129.3,-1527.3,-7.2,-5.7,-124.8,380.4,-0.9,-99.6,-19.5,-138.3,0,3366,0,204,0, 
1.8733,-175.5,-200.7,2049.0,-185.1,-192.9,-291.6,-29.1,393.3,-1704.3,-175.8,-189.0,-164.4,-3333.3,-2805.3,2922.3,307.5,-6.9,-5.7,-117.3,377.4,-0.6,-97.5,-12.6,-123.0,0,3372,0,205,0, 
1.8767,-178.8,-207.9,2862.9,-183.0,-230.1,-300.0,-43.5,394.8,-2815.8,-179.7,-185.4,-160.5,-3499.2,-2694.9,2229.0,1000.5,-7.2,-5.4,-117.3,381.0,-0.9,-103.5,-12.3,-117.9,0,3378,0,206,0, 
1.8800,-174.9,-198.6,-288.3,-175.2,-342.9,-292.5,-59.7,399.9,-3556.8,-177.9,-194.7,-163.5,-4756.5,-4545.0,-1041.9,-387.6,-6.9,-5.7,-117.3,382.2,-0.9,-90.3,-18.3,-132.0,0,3384,0,207,0, 
1.8833,-180.9,-198.3,-3005.4,-177.0,-387.3,-291.3,-77.4,396.6,-2964.0,-172.5,-198.9,-177.6,-5338.8,-5760.3,-2301.9,-1880.7,-7.2,-6.3,-120.0,379.8,-0.6,-91.2,-18.6,-140.4,0,3390,0,208,0, 
1.8867,-174.3,-194.1,-1633.5,-175.8,-294.6,-290.4,-50.7,394.2,-1852.5,-177.6,-192.3,-171.3,-4437.9,-4742.4,50.7,-1507.5,-6.9,-6.3,-123.0,384.3,-0.9,-92.7,-14.4,-130.8,0,3396,0,209,0, 
1.8900,-176.1,-192.6,2087.7,-175.8,-195.3,-286.8,-21.9,389.1,-1778.4,-173.7,-188.7,-166.2,-3369.6,-2797.5,2841.3,270.0,-6.9,-6.0,-115.8,384.6,-0.6,-96.9,-3.9,-112.8,0,3402,0,210,0, 
1.8933,-172.8,-196.2,2923.2,-172.8,-231.3,-284.4,-27.9,395.1,-2889.9,-165.3,-185.7,-152.4,-3542.4,-2692.5,2191.8,937.5,-6.9,-6.3,-111.3,396.6,-0.9,-84.6,7.2,-103.2,0,3408,0,211,0, 
1.8967,-170.7,-189.3,-224.7,-171.0,-332.4,-283.8,-60.3,399.0,-3408.6,-156.6,-180.6,-149.4,-4804.2,-4577.4,-1009.8,-435.3,-6.9,-6.0,-106.2,388.2,-1.2,-86.7,-2.4,-121.8,0,3414,0,212,0, 
1.9000,-177.6,-199.2,-3024.6,-181.5,-389.4,-293.7,-80.7,393.3,-2815.8,-168.0,-189.9,-157.2,-5355.9,-5849.1,-2344.5,-1964.4,-6.6,-5.7,-114.9,385.2,-0.3,-87.0,-13.2,-129.9,0,3420,0,213,0, 
1.9033,-181.5,-197.4,-1650.0,-182.4,-294.6,-291.6,-51.3,396.0,-1926.6,-166.5,-184.5,-159.3,-4537.2,-4799.7,5.1,-1562.4,-7.2,-6.0,-114.0,383.4,-0.9,-90.9,-10.8,-125.1,0,3426,0,214,0, 
1.9067,-180.6,-200.1,2058.6,-183.9,-211.8,-297.9,-35.1,388.8,-1704.3,-165.6,-180.3,-156.0,-3326.7,-2825.7,2813.4,303.6,-6.6,-6.0,-108.6,388.2,-0.6,-85.5,3.0,-106.5,0,3432,0,215,0, 
1.9100,-177.6,-199.5,2891.4,-182.4,-234.0,-293.4,-34.5,387.6,-2815.8,-166.5,-187.5,-162.6,-3537.0,-2800.8,2184.0,945.0,-6.6,-5.7,-116.4,381.3,-0.9,-91.2,0.9,-107.4,0,3438,0,216,0, 
1.9133,-185.1,-207.6,-258.0,-187.5,-346.5,-297.6,-66.3,389.4,-3482.7,-165.0,-197.1,-167.7,-4775.7,-4629.0,-1068.9,-437.4,-6.9,-6.0,-123.9,377.7,-0.9,-90.6,-7.2,-124.2,0,3444,0,217,0, 
1.9167,-183.3,-200.1,-3059.4,-183.3,-367.5,-293.7,-85.2,389.1,-2889.9,-172.8,-188.7,-166.2,-5358.0,-5881.8,-2327.7,-2022.3,-6.6,-5.7,-119.4,378.9,-1.2,-97.5,-9.6,-134.7,0,3450,0,218,0, 
1.9200,-186.0,-202.8,-1678.5,-185.1,-287.7,-290.7,-62.7,387.0,-1926.6,-171.3,-183.6,-163.8,-4536.6,-4765.8,-27.0,-1596.9,-6.9,-5.7,-114.6,380.1,-0.9,-95.1,1.2,-132.6,0,3456,0,219,0, 
1.9233,-183.6,-204.0,2085.0,-185.7,-182.7,-284.4,-24.3,393.0,-1556.1,-170.1,-187.5,-157.2,-3358.5,-2860.5,2818.2,245.1,-7.2,-6.3,-114.9,377.4,-1.2,-93.3,8.1,-107.4,0,3462,0,220,0, 
1.9267,-187.2,-199.8,2926.8,-184.2,-219.6,-295.2,-30.9,390.3,-2815.8,-170.1,-196.8,-163.2,-3513.6,-2782.8,2136.3,900.0,-7.2,-5.7,-114.0,381.3,-0.6,-91.8,8.4,-105.3,0,3468,0,221,0, 
1.9300,-185.7,-205.5,-228.3,-183.0,-330.3,-291.3,-67.5,393.6,-3408.6,-169.5,-189.9,-163.5,-4762.5,-4617.9,-1103.7,-530.1,-6.9,-6.0,-115.8,372.6,-0.6,-93.0,-3.6,-120.0,0,3474,0,222,0, 
1.9333,-184.5,-207.0,-3023.7,-181.2,-376.2,-292.5,-71.7,397.5,-2964.0,-168.0,-189.9,-164.7,-5329.8,-5895.3,-2512.5,-2082.6,-7.2,-6.0,-120.6,375.9,-0.9,-86.7,-9.3,-124.2,0,3480,0,223,0, 
1.9367,-180.9,-202.2,-1600.8,-183.6,-290.4,-295.2,-47.1,395.4,-1778.4,-167.7,-196.2,-174.6,-4416.3,-4772.7,-111.3,-1677.0,-6.9,-6.0,-124.2,368.7,-0.9,-97.5,-7.5,-123.3,0,3486,0,224,0, 
1.9400,-182.4,-197.7,2043.0,-181.8,-221.1,-297.3,-31.5,396.3,-1778.4,-166.5,-198.0,-165.6,-3308.7,-2851.8,2763.9,104.4,-6.9,-5.7,-123.9,380.7,-0.9,-94.5,-6.0,-109.8,0,3492,0,225,0, 
1.9433,-177.9,-194.1,2925.9,-182.7,-232.2,-296.1,-41.7,393.0,-2741.7,-163.8,-189.0,-162.3,-3480.0,-2775.6,2076.3,823.8,-7.2,-5.4,-114.6,373.2,-1.2,-93.0,-6.3,-107.1,0,3498,0,226,0, 
1.9467,-175.5,-189.9,-138.3,-168.9,-319.8,-290.7,-71.1,398.7,-3482.7,-164.7,-185.7,-161.1,-4761.3,-4599.9,-1187.7,-541.5,-6.9,-6.0,-109.2,381.3,-0.6,-89.7,-10.2,-117.3,0,3504,0,227,0, 
1.9500,-174.9,-196.8,-2988.3,-174.3,-387.9,-294.0,-86.4,400.2,-2964.0,-168.6,-193.5,-171.0,-5355.3,-5870.4,-2553.6,-2143.5,-6.9,-6.0,-122.7,370.8,-0.3,-96.6,-19.5,-134.7,0,3510,0,228,0, 
1.9533,-173.7,-194.1,-1686.3,-172.2,-289.2,-290.7,-60.3,401.1,-1778.4,-176.4,-192.6,-171.6,-4474.8,-4818.0,-197.1,-1741.2,-6.9,-6.0,-124.5,372.6,-0.6,-106.5,-15.6,-132.3,0,3516,0,229,0, 
1.9567,-176.1,-196.2,1987.5,-177.3,-190.5,-290.4,-29.4,400.2,-1630.2,-174.6,-192.0,-172.5,-3278.1,-2877.9,2645.4,98.7,-6.6,-5.7,-123.9,367.8,-0.9,-102.9,0.9,-111.6,0,3522,0,230,0, 
1.9600,-173.4,-200.4,2862.9,-172.5,-221.1,-291.0,-30.3,404.4,-2741.7,-170.1,-196.5,-167.4,-3500.4,-2793.6,1985.7,787.2,-7.5,-5.7,-116.7,380.7,-0.6,-97.5,-3.0,-105.3,0,3528,0,231,0, 
1.9633,-174.9,-191.7,-241.5,-168.0,-335.4,-284.4,-55.5,406.5,-3482.7,-167.4,-194.1,-160.5,-4721.4,-4649.1,-1147.2,-598.2,-6.9,-6.0,-121.2,375.3,-0.6,-98.7,-11.1,-117.6,0,3534,0,232,0, 
1.9667,-179.4,-197.4,-3095.4,-172.5,-381.0,-289.2,-69.0,406.5,-3038.1,-168.6,-191.7,-158.1,-5343.0,-5913.9,-2567.4,-2123.4,-6.9,-5.7,-118.8,377.7,-0.6,-92.1,-20.1,-129.6,0,3540,0,233,0, 
1.9700,-179.4,-200.7,-1710.6,-177.9,-279.3,-291.9,-57.9,398.4,-1852.5,-172.2,-196.5,-164.7,-4454.7,-4838.4,-261.6,-1796.1,-6.9,-5.7,-123.0,372.0,-0.9,-96.3,-14.1,-131.1,0,3546,0,234,0, 
1.9733,-178.5,-195.3,2020.5,-179.1,-195.3,-283.5,-32.4,402.6,-1704.3,-178.2,-196.5,-179.7,-3282.0,-2881.8,2593.8,68.1,-6.9,-6.0,-121.5,368.7,-0.6,-103.5,-3.3,-108.9,0,3552,0,235,0, 
1.9767,-177.6,-194.4,2896.8,-175.5,-236.1,-292.5,-45.9,396.3,-2741.7,-174.0,-202.5,-173.1,-3517.8,-2813.7,1968.3,776.1,-6.9,-5.4,-128.1,375.9,-0.6,-98.4,-0.9,-98.7,0,3558,0,236,0, 
1.9800,-173.7,-195.0,-279.9,-169.8,-347.1,-285.9,-74.4,406.8,-3482.7,-169.2,-190.2,-156.9,-4749.6,-4628.7,-1297.8,-549.3,-6.9,-6.0,-117.0,377.7,-0.9,-92.7,-8.1,-104.1,0,3564,0,237,0, 
1.9833,-176.4,-196.5,-3033.9,-171.0,-377.1,-288.0,-83.1,407.1,-2964.0,-179.1,-186.9,-161.1,-5331.0,-5922.9,-2694.3,-2187.6,-6.9,-5.7,-118.8,378.9,-0.9,-93.9,-14.4,-120.9,0,3570,0,238,0, 
1.9867,-173.1,-194.1,-1620.9,-163.8,-285.0,-284.1,-57.9,410.4,-1926.6,-169.5,-184.5,-156.0,-4462.2,-4890.6,-275.4,-1701.9,-6.9,-6.0,-110.4,384.3,-0.6,-96.9,-8.1,-112.5,0,3576,0,239,0, 
1.9900,-173.7,-195.3,2031.3,-165.3,-188.1,-284.7,-36.3,408.0,-1778.4,-171.3,-192.0,-173.1,-3333.9,-2961.3,2502.3,62.7,-6.9,-6.0,-116.4,373.5,-1.5,-107.7,4.2,-96.6,0,3582,0,240,0, 
1.9933,-180.3,-201.6,2851.8,-170.4,-212.4,-288.3,-54.6,402.9,-2815.8,-180.0,-195.3,-170.4,-3510.3,-2790.9,1926.0,788.7,-6.6,-6.0,-120.6,367.2,-0.9,-102.3,1.5,-96.6,0,3588,0,241,0, 
1.9967,-183.3,-203.7,-233.7,-175.8,-331.8,-288.6,-78.3,403.2,-3482.7,-186.0,-198.0,-171.3,-4749.9,-4622.1,-1335.9,-558.6,-6.6,-6.0,-126.6,364.8,-1.2,-111.9,-6.9,-116.4,0,3594,0,242,0, 
2.0000,-183.9,-204.3,-3014.7,-174.9,-381.6,-288.6,-94.2,399.0,-2964.0,-185.1,-195.6,-175.8,-5377.2,-5905.2,-2745.3,-2092.2,-6.9,-5.7,-123.6,358.5,-0.6,-104.7,-16.8,-122.1,0,3600,0,243,0, 
2.0033,-177.6,-195.6,-1660.2,-171.6,-295.5,-288.9,-69.6,401.7,-1852.5,-183.9,-198.9,-185.7,-4513.2,-4865.4,-355.5,-1710.6,-6.9,-6.0,-123.9,360.0,-0.9,-111.9,-19.5,-125.7,0,3606,0,244,0, 
2.0067,-180.6,-203.4,2000.7,-173.7,-202.2,-291.3,-38.7,399.3,-1704.3,-188.4,-202.8,-189.9,-3387.3,-2978.7,2415.0,67.8,-6.6,-5.7,-132.6,350.7,-1.2,-110.1,-3.9,-108.9,0,3612,0,245,0, 
2.0100,-174.3,-200.1,2928.3,-176.7,-253.2,-294.9,-54.6,396.9,-2667.6,-185.1,-211.5,-189.3,-3496.2,-2809.8,1888.2,793.5,-6.9,-5.7,-134.1,355.2,-0.9,-104.1,-2.1,-108.6,0,3618,0,246,0, 
2.0133,-173.1,-193.8,-239.7,-168.6,-349.5,-284.1,-80.7,397.8,-3408.6,-174.6,-200.4,-164.1,-4753.5,-4669.8,-1387.8,-610.5,-6.6,-5.7,-122.1,366.0,-0.9,-106.2,-12.0,-123.0,0,3624,0,247,0, 
2.0167,-174.6,-186.9,-3042.6,-167.7,-390.0,-287.4,-97.5,398.4,-2964.0,-174.6,-177.6,-146.4,-5400.0,-5949.0,-2828.7,-2173.5,-6.6,-6.3,-107.7,367.2,-0.9,-102.9,-15.3,-132.3,0,3630,0,248,0, 
2.0200,-174.6,-185.4,-1614.3,-166.2,-294.6,-290.4,-78.9,399.0,-1778.4,-168.3,-169.2,-144.9,-4544.1,-4886.1,-449.7,-1736.4,-6.9,-5.7,-97.8,370.5,-0.9,-100.5,-10.2,-129.6,0,3636,0,249,0, 
2.0233,-177.6,-189.6,2041.5,-170.1,-198.6,-288.9,-48.0,395.4,-1778.4,-177.3,-176.4,-163.8,-3378.3,-2947.8,2419.5,20.4,-6.6,-5.7,-102.9,366.9,-0.9,-101.1,-2.7,-116.1,0,3642,0,250,0, 
2.0267,-174.9,-184.5,3395.7,-170.7,-197.4,-289.8,-32.1,394.2,-2815.8,-174.9,-182.1,-160.8,-3230.4,-2565.9,2391.0,1101.3,-7.2,-6.3,-111.6,361.2,-0.9,-96.3,3.3,-106.8,0,3648,0,251,0, 
2.0300,-176.7,-190.2,171.6,-168.0,-314.4,-292.8,-67.5,397.8,-3482.7,-174.3,-171.9,-148.5,-4590.9,-4576.8,-1046.4,-458.4,-6.6,-6.0,-103.5,366.9,-0.9,-100.5,-8.7,-121.8,0,3654,0,252,0, 
2.0333,-181.2,-189.9,-2746.2,-174.3,-373.5,-296.7,-79.2,396.0,-2964.0,-180.0,-179.7,-155.1,-5256.6,-5866.5,-2595.9,-2075.7,-7.2,-5.7,-114.3,360.0,-0.9,-108.0,-17.7,-143.4,0,3660,0,253,0, 
2.0367,-180.6,-190.2,-1575.3,-180.3,-301.8,-305.1,-72.0,390.3,-1926.6,-185.1,-191.1,-167.1,-4464.6,-4898.4,-418.8,-1808.1,-7.2,-6.0,-117.9,355.5,-0.6,-114.9,-17.7,-142.5,0,3666,0,254,0, 
2.0400,-179.4,-193.5,2100.3,-179.4,-195.6,-306.3,-46.8,389.4,-1704.3,-187.5,-193.5,-172.8,-3387.6,-2960.7,2441.7,-10.8,-7.2,-6.0,-126.3,353.7,-0.3,-111.3,-6.9,-126.9,0,3672,0,255,0, 
2.0433,-177.6,-196.2,3063.6,-180.6,-223.8,-307.2,-43.5,388.5,-2815.8,-190.2,-190.5,-171.9,-3529.5,-2805.9,1874.4,714.0,-7.2,-5.7,-117.9,348.3,-0.6,-116.4,-10.8,-121.8,0,3678,0,0,0, 
2.0467,-181.5,-206.7,-60.6,-183.9,-368.1,-308.7,-84.9,378.0,-3482.7,-195.9,-193.2,-171.6,-4799.4,-4678.5,-1373.7,-672.9,-7.2,-5.7,-127.5,343.5,-0.9,-117.9,-20.4,-139.5,0,3684,0,1,0, 
2.0500,-186.6,-211.2,-2957.4,-190.8,-405.0,-313.2,-104.1,377.7,-2964.0,-198.9,-200.7,-169.8,-5420.1,-5985.9,-2927.7,-2271.6,-6.6,-5.7,-130.2,343.2,-0.9,-120.3,-30.0,-155.7,0,3690,0,2,0, 
2.0533,-180.9,-204.6,-1646.1,-188.4,-316.8,-309.3,-78.0,381.0,-1926.6,-194.4,-207.6,-174.0,-4515.0,-4942.2,-598.8,-1827.9,-6.9,-6.0,-134.7,342.0,-0.6,-121.8,-24.3,-139.5,0,3696,0,3,0, 
2.0567,-179.7,-201.0,2053.2,-186.3,-213.3,-308.1,-39.3,384.3,-1778.4,-191.7,-203.1,-180.0,-3399.6,-2983.8,2274.0,-39.0,-7.2,-6.0,-128.1,353.1,-0.9,-111.9,-10.5,-120.3,0,3702,0,4,0, 
2.0600,-175.5,-201.0,2969.4,-186.0,-262.2,-307.8,-57.9,382.8,-2741.7,-179.4,-193.2,-175.5,-3579.9,-2861.1,1733.7,696.3,-7.2,-6.0,-119.7,348.9,-0.9,-103.5,-0.9,-106.8,0,3708,0,5,0, 
2.0633,-177.0,-196.2,-150.0,-183.0,-346.2,-297.6,-81.0,384.9,-3482.7,-174.3,-189.9,-161.7,-4806.9,-4660.2,-1478.4,-664.2,-7.2,-6.3,-117.0,355.5,-0.6,-102.6,-7.5,-114.9,0,3714,0,6,0, 
2.0667,-178.5,-196.8,-3010.8,-178.5,-362.7,-299.4,-101.7,383.7,-2964.0,-172.5,-185.4,-159.9,-5415.9,-5964.6,-2954.7,-2230.8,-6.9,-5.7,-111.6,360.6,-0.9,-101.4,-10.2,-118.5,0,3720,0,7,0, 
2.0700,-173.1,-191.7,-1680.3,-175.8,-279.3,-295.5,-63.9,391.8,-1852.5,-169.2,-187.5,-159.9,-4569.0,-4961.1,-696.6,-1896.0,-6.9,-6.0,-110.4,370.2,-0.6,-95.7,0.9,-109.8,0,3726,0,8,0, 
2.0733,-174.9,-190.8,1957.8,-177.3,-194.4,-291.9,-26.7,392.4,-1630.2,-172.5,-193.2,-162.9,-3421.5,-3039.9,2162.4,-46.5,-6.6,-5.7,-116.1,362.4,-0.9,-99.9,9.9,-102.0,0,3732,0,9,0, 
2.0767,-171.9,-188.1,2916.9,-171.6,-211.8,-286.2,-39.6,398.1,-2741.7,-170.7,-187.5,-154.5,-3553.8,-2869.8,1659.0,625.5,-6.9,-6.3,-116.4,367.2,-0.6,-99.3,7.5,-97.2,0,3738,0,10,0, 
2.0800,-172.5,-185.4,-151.2,-169.2,-332.4,-286.8,-78.9,399.6,-3482.7,-165.9,-178.8,-157.2,-4823.1,-4721.1,-1613.7,-635.4,-6.6,-5.7,-109.5,364.8,-0.9,-92.7,-1.8,-111.0,0,3744,0,11,0, 
2.0833,-169.5,-188.4,-3018.0,-172.5,-364.2,-289.2,-92.1,395.7,-2964.0,-175.2,-177.0,-156.9,-5503.8,-5973.3,-3063.3,-2273.7,-7.2,-6.3,-106.8,361.5,-0.9,-91.5,-9.0,-125.4,0,3750,0,12,0, 
2.0867,-172.8,-189.9,-1673.1,-170.7,-265.2,-287.1,-69.9,396.9,-1926.6,-172.8,-170.4,-157.8,-4570.8,-4998.6,-644.7,-1908.3,-6.9,-6.0,-107.1,360.3,-1.2,-90.3,-3.0,-120.6,0,3756,0,13,0, 
2.0900,-169.2,-185.1,1953.0,-176.1,-173.1,-294.6,-41.1,394.5,-1778.4,-175.2,-179.7,-163.2,-3468.9,-3036.0,2154.0,-102.0,-7.2,-6.0,-112.8,353.4,-0.3,-99.9,9.3,-106.8,0,3762,0,14,0, 
2.0933,-167.1,-194.1,2922.0,-178.2,-225.0,-296.7,-45.3,393.9,-2815.8,-183.3,-198.6,-160.2,-3643.5,-2903.4,1572.3,633.0,-6.9,-6.0,-121.5,360.6,-0.6,-102.6,14.4,-106.8,0,3768,0,15,0, 
2.0967,-168.6,-188.7,-189.6,-177.6,-332.4,-298.5,-70.5,395.4,-3556.8,-178.5,-194.1,-161.7,-4935.0,-4696.2,-1670.7,-750.0,-6.9,-5.7,-120.9,350.4,-0.9,-102.3,-0.6,-123.0,0,3774,0,16,0, 
2.1000,-177.9,-192.3,-3075.9,-182.7,-384.0,-305.1,-93.3,389.7,-2889.9,-179.4,-206.7,-173.7,-5534.4,-6045.9,-3056.4,-2333.4,-6.9,-5.7,-127.2,351.3,-0.9,-114.0,-11.7,-137.4,0,3780,0,17,0, 
2.1033,-176.4,-191.4,-1784.7,-183.9,-295.8,-306.9,-60.3,382.5,-2000.7,-183.6,-207.3,-177.6,-4699.2,-5030.4,-826.5,-1933.8,-6.9,-5.7,-127.5,352.8,-0.6,-110.1,-5.1,-135.3,0,3786,0,18,0, 
2.1067,-176.1,-191.1,1926.9,-187.5,-210.3,-299.7,-23.4,381.6,-1704.3,-195.6,-209.4,-180.0,-3492.6,-3086.1,2128.8,-123.3,-6.6,-6.0,-131.7,346.5,-1.2,-115.2,8.4,-122.4,0,3792,0,19,0, 
2.1100,-175.2,-189.0,2849.1,-180.0,-231.3,-298.5,-35.7,390.6,-2741.7,-186.3,-194.7,-168.9,-3652.8,-2933.1,1551.3,657.9,-6.9,-5.7,-120.3,354.3,-0.6,-109.8,9.6,-117.3,0,3798,0,20,0, 
2.1133,-172.2,-186.6,-174.3,-175.5,-340.8,-299.7,-68.7,399.6,-3408.6,-182.7,-191.7,-163.8,-4884.0,-4749.6,-1706.1,-722.7,-7.2,-6.0,-117.9,363.0,-0.9,-103.8,-0.3,-124.8,0,3804,0,21,0, 
2.1167,-171.0,-179.7,-3011.7,-176.7,-364.5,-295.8,-81.9,401.1,-2815.8,-180.6,-186.6,-169.5,-5514.3,-6031.8,-3201.3,-2313.6,-7.2,-6.0,-114.6,359.7,-0.6,-105.3,-12.9,-140.1,0,3810,0,22,0, 
2.1200,-170.4,-182.7,-1705.2,-174.9,-277.5,-296.7,-60.6,405.6,-1926.6,-175.5,-179.1,-163.8,-4647.6,-5016.6,-840.9,-1937.7,-6.6,-6.0,-108.3,363.6,-1.2,-106.5,-2.7,-128.4,0,3816,0,23,0, 
2.1233,-172.8,-184.5,1926.0,-178.2,-190.5,-301.5,-24.0,398.4,-1556.1,-179.7,-182.7,-162.9,-3528.6,-3135.6,2016.9,-200.1,-7.2,-6.0,-108.6,364.2,-0.9,-103.8,9.9,-114.6,0,3822,0,24,0, 
2.1267,-174.9,-188.1,2872.5,-173.4,-213.3,-299.1,-45.3,403.5,-2667.6,-164.7,-180.9,-150.3,-3647.1,-2927.1,1458.9,587.1,-6.6,-6.3,-106.5,371.4,-0.6,-96.6,6.0,-104.7,0,3828,0,25,0, 
2.1300,-173.1,-185.1,-121.2,-168.0,-331.2,-294.0,-75.9,404.7,-3482.7,-165.6,-178.2,-154.8,-4900.8,-4720.2,-1747.2,-740.7,-6.6,-5.7,-103.8,368.4,-0.9,-96.9,-0.9,-111.6,0,3834,0,26,0, 
2.1333,-176.1,-193.2,-3051.3,-178.8,-369.9,-303.0,-99.3,393.3,-3038.1,-175.8,-189.0,-158.4,-5540.4,-6047.4,-3181.2,-2319.9,-6.9,-6.0,-114.9,356.1,-0.9,-108.3,-7.8,-131.4,0,3840,0,27,0, 
2.1367,-178.5,-194.1,-1725.3,-182.4,-291.3,-304.8,-74.4,388.2,-1926.6,-178.2,-189.9,-159.9,-4653.6,-5029.8,-917.4,-2028.6,-6.9,-6.0,-113.4,361.5,-0.6,-109.2,-10.2,-132.3,0,3846,0,28,0, 
2.1400,-174.3,-197.7,1875.6,-188.1,-185.4,-306.9,-47.4,388.5,-1778.4,-182.1,-198.3,-166.8,-3484.8,-3098.7,1924.8,-208.8,-6.9,-6.0,-120.6,360.3,-1.2,-113.7,0.0,-120.9,0,3852,0,29,0, 
2.1433,-174.6,-193.2,2893.8,-188.1,-218.7,-303.6,-43.5,392.1,-2593.5,-174.9,-195.0,-174.9,-3634.5,-2953.8,1451.7,593.4,-6.6,-6.0,-114.9,356.1,-0.6,-103.2,7.8,-110.1,0,3858,0,30,0, 
2.1467,-171.0,-189.9,-198.9,-184.5,-329.4,-301.2,-76.5,394.5,-3482.7,-175.8,-193.8,-173.1,-4873.5,-4732.2,-1786.2,-750.0,-7.2,-6.0,-115.2,357.3,-0.9,-103.5,2.4,-118.2,0,3864,0,31,0, 
2.1500,-170.1,-186.3,-3069.9,-183.6,-365.4,-293.7,-97.2,397.8,-3038.1,-174.0,-184.2,-161.7,-5541.0,-6045.9,-3228.9,-2325.0,-6.9,-5.4,-112.5,362.7,-0.9,-97.5,-11.7,-131.1,0,3870,0,32,0, 
2.1533,-178.8,-191.1,-1806.0,-188.7,-293.1,-299.4,-69.3,387.6,-2074.8,-182.1,-182.7,-162.9,-4719.9,-5095.2,-894.6,-2035.2,-6.9,-6.0,-117.3,362.7,-0.9,-105.6,-8.1,-124.8,0,3876,0,33,0, 
2.1567,-177.9,-186.3,1879.8,-189.6,-208.5,-299.4,-45.3,384.0,-1704.3,-180.3,-196.2,-170.7,-3566.4,-3149.1,1946.7,-213.6,-6.9,-6.0,-116.1,360.3,-0.9,-106.8,3.6,-114.0,0,3882,0,34,0, 
2.1600,-179.7,-192.6,2911.2,-190.5,-228.0,-304.8,-42.6,385.2,-2741.7,-186.6,-202.2,-171.0,-3670.5,-2938.2,1437.9,571.8,-7.2,-6.3,-120.6,351.3,-1.2,-110.7,0.0,-109.5,0,3888,0,35,0, 
2.1633,-174.0,-187.5,-129.3,-183.0,-337.5,-295.8,-70.8,389.7,-3408.6,-186.3,-194.1,-165.6,-4855.2,-4722.0,-1825.5,-758.1,-6.9,-6.0,-123.0,354.0,-0.6,-114.0,-5.4,-122.4,0,3894,0,36,0, 
2.1667,-176.1,-188.7,-3124.8,-183.0,-384.3,-300.6,-84.6,387.6,-2889.9,-180.9,-199.2,-171.9,-5596.5,-6085.2,-3373.5,-2402.1,-6.3,-6.3,-119.7,354.6,-0.9,-108.0,-15.9,-127.2,0,3900,0,37,0, 
2.1700,-176.4,-189.6,-1839.6,-185.4,-297.9,-308.1,-70.5,381.6,-1852.5,-190.5,-200.4,-173.7,-4704.6,-5054.1,-1064.1,-2015.4,-6.9,-5.7,-124.5,343.8,-0.6,-116.1,-13.5,-130.5,0,3906,0,38,0, 
2.1733,-177.9,-192.0,1895.1,-192.3,-208.8,-315.3,-45.6,374.1,-1852.5,-189.9,-208.8,-171.0,-3568.5,-3159.9,1845.6,-173.1,-6.6,-5.7,-130.2,347.7,-0.9,-126.3,-10.2,-117.0,0,3912,0,39,0, 
2.1767,-177.9,-187.5,2891.1,-184.2,-230.1,-306.6,-48.9,380.4,-2815.8,-184.2,-202.2,-167.4,-3725.1,-2887.5,1391.4,627.0,-7.5,-6.0,-121.8,354.0,-0.6,-117.0,-5.7,-111.9,0,3918,0,40,0, 
2.1800,-175.2,-183.3,-158.4,-182.7,-343.2,-303.3,-78.0,381.6,-3482.7,-182.1,-192.9,-168.3,-4958.4,-4765.8,-1853.1,-705.0,-6.9,-6.0,-114.9,356.1,-0.6,-117.0,-10.8,-125.7,0,3924,0,41,0, 
2.1833,-173.4,-182.7,-3027.0,-175.5,-387.0,-303.6,-91.5,386.1,-3038.1,-185.1,-186.0,-163.8,-5594.1,-6109.8,-3312.0,-2301.9,-6.6,-6.0,-106.5,360.9,-0.3,-108.0,-21.0,-137.4,0,3930,0,42,0, 
2.1867,-174.3,-185.1,-1773.3,-178.2,-298.2,-303.0,-78.6,384.3,-2000.7,-186.3,-183.9,-170.1,-4765.2,-5130.9,-1059.6,-1965.9,-6.9,-5.7,-110.4,357.0,-0.9,-111.3,-20.7,-134.4,0,3936,0,43,0, 
