Time,P3,C3,F3,Fz,F4,C4,P4,Cz,CM,A1,Fp1,Fp2,T3,T5,O1,O2,X3,X2,F7,F8,X1,A2,T6,T4,Trigger,Time_Offset,ADC_Status,ADC_Sequence,Event,Comments
0.0033,-317.7,-280.8,648.9,219.6,-263.7,417.6,219.6,-573.6,-2741.7,914.7,-588.3,264.0,-1218.6,300.9,-730.2,169.2,-7.2,-6.0,-1111.5,-1734.6,-0.3,4.5,1032.6,-827.7,0,6,0,40,0, 
0.0067,-310.8,-260.7,660.9,230.1,-251.7,416.1,219.6,-557.1,1111.5,930.0,1960.8,2730.6,-1158.9,646.5,3346.5,173.1,-6.3,-5.7,-1084.8,-1723.8,-0.6,15.3,1020.9,-826.2,0,12,0,41,0, 
0.0100,-302.1,-249.3,659.1,233.7,-258.3,415.2,223.5,-561.3,-3482.7,937.8,1131.6,2125.2,-1351.8,587.4,-921.3,156.6,-6.9,-5.7,-1093.5,-1717.2,-0.6,6.0,1014.3,-839.4,0,18,0,42,0, 
0.0133,-305.4,-246.9,652.8,228.6,-262.5,402.0,214.5,-582.6,-9929.4,935.1,-1932.3,-788.4,-1551.6,197.1,-7604.7,168.9,-6.9,-5.7,-1115.4,-1725.0,-0.9,-6.9,1014.3,-874.8,0,24,0,43,0, 
0.0167,-309.9,-253.8,647.7,230.4,-262.5,402.0,221.7,-585.0,-9410.7,929.7,-3037.8,-2101.2,-1450.5,12.3,-7481.7,153.9,-6.9,-6.0,-1120.8,-1727.7,-0.6,-20.7,1054.2,-863.7,0,30,0,44,0, 
0.0200,-297.0,-246.9,655.5,231.3,-261.0,387.0,201.9,-570.3,-2741.7,927.6,-640.2,23.7,-1174.8,301.5,-680.7,154.8,-6.9,-6.0,-1091.7,-1724.4,-0.6,-12.0,999.9,-903.3,0,36,0,45,0, 
0.0233,-297.9,-240.9,664.2,240.3,-255.0,391.5,208.2,-558.0,963.3,932.4,1882.5,2673.6,-1140.3,657.6,3396.6,154.5,-7.2,-5.7,-1071.0,-1707.6,-0.6,9.6,1005.3,-884.1,0,42,0,46,0, 
0.0267,-299.7,-226.8,663.0,240.3,-252.6,398.7,214.5,-563.7,-3482.7,938.7,1034.1,2211.6,-1377.3,575.7,-882.9,157.8,-7.2,-5.7,-1090.8,-1706.1,-0.9,18.0,1025.7,-870.0,0,48,0,47,0, 
0.0300,-302.1,-230.7,654.3,231.9,-260.4,400.5,215.7,-576.0,-9929.4,930.6,-2017.5,-716.7,-1580.4,211.5,-7579.2,153.9,-6.9,-5.4,-1117.8,-1711.2,-0.6,14.1,1032.3,-858.0,0,54,0,48,0, 
0.0333,-298.8,-243.9,653.4,229.8,-264.6,389.1,204.0,-578.1,-9336.6,934.2,-3066.6,-1862.1,-1441.5,35.1,-7441.2,143.1,-6.9,-6.0,-1116.3,-1720.2,-0.9,-6.3,1002.6,-864.6,0,60,0,49,0, 
0.0367,-291.9,-253.5,648.6,218.7,-271.2,378.6,198.6,-571.8,-2741.7,904.8,-699.3,280.2,-1195.5,307.2,-676.5,143.7,-6.9,-5.7,-1098.9,-1729.8,-0.6,-6.9,982.8,-879.3,0,66,0,50,0, 
0.0400,-299.7,-254.1,646.8,215.4,-275.7,383.7,194.4,-566.4,963.3,909.3,1799.7,2820.3,-1161.9,644.1,3404.4,138.3,-6.6,-5.4,-1087.2,-1736.7,-1.2,-13.8,983.4,-883.8,0,72,0,51,0, 
0.0433,-309.6,-256.8,641.4,213.6,-282.3,388.5,205.2,-574.5,-3556.8,912.0,1008.9,2196.9,-1378.5,588.3,-875.1,153.9,-7.2,-5.7,-1109.7,-1741.8,-0.9,-27.3,1020.3,-866.1,0,78,0,52,0, 
0.0467,-307.2,-253.8,642.0,217.8,-278.7,388.2,210.0,-588.3,-9781.2,912.6,-1945.8,-641.1,-1577.7,203.1,-7567.5,159.0,-6.9,-5.7,-1131.3,-1736.7,-1.2,-14.7,1014.0,-876.0,0,84,0,53,0, 
0.0500,-302.1,-251.1,647.4,220.8,-270.3,386.1,210.3,-587.4,-9484.8,917.7,-3016.8,-1913.1,-1489.2,27.9,-7435.2,165.3,-6.9,-5.7,-1129.2,-1734.3,-0.9,-16.2,1014.6,-891.0,0,90,0,54,0, 
0.0533,-307.5,-262.8,646.5,217.8,-261.3,389.7,210.9,-582.3,-2593.5,917.1,-510.9,267.9,-1238.7,285.6,-652.8,161.1,-7.2,-5.7,-1113.3,-1733.1,-0.9,-2.1,1004.4,-862.8,0,96,0,55,0, 
0.0567,-306.9,-259.2,654.9,220.2,-254.7,397.8,212.7,-572.4,1111.5,920.4,2039.4,2673.9,-1144.8,650.7,3435.9,156.9,-6.9,-5.7,-1095.0,-1734.3,-0.6,-11.4,1006.2,-826.8,0,102,0,56,0, 
0.0600,-313.5,-267.9,649.8,217.5,-259.8,390.9,210.6,-578.1,-3482.7,919.5,1220.7,2133.9,-1389.9,609.3,-843.6,155.1,-7.2,-5.4,-1106.1,-1734.6,-0.6,-3.9,999.9,-852.0,0,108,0,57,0, 
0.0633,-311.7,-264.6,647.4,214.8,-263.4,387.0,211.8,-588.3,-9781.2,919.5,-1788.9,-597.0,-1592.1,222.6,-7523.1,168.9,-6.9,-5.4,-1136.7,-1741.5,-0.9,-10.2,1025.7,-855.3,0,114,0,58,0, 
0.0667,-312.0,-265.2,650.7,216.0,-264.3,388.2,213.3,-592.5,-9484.8,922.5,-2859.0,-1875.0,-1527.3,45.0,-7370.4,156.6,-6.9,-5.7,-1141.5,-1737.6,-0.6,-9.6,1014.6,-855.3,0,120,0,59,0, 
0.0700,-305.4,-252.6,656.7,214.2,-270.0,374.1,203.7,-579.3,-2667.6,923.4,-509.7,218.4,-1228.5,316.2,-582.3,140.1,-7.2,-5.7,-1126.5,-1744.8,-0.9,-17.1,1025.1,-894.6,0,126,0,60,0, 
0.0733,-306.6,-268.5,651.9,204.0,-278.1,360.9,200.4,-578.1,1037.4,908.4,1961.4,2777.7,-1116.3,668.4,3498.6,168.3,-6.6,-6.0,-1113.0,-1748.1,-0.6,-14.7,1012.2,-911.7,0,132,0,61,0, 
0.0767,-300.6,-273.0,647.1,204.6,-281.7,361.5,197.4,-586.8,-3334.5,906.6,1185.6,2279.7,-1310.1,622.8,-777.3,164.7,-6.6,-6.3,-1122.9,-1746.3,-0.6,-19.8,997.2,-908.1,0,138,0,62,0, 
0.0800,-308.4,-257.7,657.6,216.3,-267.3,376.8,201.6,-595.5,-9855.3,919.5,-1969.5,-687.3,-1493.1,211.8,-7485.6,147.9,-6.9,-5.7,-1132.8,-1736.1,-0.6,-6.6,999.3,-885.3,0,144,0,63,0, 
0.0833,-313.2,-273.3,656.7,219.9,-254.4,386.1,207.3,-591.0,-9410.7,916.5,-2964.6,-1944.6,-1451.1,45.9,-7357.5,143.7,-6.9,-6.0,-1138.5,-1729.8,-0.6,2.4,1004.7,-850.5,0,150,0,64,0, 
0.0867,-316.8,-292.2,654.9,212.4,-254.4,387.9,207.9,-592.2,-2667.6,914.7,-482.7,240.9,-1213.8,323.4,-559.8,153.3,-6.6,-6.0,-1121.4,-1733.4,-0.9,-13.8,1026.3,-815.7,0,156,0,65,0, 
0.0900,-319.5,-276.9,665.1,217.8,-246.6,384.6,199.2,-579.6,1111.5,917.1,1959.0,2759.4,-1160.4,657.3,3474.3,134.4,-6.9,-5.4,-1105.2,-1727.7,-0.6,-3.9,993.6,-799.5,0,162,0,66,0, 
0.0933,-318.0,-262.8,676.2,226.8,-240.0,389.7,208.5,-580.2,-3482.7,930.0,1140.6,2242.2,-1358.4,593.1,-846.9,147.3,-6.6,-5.7,-1107.6,-1714.8,-0.9,24.0,1022.1,-835.8,0,168,0,67,0, 
0.0967,-312.9,-257.7,672.3,219.6,-248.4,384.6,206.7,-590.4,-9929.4,924.9,-1950.0,-579.0,-1564.2,198.3,-7518.9,151.5,-6.9,-6.3,-1136.7,-1720.2,-1.2,18.6,1015.5,-850.8,0,174,0,68,0, 
0.1000,-307.5,-253.2,678.0,224.4,-248.4,382.5,204.9,-591.3,-9484.8,929.4,-3112.5,-1856.7,-1534.8,22.2,-7376.4,147.6,-7.2,-5.7,-1144.8,-1720.5,-0.9,-0.6,1007.7,-850.5,0,180,0,69,0, 
0.1033,-312.3,-261.0,668.4,215.1,-255.3,370.8,203.4,-588.6,-2667.6,900.6,-669.9,294.6,-1230.9,287.4,-581.1,150.6,-7.2,-5.7,-1141.2,-1731.0,-0.6,-27.0,1003.5,-866.1,0,186,0,70,0, 
0.1067,-306.0,-256.5,664.2,213.9,-259.8,366.0,203.4,-576.3,963.3,912.9,1893.3,2826.0,-1152.3,631.2,3456.3,150.6,-7.2,-5.7,-1144.5,-1736.1,-0.6,-24.3,1012.2,-874.2,0,192,0,71,0, 
0.1100,-310.5,-271.2,644.7,198.3,-280.2,357.6,196.8,-590.1,-3334.5,888.3,918.6,2129.7,-1386.6,577.2,-855.0,161.4,-6.9,-6.0,-1195.5,-1752.0,-0.9,-29.1,1014.9,-897.0,0,198,0,72,0, 
0.1133,-313.5,-269.4,660.0,211.2,-270.0,361.8,198.3,-593.7,-9855.3,904.5,-1986.9,-679.8,-1556.4,189.3,-7527.0,152.4,-6.6,-5.7,-1182.9,-1740.6,-0.9,-13.5,999.0,-889.5,0,204,0,73,0, 
0.1167,-306.0,-268.5,694.8,237.0,-249.3,380.4,207.3,-586.8,-9410.7,926.1,-3073.2,-1873.8,-1436.7,25.5,-7359.6,158.1,-6.9,-5.7,-1126.5,-1710.9,-0.9,6.0,1009.5,-872.1,0,210,0,74,0, 
0.1200,-312.3,-273.9,693.0,232.2,-246.6,383.7,210.3,-577.2,-2593.5,927.6,-698.7,246.3,-1197.9,301.2,-567.6,165.0,-7.2,-6.0,-1117.5,-1707.0,0.0,4.8,1021.5,-879.3,0,216,0,75,0, 
0.1233,-305.4,-274.5,691.5,233.1,-240.9,390.9,214.8,-563.4,1111.5,939.3,1836.6,2775.9,-1139.1,666.3,3482.4,168.6,-7.2,-6.0,-1110.6,-1706.7,-0.9,12.9,1033.8,-866.4,0,222,0,76,0, 
0.1267,-305.4,-255.3,693.3,236.1,-246.9,394.5,217.2,-562.8,-3482.7,937.2,1008.3,2175.0,-1379.7,623.7,-819.6,166.8,-7.2,-5.7,-1117.2,-1714.5,-0.6,3.6,1020.9,-847.2,0,228,0,77,0, 
0.1300,-303.3,-248.7,694.2,231.6,-251.4,389.1,216.9,-579.0,-9707.1,936.3,-2016.3,-629.7,-1554.9,234.6,-7485.6,172.2,-6.9,-5.7,-1140.0,-1734.6,-0.9,-12.6,1023.6,-835.5,0,234,0,78,0, 
0.1333,-306.6,-249.9,690.0,229.2,-261.9,388.2,215.7,-581.4,-9336.6,923.1,-2997.0,-1747.8,-1461.6,54.6,-7317.9,175.2,-6.9,-6.0,-1150.5,-1762.2,-1.2,-12.6,1026.3,-845.1,0,240,0,79,0, 
0.1367,-308.1,-255.6,688.5,237.3,-248.7,384.6,212.7,-568.2,-2593.5,921.6,-567.3,376.2,-1225.2,315.0,-525.3,177.3,-6.9,-5.7,-1140.9,-1747.8,-0.6,3.3,1032.0,-852.0,0,246,0,80,0, 
0.1400,-301.2,-256.2,695.7,233.7,-248.4,383.1,211.8,-560.7,1111.5,930.9,1890.0,2794.5,-1118.1,661.2,3505.8,166.2,-6.6,-5.7,-1118.4,-1743.0,-1.2,2.4,1023.9,-859.5,0,252,0,81,0, 
0.1433,-313.8,-270.3,682.8,231.6,-250.2,396.6,219.3,-571.5,-3334.5,929.4,1105.2,2181.3,-1326.0,613.5,-792.3,174.6,-7.2,-6.3,-1141.5,-1746.3,-0.6,-2.1,1048.8,-821.4,0,258,0,82,0, 
0.1467,-303.6,-266.7,685.5,231.6,-250.2,392.7,211.5,-579.3,-9781.2,942.6,-1838.4,-708.9,-1512.3,251.7,-7464.3,156.0,-6.6,-5.4,-1158.3,-1754.7,-0.9,-2.7,1017.3,-809.4,0,264,0,83,0, 
0.1500,-299.1,-245.7,704.4,241.8,-240.9,393.3,205.2,-574.5,-9336.6,949.8,-2902.2,-1856.1,-1457.1,73.5,-7293.0,151.2,-6.6,-5.7,-1143.3,-1749.9,-0.6,-8.4,987.0,-796.2,0,270,0,84,0, 
0.1533,-311.4,-237.0,711.0,235.8,-247.2,387.9,202.5,-569.4,-2593.5,943.5,-470.1,331.2,-1293.3,311.1,-523.5,153.0,-6.9,-6.0,-1131.9,-1755.0,-0.6,-17.7,993.9,-833.4,0,276,0,85,0, 
0.1567,-303.9,-239.7,709.2,231.6,-250.2,378.0,200.1,-562.2,1111.5,928.2,1886.4,2758.5,-1185.9,676.8,3510.0,155.4,-6.9,-5.7,-1124.4,-1757.1,-0.6,-13.5,1017.3,-882.9,0,282,0,86,0, 
0.1600,-300.0,-258.6,690.6,224.1,-254.4,377.7,206.1,-574.2,-3408.6,919.2,1197.6,2271.0,-1319.4,630.9,-786.9,184.8,-6.6,-5.4,-1151.1,-1755.6,-0.9,-10.5,1030.2,-890.7,0,288,0,87,0, 
0.1633,-304.2,-271.5,685.8,221.1,-254.4,383.4,207.0,-589.8,-9781.2,923.1,-1829.4,-591.6,-1520.4,241.8,-7441.2,189.3,-6.6,-5.7,-1179.9,-1761.9,-0.9,-12.0,1036.2,-881.4,0,294,0,88,0, 
0.1667,-295.5,-259.8,705.3,236.1,-242.1,396.6,215.1,-575.4,-9262.5,941.4,-2895.3,-1845.6,-1422.3,73.5,-7266.3,163.5,-6.9,-5.7,-1163.4,-1746.0,-0.6,10.5,1037.1,-852.0,0,300,0,89,0, 
0.1700,-296.7,-247.8,713.1,240.6,-238.2,399.3,219.9,-553.8,-2741.7,943.8,-441.9,295.5,-1190.1,315.0,-502.8,167.4,-6.6,-6.0,-1129.5,-1751.7,-1.2,6.6,1059.3,-838.8,0,306,0,90,0, 
0.1733,-303.3,-246.0,712.8,246.9,-234.3,394.2,223.2,-544.8,1037.4,945.9,2034.9,2810.4,-1164.6,650.4,3505.5,186.6,-7.2,-5.7,-1113.3,-1750.8,-1.2,25.2,1058.7,-851.4,0,312,0,91,0, 
0.1767,-311.7,-244.5,704.7,238.8,-244.2,393.0,215.1,-556.5,-3408.6,935.1,1194.9,2240.1,-1337.4,582.3,-813.0,166.2,-6.9,-5.7,-1138.5,-1761.3,-0.9,15.0,1032.9,-848.4,0,318,0,92,0, 
0.1800,-308.4,-247.8,698.7,234.3,-250.5,381.0,213.6,-568.8,-9781.2,925.2,-1854.6,-717.9,-1532.7,196.2,-7478.1,173.1,-7.2,-5.7,-1175.7,-1770.3,-0.9,18.3,1032.9,-879.6,0,324,0,93,0, 
0.1833,-300.9,-258.0,694.8,231.6,-249.9,386.7,210.3,-568.5,-9262.5,927.6,-2972.1,-1868.4,-1458.0,47.7,-7279.5,175.8,-6.9,-5.7,-1179.6,-1773.3,-1.2,-4.2,1012.8,-868.2,0,330,0,94,0, 
0.1867,-307.5,-273.3,689.7,226.8,-259.5,372.0,197.4,-569.1,-2667.6,911.1,-608.1,233.7,-1225.5,349.8,-478.2,167.7,-6.9,-6.0,-1167.0,-1777.8,-0.6,-34.8,997.8,-883.2,0,336,0,95,0, 
0.1900,-318.9,-261.9,699.3,237.6,-244.2,392.7,211.2,-553.8,1111.5,919.8,1948.5,2760.9,-1195.2,669.6,3495.3,157.5,-7.2,-5.7,-1148.1,-1759.8,-0.9,-8.4,1024.2,-829.5,0,342,0,96,0, 
0.1933,-314.4,-240.0,709.8,241.8,-239.1,398.1,212.7,-557.7,-3482.7,944.4,1016.7,2094.0,-1464.9,588.9,-846.6,167.1,-6.9,-6.0,-1153.8,-1755.0,-0.6,14.1,1021.2,-808.2,0,348,0,97,0, 
0.1967,-316.8,-246.9,697.2,230.4,-247.2,395.7,210.3,-572.1,-9855.3,926.1,-2040.9,-717.3,-1616.1,209.4,-7505.4,169.8,-6.9,-6.0,-1186.2,-1772.1,-0.9,-6.6,1029.0,-810.0,0,354,0,98,0, 
0.2000,-300.6,-257.4,702.3,237.6,-242.4,387.0,210.0,-567.6,-9410.7,924.0,-2942.7,-1810.5,-1409.7,53.4,-7291.2,170.1,-6.9,-5.7,-1179.3,-1766.1,-0.9,-2.1,1029.0,-852.9,0,360,0,99,0, 
0.2033,-304.5,-273.9,701.1,231.6,-240.3,388.8,216.3,-556.5,-2593.5,925.2,-548.7,372.0,-1149.3,317.1,-506.7,194.7,-6.9,-5.4,-1152.6,-1772.1,-0.6,6.3,1048.8,-849.9,0,366,0,100,0, 
0.2067,-297.0,-267.3,700.2,231.9,-237.0,390.3,219.9,-550.5,1111.5,921.6,1937.7,2838.9,-1085.4,663.3,3504.0,182.4,-6.9,-6.0,-1137.0,-1773.3,-0.9,-2.1,1063.8,-868.8,0,372,0,101,0, 
0.2100,-298.2,-257.4,713.1,244.8,-228.0,395.7,217.5,-545.7,-3482.7,943.5,1097.4,2186.1,-1323.6,615.6,-844.2,173.4,-6.6,-6.0,-1141.8,-1746.0,-0.9,20.1,1041.3,-849.3,0,378,0,102,0, 
0.2133,-303.6,-257.7,711.6,246.0,-230.1,394.8,221.4,-560.4,-9929.4,960.3,-1916.7,-699.0,-1503.6,222.0,-7519.5,183.0,-6.6,-6.3,-1156.8,-1753.2,-0.6,6.9,1038.6,-867.0,0,384,0,103,0, 
0.2167,-299.4,-260.7,709.5,236.4,-235.2,396.0,210.3,-565.2,-9410.7,931.5,-2829.0,-1794.9,-1434.9,59.4,-7325.4,187.2,-6.9,-5.7,-1166.4,-1765.8,-0.9,-9.0,1024.5,-864.6,0,390,0,104,0, 
0.2200,-297.9,-264.9,709.2,239.7,-234.6,386.7,204.9,-555.6,-2593.5,939.9,-437.7,302.7,-1194.0,337.2,-539.7,178.5,-6.9,-6.0,-1138.2,-1757.1,-0.6,-11.4,1024.2,-885.9,0,396,0,105,0, 
0.2233,-300.9,-257.7,711.3,239.4,-232.2,398.7,212.4,-543.0,963.3,939.3,2832.0,3390.9,-1101.6,671.4,3423.3,175.5,-6.6,-5.7,-1131.9,-1748.7,-0.3,-6.6,1042.5,-876.0,0,402,0,106,0, 
0.2267,-311.1,-258.9,700.8,231.6,-244.8,390.6,214.8,-558.0,-3408.6,928.2,1698.9,2558.7,-1335.6,596.7,-875.1,182.4,-6.9,-6.0,-1153.5,-1756.2,-0.6,1.5,1037.7,-874.8,0,408,0,107,0, 
0.2300,-300.3,-250.5,695.4,228.9,-249.3,388.8,209.4,-570.9,-9855.3,935.7,-1419.3,-399.9,-1537.8,220.5,-7555.5,168.3,-7.2,-5.7,-1176.6,-1762.8,-0.9,-14.4,1026.6,-874.2,0,414,0,108,0, 
0.2333,-297.3,-234.9,695.7,224.7,-249.9,389.4,206.7,-572.4,-9484.8,924.6,-2539.5,-1725.0,-1520.7,10.2,-7360.2,168.9,-6.9,-6.0,-1192.2,-1764.6,-1.5,-6.0,1017.9,-861.3,0,420,0,109,0, 
0.2367,-296.4,-238.2,687.3,215.1,-261.9,382.2,205.5,-564.9,-2593.5,903.9,-80.7,474.6,-1269.6,303.3,-546.3,182.1,-6.9,-5.7,-1188.9,-1774.2,-0.9,-23.7,1009.2,-870.0,0,426,0,110,0, 
0.2400,-309.9,-238.2,691.2,222.6,-256.2,394.5,210.9,-558.0,1111.5,903.6,2286.6,2887.5,-1162.2,645.6,3456.6,164.4,-6.6,-6.0,-1173.6,-1770.0,-0.9,-28.5,1033.8,-821.7,0,432,0,111,0, 
0.2433,-320.1,-249.9,690.6,228.0,-247.8,400.2,213.6,-556.8,-3556.8,918.9,1388.4,2127.3,-1459.8,558.9,-912.9,159.3,-7.2,-5.7,-1176.6,-1762.5,-0.9,-24.9,1021.8,-787.5,0,438,0,112,0, 
0.2467,-316.8,-255.3,679.5,214.5,-253.2,391.8,211.2,-575.1,-9855.3,913.2,-1643.7,-797.1,-1642.2,194.1,-7557.9,149.4,-6.9,-6.0,-1214.7,-1780.8,-0.9,-29.4,1020.9,-838.8,0,444,0,113,0, 
0.2500,-310.2,-258.0,682.5,216.3,-253.5,374.1,200.7,-576.0,-9262.5,908.7,-2699.4,-1984.8,-1444.2,37.5,-7306.5,154.5,-6.9,-6.0,-1204.2,-1779.6,-0.9,-12.0,997.8,-885.9,0,450,0,114,0, 
0.2533,-313.8,-275.4,681.6,215.4,-247.2,379.5,209.1,-564.3,-2667.6,912.0,-367.8,146.7,-1165.2,291.9,-518.7,165.6,-6.9,-5.7,-1177.2,-1779.9,-0.9,-23.1,1041.9,-874.2,0,456,0,115,0, 
0.2567,-318.9,-276.6,680.7,215.7,-250.2,372.3,204.0,-559.8,1111.5,921.3,1666.2,2387.7,-1098.6,640.8,3508.2,168.9,-6.9,-5.7,-1176.0,-1774.2,-0.6,-22.5,1026.9,-909.9,0,462,0,116,0, 
0.2600,-317.4,-274.2,683.4,218.1,-248.7,370.5,209.4,-567.9,-3334.5,936.6,621.0,1695.0,-1311.3,599.7,-854.7,172.8,-6.9,-6.0,-1177.2,-1773.9,-0.9,-9.9,1031.7,-917.1,0,468,0,117,0, 
0.2633,-315.0,-264.6,690.0,225.6,-240.9,392.7,213.3,-572.7,-9929.4,937.2,-2226.0,-984.6,-1507.2,210.3,-7517.7,170.1,-6.9,-5.7,-1188.6,-1766.1,-0.9,-3.3,1036.2,-881.4,0,474,0,118,0, 
0.2667,-312.3,-255.0,695.1,235.8,-235.8,394.2,206.4,-566.1,-9336.6,940.2,-3258.9,-2071.5,-1412.4,24.0,-7315.2,159.0,-6.9,-5.7,-1184.1,-1760.4,-0.6,-3.0,1014.3,-875.1,0,480,0,119,0, 
0.2700,-314.7,-261.0,693.9,231.9,-242.4,392.7,205.5,-558.9,-2519.4,936.6,-794.4,86.1,-1198.8,316.2,-519.9,155.7,-6.6,-6.0,-1168.2,-1766.7,-0.9,-8.1,1007.4,-866.4,0,486,0,120,0, 
0.2733,-314.1,-264.3,685.8,224.7,-250.8,387.6,206.1,-554.4,1037.4,930.0,1848.0,2642.7,-1153.5,672.6,3474.6,171.0,-6.9,-5.7,-1163.1,-1765.2,-0.6,-4.8,1012.2,-888.3,0,492,0,121,0, 
0.2767,-299.1,-250.5,696.6,236.4,-241.2,397.2,220.2,-552.3,-3482.7,938.1,1047.6,2047.5,-1346.7,617.4,-855.9,174.3,-6.9,-5.4,-1161.0,-1761.9,-0.9,1.2,1036.8,-875.4,0,498,0,122,0, 
0.2800,-302.1,-240.3,688.5,224.1,-250.5,394.5,210.9,-569.7,-9855.3,927.3,-1944.0,-757.2,-1554.0,228.9,-7516.2,156.3,-6.6,-5.4,-1190.7,-1775.7,-0.3,-0.3,1029.0,-850.8,0,504,0,123,0, 
0.2833,-294.0,-236.4,687.3,223.2,-249.0,396.3,215.7,-569.1,-9336.6,927.3,-2877.6,-1894.2,-1469.4,47.1,-7288.2,160.5,-6.9,-6.0,-1193.1,-1777.8,-0.6,-5.4,1032.0,-830.1,0,510,0,124,0, 
0.2867,-303.0,-245.7,678.0,216.9,-255.9,387.3,214.5,-561.3,-2519.4,916.5,-420.9,210.3,-1247.1,296.4,-514.5,165.0,-6.6,-6.0,-1177.5,-1781.1,-1.2,-6.9,1029.6,-844.5,0,516,0,125,0, 
0.2900,-315.9,-252.0,675.6,210.3,-262.5,391.8,214.5,-557.7,1111.5,900.6,1963.5,2614.2,-1177.2,636.0,3478.8,154.2,-6.3,-6.0,-1176.3,-1793.4,-0.9,-21.6,1012.8,-854.1,0,522,0,126,0, 
0.2933,-307.8,-242.4,680.4,219.0,-259.2,385.5,209.1,-563.4,-3482.7,917.7,1185.3,2009.4,-1397.1,587.7,-856.8,154.5,-7.2,-6.0,-1179.3,-1783.2,-0.6,-18.9,1012.2,-860.7,0,528,0,127,0, 
0.2967,-317.7,-251.4,673.5,209.4,-264.9,373.8,194.1,-585.9,-9855.3,919.5,-1629.3,-826.8,-1578.3,201.6,-7513.2,159.9,-6.9,-6.3,-1197.0,-1787.1,-0.3,-15.9,1012.2,-910.2,0,534,0,128,0, 
0.3000,-306.0,-247.2,672.3,208.8,-267.0,380.1,199.2,-586.8,-9410.7,906.3,-2794.2,-2042.4,-1518.3,33.0,-7316.7,157.2,-6.6,-6.0,-1212.3,-1791.0,-0.6,-17.4,1019.4,-910.2,0,540,0,129,0, 
0.3033,-312.0,-262.8,678.3,214.5,-260.4,382.2,204.6,-573.3,-2667.6,921.9,-330.6,155.4,-1245.0,300.6,-518.4,149.7,-6.9,-5.7,-1183.5,-1789.8,-1.2,-20.1,1024.5,-895.5,0,546,0,130,0, 
0.3067,-316.2,-276.0,678.9,215.7,-259.2,381.0,207.6,-562.8,1111.5,924.3,2205.9,2635.2,-1134.6,671.4,3480.9,161.4,-6.6,-5.7,-1163.4,-1784.1,-0.9,-12.9,1021.8,-887.1,0,552,0,131,0, 
0.3100,-318.3,-282.0,671.4,219.9,-257.4,390.9,212.7,-564.0,-3334.5,930.6,1223.7,1945.8,-1319.1,604.2,-869.7,156.6,-6.9,-6.0,-1179.0,-1774.2,-0.6,4.5,1021.2,-855.9,0,558,0,132,0, 
0.3133,-319.2,-281.1,661.5,213.6,-272.4,386.4,213.0,-584.4,-9929.4,924.6,-1629.9,-837.9,-1511.7,223.5,-7506.0,159.9,-7.2,-5.7,-1204.2,-1783.5,-0.6,-14.7,1048.5,-864.3,0,564,0,133,0, 
0.3167,-318.0,-275.7,659.4,206.1,-279.6,368.1,205.5,-589.2,-9410.7,909.6,-2611.2,-1947.9,-1446.6,44.4,-7267.5,173.1,-6.9,-5.7,-1208.7,-1794.9,-0.9,-19.5,1043.1,-907.8,0,570,0,134,0, 
0.3200,-312.3,-259.8,670.5,213.0,-271.8,370.8,200.1,-572.4,-2593.5,919.2,-292.8,173.1,-1274.1,324.3,-486.6,157.2,-6.9,-6.0,-1185.9,-1789.2,-0.9,-18.0,1002.6,-889.8,0,576,0,135,0, 
0.3233,-322.2,-263.4,675.3,213.9,-263.7,374.1,203.1,-566.1,1037.4,925.2,2296.2,2686.5,-1171.8,645.9,3483.3,168.6,-6.9,-6.0,-1184.1,-1776.9,-0.6,-8.4,1033.2,-882.0,0,582,0,136,0, 
0.3267,-319.8,-262.2,681.3,221.4,-254.1,388.5,214.5,-571.5,-3408.6,919.5,1222.5,1950.3,-1334.1,597.9,-864.9,170.1,-6.9,-5.7,-1195.8,-1765.2,-0.9,0.6,1045.5,-869.7,0,588,0,137,0, 
0.3300,-322.5,-261.6,677.7,219.0,-254.1,388.2,210.0,-581.1,-9929.4,932.4,-1777.8,-778.2,-1524.0,219.0,-7511.7,151.5,-6.6,-6.3,-1215.0,-1768.8,-0.6,-1.8,1019.4,-876.3,0,594,0,138,0, 
0.3333,-321.3,-276.3,670.8,211.2,-260.4,386.4,206.4,-588.3,-9410.7,928.8,-2722.2,-1994.1,-1440.9,51.3,-7274.7,155.7,-7.2,-6.0,-1224.6,-1773.3,-0.6,-25.2,1022.7,-858.9,0,600,0,139,0, 
0.3367,-307.2,-247.5,687.9,226.5,-257.7,387.3,207.0,-566.7,-2593.5,939.9,-348.9,128.7,-1179.6,299.4,-488.4,140.1,-6.9,-6.3,-1177.2,-1755.6,-0.9,-4.5,1026.3,-869.4,0,606,0,140,0, 
0.3400,-320.1,-259.2,675.0,219.3,-258.9,392.7,204.0,-561.9,1185.6,930.9,2133.3,2579.7,-1157.7,636.9,3483.0,139.5,-6.9,-5.7,-1164.0,-1747.8,-0.6,-4.8,1026.6,-868.5,0,612,0,141,0, 
0.3433,-318.0,-257.1,667.5,215.4,-261.3,389.7,205.5,-567.6,-3408.6,930.6,1250.7,1982.7,-1389.9,608.7,-864.9,148.5,-6.9,-5.4,-1185.3,-1751.4,-0.6,9.3,1015.8,-859.8,0,618,0,142,0, 
0.3467,-318.6,-260.4,662.1,213.0,-268.8,389.7,203.4,-587.7,-9781.2,925.5,-1703.4,-876.3,-1548.6,211.2,-7492.8,141.3,-7.5,-5.7,-1208.4,-1755.3,-0.6,-12.3,1023.3,-854.4,0,624,0,143,0, 
0.3500,-307.8,-263.1,660.3,208.2,-277.8,377.4,203.1,-585.0,-9336.6,919.8,-2787.6,-2047.8,-1447.2,38.7,-7256.4,159.0,-7.2,-6.0,-1215.3,-1765.5,-0.6,-3.9,1045.2,-910.8,0,630,0,144,0, 
0.3533,-311.4,-265.8,663.0,211.2,-277.2,381.9,200.1,-577.2,-2519.4,917.7,-334.5,145.5,-1286.4,301.8,-437.1,150.3,-6.9,-5.7,-1199.1,-1768.5,-0.6,-12.3,1022.4,-873.9,0,636,0,145,0, 
0.3567,-317.7,-246.3,671.4,220.8,-265.5,392.7,211.5,-560.4,1111.5,936.6,2119.5,2660.1,-1238.4,645.3,3515.1,164.4,-6.6,-5.7,-1177.5,-1757.1,-0.9,-1.2,1040.7,-845.7,0,642,0,146,0, 
0.3600,-308.7,-244.5,669.9,222.0,-261.3,389.4,209.7,-568.2,-3334.5,934.2,1295.1,2018.4,-1365.3,607.8,-832.8,159.3,-6.3,-5.7,-1197.3,-1757.1,-0.6,2.4,1041.6,-845.1,0,648,0,147,0, 
0.3633,-311.7,-254.7,658.5,212.4,-264.6,395.7,217.2,-584.4,-9781.2,927.3,-1794.3,-870.9,-1512.0,225.6,-7443.0,155.1,-6.9,-6.0,-1225.2,-1769.7,-0.6,-5.1,1041.6,-852.0,0,654,0,148,0, 
0.3667,-304.2,-254.4,672.0,220.8,-253.8,399.3,208.5,-583.8,-9188.4,936.0,-2787.9,-1940.1,-1398.3,49.8,-7197.9,159.0,-6.9,-6.3,-1208.4,-1762.5,-0.6,3.3,1043.4,-862.5,0,660,0,149,0, 
0.3700,-315.9,-255.0,670.5,222.9,-254.4,395.1,206.7,-572.4,-2445.3,940.5,-462.6,200.1,-1227.6,294.3,-417.6,174.6,-6.6,-5.7,-1195.8,-1759.8,-0.6,-1.8,1038.6,-870.9,0,666,0,150,0, 
0.3733,-321.0,-257.7,676.8,223.8,-253.2,396.0,201.3,-566.1,1185.6,939.9,2097.0,2739.9,-1171.2,631.5,3539.1,162.0,-7.2,-6.3,-1181.4,-1751.7,-0.9,13.8,1013.1,-850.8,0,672,0,151,0, 
0.3767,-316.8,-245.4,674.7,220.2,-259.2,397.2,210.6,-568.5,-3556.8,933.9,1203.9,2146.8,-1312.5,579.9,-828.3,152.1,-6.9,-5.7,-1194.6,-1757.4,-0.9,10.5,1020.3,-846.9,0,678,0,152,0, 
0.3800,-312.9,-254.4,670.2,218.1,-266.1,394.8,212.1,-579.0,-9781.2,926.7,-1892.7,-773.1,-1531.5,195.6,-7473.9,163.5,-7.2,-6.0,-1223.7,-1758.0,-0.6,10.8,1044.3,-846.0,0,684,0,153,0, 
0.3833,-318.3,-255.0,664.5,214.2,-269.7,387.6,204.9,-585.9,-9336.6,928.8,-2939.7,-1846.8,-1488.6,21.9,-7242.0,168.0,-6.9,-5.7,-1226.4,-1760.7,-0.9,-5.4,1038.3,-872.7,0,690,0,154,0, 
0.3867,-308.7,-247.8,672.6,215.7,-264.0,386.4,201.9,-570.0,-2371.2,938.1,-561.9,356.1,-1223.7,324.6,-417.3,137.1,-7.2,-6.3,-1202.7,-1755.9,-0.6,6.0,1023.0,-872.4,0,696,0,155,0, 
0.3900,-313.2,-247.5,677.4,227.4,-269.7,380.1,198.3,-561.6,1185.6,952.2,1971.9,2885.1,-1116.9,661.8,3544.8,132.3,-6.9,-6.0,-1174.2,-1750.2,-0.3,-1.8,1012.5,-883.5,0,702,0,156,0, 
0.3933,-312.0,-254.7,676.2,228.9,-268.5,389.1,205.2,-568.5,-3408.6,946.8,1053.9,2285.1,-1334.7,603.0,-839.1,143.7,-6.9,-6.3,-1188.6,-1741.5,-0.9,0.3,1020.3,-866.1,0,708,0,157,0, 
0.3967,-305.4,-243.3,674.7,227.4,-271.8,393.3,207.3,-582.0,-9855.3,953.1,-1919.7,-499.5,-1549.5,217.5,-7475.4,144.0,-7.2,-5.7,-1205.7,-1753.2,-0.9,-9.6,1010.4,-885.9,0,714,0,158,0, 
0.4000,-312.3,-234.6,672.6,220.5,-270.0,387.6,201.6,-582.0,-9336.6,936.3,-2948.4,-1722.9,-1476.0,26.4,-7221.3,143.4,-7.2,-5.4,-1215.9,-1757.1,-0.3,-4.2,1008.9,-906.0,0,720,0,159,0, 
0.4033,-301.2,-241.2,671.4,223.8,-264.9,394.2,209.7,-565.8,-2445.3,930.9,-509.1,441.3,-1190.4,295.2,-408.3,149.4,-6.6,-5.7,-1195.5,-1746.0,-0.6,-0.6,1021.8,-894.6,0,726,0,160,0, 
0.4067,-308.7,-249.0,672.9,221.7,-267.0,384.9,209.4,-555.0,1037.4,937.5,1953.9,2930.7,-1134.9,627.0,3529.2,152.1,-6.6,-5.7,-1177.5,-1747.5,-0.6,0.0,1020.3,-889.8,0,732,0,161,0, 
0.4100,-306.0,-233.4,679.5,226.8,-259.8,392.7,209.1,-560.7,-3556.8,934.8,1074.0,2245.5,-1402.2,577.2,-878.1,153.0,-6.9,-5.7,-1190.7,-1740.3,-0.6,-0.3,1026.0,-871.2,0,738,0,162,0, 
0.4133,-310.8,-235.5,671.1,221.4,-258.3,396.0,212.1,-574.5,-9929.4,931.8,-1853.1,-581.4,-1624.8,188.1,-7517.4,148.2,-6.9,-5.7,-1221.3,-1750.5,-0.6,4.2,1028.7,-850.8,0,744,0,163,0, 
0.4167,-314.1,-239.1,669.0,216.3,-259.2,406.8,222.0,-573.0,-9410.7,925.8,-2969.4,-1798.5,-1495.2,32.4,-7241.7,153.3,-6.6,-5.7,-1210.5,-1761.9,-0.6,-15.6,1060.5,-822.9,0,750,0,164,0, 
0.4200,-316.2,-259.5,663.9,215.7,-261.0,401.4,213.3,-565.8,-2519.4,931.8,-687.3,272.4,-1181.7,295.8,-420.9,151.8,-6.9,-5.7,-1195.8,-1757.4,-0.6,-6.9,1029.6,-823.5,0,756,0,165,0, 
0.4233,-314.7,-249.3,673.8,222.0,-251.7,397.5,208.2,-555.3,1185.6,941.7,1758.9,2704.5,-1146.6,662.1,3525.6,148.5,-6.6,-6.0,-1172.1,-1743.0,-0.6,-13.5,996.6,-846.3,0,762,0,166,0, 
0.4267,-319.2,-251.1,666.0,211.2,-263.7,389.4,207.9,-570.3,-3408.6,938.4,970.5,2164.8,-1364.1,595.8,-885.9,170.1,-6.6,-6.0,-1202.1,-1747.2,-0.6,-10.2,1017.6,-875.7,0,768,0,167,0, 
0.4300,-315.3,-247.8,662.7,210.6,-266.7,394.2,205.8,-588.6,-9855.3,930.0,-1970.7,-727.5,-1501.5,209.1,-7492.2,157.5,-6.6,-5.4,-1220.4,-1745.7,-0.9,-12.6,1026.9,-855.0,0,774,0,168,0, 
0.4333,-311.4,-245.7,673.2,222.6,-259.5,405.6,203.7,-582.0,-9188.4,950.7,-2872.5,-1827.9,-1374.3,22.8,-7210.8,140.7,-6.9,-6.0,-1206.9,-1740.0,-0.6,-3.6,1031.4,-842.4,0,780,0,169,0, 
0.4367,-310.8,-247.8,678.0,229.8,-248.1,408.0,211.8,-562.2,-2519.4,962.1,-429.6,431.7,-1168.8,314.7,-407.4,144.3,-7.5,-6.0,-1173.3,-1731.9,-0.6,9.3,1016.1,-850.2,0,786,0,170,0, 
0.4400,-318.9,-251.7,669.0,219.9,-261.6,396.0,205.5,-567.0,963.3,951.6,2071.8,2944.5,-1136.7,662.1,3529.2,154.5,-6.9,-5.7,-1174.8,-1740.3,-0.6,6.0,1026.9,-892.2,0,792,0,171,0, 
0.4433,-315.9,-250.2,667.2,217.2,-263.4,400.2,207.9,-569.1,-3482.7,946.2,1041.3,2341.5,-1320.6,602.7,-859.2,169.2,-6.6,-6.0,-1190.7,-1742.1,-0.9,15.0,1025.4,-907.5,0,798,0,172,0, 
0.4467,-320.4,-262.8,648.9,199.2,-279.3,390.6,204.3,-594.3,-9929.4,927.9,-2067.9,-633.6,-1517.7,204.6,-7526.4,180.6,-7.2,-5.7,-1231.5,-1767.6,-0.6,-14.1,1041.9,-919.2,0,804,0,173,0, 
0.4500,-315.0,-256.5,659.4,208.5,-266.7,399.0,216.3,-584.4,-9410.7,944.7,-3006.3,-1747.2,-1445.7,43.5,-7235.7,153.6,-6.9,-5.7,-1217.1,-1751.7,-0.9,3.0,1053.9,-888.9,0,810,0,174,0, 
0.4533,-302.4,-245.1,667.2,215.4,-263.7,399.9,211.5,-566.4,-2593.5,937.2,-499.2,456.9,-1191.6,348.3,-396.9,149.7,-7.2,-6.0,-1200.9,-1745.7,-0.9,2.1,1017.9,-886.2,0,816,0,175,0, 
0.4567,-302.1,-229.2,678.9,223.5,-252.3,408.3,213.0,-551.4,963.3,947.1,2009.1,2950.5,-1125.0,664.5,3528.3,160.2,-6.9,-6.3,-1183.8,-1737.9,-0.9,20.4,1031.7,-882.6,0,822,0,176,0, 
0.4600,-307.8,-225.9,668.4,218.7,-258.3,407.1,204.9,-564.3,-3482.7,943.2,1074.3,2305.5,-1357.8,560.4,-921.0,161.4,-7.2,-6.0,-1203.0,-1739.7,-0.9,-3.3,1035.9,-833.1,0,828,0,177,0, 
0.4633,-306.3,-229.2,665.1,220.2,-255.9,401.4,203.1,-571.5,-10077.6,932.4,-1893.6,-593.4,-1553.4,175.2,-7538.4,167.1,-6.9,-5.4,-1221.3,-1744.8,-0.9,-14.4,1013.4,-852.0,0,834,0,178,0, 
0.4667,-305.1,-246.3,662.4,215.1,-256.5,391.8,201.6,-577.5,-9262.5,925.8,-2784.0,-1686.3,-1460.4,36.0,-7230.9,160.5,-7.5,-5.4,-1220.1,-1743.0,-0.6,-3.6,1013.7,-885.3,0,840,0,179,0, 
0.4700,-306.0,-255.9,654.0,203.7,-273.9,382.5,197.7,-578.4,-2519.4,914.4,-258.3,463.8,-1206.3,327.9,-372.3,174.3,-6.6,-6.0,-1215.6,-1755.0,-0.9,1.8,1013.7,-890.7,0,846,0,180,0, 
0.4733,-315.9,-258.3,653.7,205.2,-273.3,393.0,206.1,-572.1,1037.4,904.8,2173.5,2843.4,-1158.0,669.3,3544.8,186.3,-6.6,-6.0,-1203.0,-1751.1,-0.6,-12.9,1018.2,-862.5,0,852,0,181,0, 
0.4767,-317.7,-245.4,661.5,216.9,-265.5,396.9,211.5,-569.7,-3556.8,936.9,1264.2,2182.5,-1392.9,584.4,-936.9,162.6,-6.9,-5.7,-1202.4,-1734.0,-0.6,9.3,1025.4,-846.6,0,858,0,182,0, 
0.4800,-307.5,-230.1,675.0,231.0,-249.3,411.0,218.1,-567.9,-10003.5,953.7,-1803.3,-672.6,-1555.8,200.1,-7566.0,142.5,-6.6,-5.7,-1209.3,-1719.0,-0.6,14.4,1034.4,-832.2,0,864,0,183,0, 
0.4833,-306.0,-227.1,667.8,219.0,-264.3,392.1,207.0,-573.0,-9262.5,940.5,-2788.5,-1752.3,-1472.7,29.7,-7238.1,134.7,-6.9,-5.7,-1219.5,-1738.2,-0.9,-3.9,1010.7,-876.9,0,870,0,184,0, 
0.4867,-303.0,-231.0,671.7,217.8,-259.8,384.3,200.1,-562.5,-2519.4,941.1,-243.3,484.2,-1230.3,295.2,-424.2,127.8,-6.9,-6.0,-1202.1,-1735.2,-1.2,-0.9,1020.0,-909.0,0,876,0,185,0, 
0.4900,-296.7,-228.0,675.3,221.7,-264.6,388.8,207.3,-555.9,1185.6,939.0,2073.3,2906.4,-1110.6,646.8,3499.2,153.0,-7.2,-6.0,-1190.4,-1732.2,-0.9,2.1,1024.2,-902.1,0,882,0,186,0, 
0.4933,-310.5,-242.7,660.0,215.7,-275.4,383.4,208.5,-566.7,-3482.7,925.5,1161.9,2148.9,-1329.3,576.9,-941.4,141.6,-6.9,-6.0,-1229.4,-1744.5,-0.6,-3.9,1018.2,-894.9,0,888,0,187,0, 
0.4967,-320.1,-246.0,656.7,212.7,-272.1,382.2,201.0,-579.0,-10003.5,937.8,-1863.6,-783.0,-1584.0,176.7,-7576.2,150.9,-6.9,-5.7,-1251.9,-1740.0,-0.9,9.6,1011.6,-899.4,0,894,0,188,0, 
0.5000,-329.4,-251.7,652.2,208.5,-272.7,385.2,200.4,-580.2,-9262.5,927.9,-2863.8,-1981.2,-1497.3,21.3,-7260.0,161.7,-6.6,-5.7,-1252.8,-1750.2,-0.6,-2.4,1009.8,-880.5,0,900,0,189,0, 
0.5033,-321.6,-260.7,652.5,212.4,-275.4,392.1,204.9,-569.4,-2519.4,925.5,-423.6,264.0,-1197.9,313.2,-431.4,153.0,-6.9,-6.0,-1237.2,-1748.4,-0.6,-3.3,1003.5,-853.2,0,906,0,190,0, 
0.5067,-318.6,-260.4,651.9,212.4,-271.8,395.1,205.5,-561.0,1111.5,935.7,1985.1,2682.9,-1134.0,648.6,3476.1,145.5,-6.9,-5.7,-1216.5,-1745.4,-0.6,-9.6,994.2,-842.4,0,912,0,191,0, 
0.5100,-316.2,-244.2,651.6,213.6,-270.0,391.8,206.7,-563.1,-3556.8,921.6,1075.8,1986.6,-1330.8,562.2,-983.7,152.1,-7.2,-5.7,-1230.9,-1748.7,-0.9,-16.8,1006.5,-851.1,0,918,0,192,0, 
0.5133,-315.0,-252.9,646.2,214.5,-273.9,391.2,209.4,-572.7,-10003.5,920.1,-2016.0,-924.6,-1511.7,158.4,-7604.4,151.5,-6.6,-6.0,-1259.7,-1750.5,-0.6,-18.6,1026.6,-864.9,0,924,0,193,0, 
0.5167,-306.9,-242.1,650.4,225.9,-262.2,393.0,212.4,-567.6,-9336.6,927.3,-2943.6,-2007.9,-1425.6,11.4,-7275.6,158.4,-6.9,-6.0,-1251.0,-1742.1,-0.3,-5.4,1029.3,-870.9,0,930,0,194,0, 
0.5200,-309.9,-245.4,654.6,222.3,-264.0,385.5,206.1,-561.3,-2593.5,933.0,-371.7,225.3,-1227.9,305.4,-441.9,157.8,-6.9,-5.7,-1219.8,-1751.4,-0.9,-5.1,1016.1,-909.6,0,936,0,195,0, 
0.5233,-307.8,-243.6,648.3,223.8,-264.6,388.8,208.2,-556.5,889.2,922.2,2111.1,2712.0,-1175.4,651.9,3448.5,159.3,-6.9,-6.3,-1216.5,-1747.5,-0.6,1.8,1021.2,-905.4,0,942,0,196,0, 
0.5267,-310.8,-252.0,642.0,219.6,-267.9,392.7,210.6,-567.0,-3630.9,916.2,1176.9,2085.3,-1387.2,574.2,-1005.9,167.4,-6.9,-5.4,-1233.0,-1746.6,-0.9,8.7,1031.7,-860.7,0,948,0,197,0, 
0.5300,-307.5,-243.0,642.0,218.1,-270.9,395.4,210.0,-583.2,-10225.8,912.3,-1900.5,-861.9,-1558.8,171.3,-7631.4,147.3,-6.9,-5.7,-1261.8,-1751.1,-0.3,-5.4,1032.6,-855.9,0,954,0,198,0, 
0.5333,-311.4,-242.7,649.5,215.7,-272.4,385.5,207.9,-583.5,-9410.7,929.7,-2877.9,-2000.7,-1489.2,-6.0,-7282.8,144.9,-6.9,-6.0,-1249.8,-1750.5,-0.6,-15.0,1015.2,-889.2,0,960,0,199,0, 
0.5367,-314.1,-236.4,647.4,216.0,-270.0,379.2,204.9,-571.2,-2519.4,921.3,-520.8,161.1,-1236.6,273.9,-437.1,157.8,-6.9,-6.0,-1217.1,-1748.4,0.0,-13.5,1015.8,-914.7,0,966,0,200,0, 
0.5400,-315.3,-248.4,648.9,215.1,-265.8,382.8,201.3,-562.8,1037.4,924.9,1974.3,2593.2,-1133.4,651.9,3456.9,155.7,-6.6,-5.7,-1200.0,-1756.5,-0.6,-24.9,1001.4,-892.8,0,972,0,201,0, 
0.5433,-312.0,-246.3,652.5,218.4,-262.8,390.6,211.2,-563.4,-3705.0,938.7,1054.5,1946.4,-1309.8,578.7,-1007.1,150.0,-6.9,-6.0,-1221.0,-1750.5,-0.6,-22.8,1017.0,-879.9,0,978,0,202,0, 
0.5467,-321.6,-262.5,632.4,207.6,-274.2,387.3,208.8,-581.7,-10003.5,917.4,-2029.5,-894.3,-1547.4,173.7,-7617.3,146.1,-6.9,-5.4,-1264.2,-1760.4,-0.9,-33.0,1013.1,-900.9,0,984,0,203,0, 
0.5500,-314.7,-261.6,634.5,205.8,-280.8,378.0,193.8,-581.7,-9262.5,910.2,-2849.4,-1856.1,-1430.1,21.0,-7251.9,143.1,-6.6,-5.7,-1268.1,-1765.5,-0.3,-19.5,1005.6,-914.7,0,990,0,204,0, 
0.5533,-312.0,-254.7,644.1,213.3,-267.6,396.9,201.6,-566.1,-2519.4,919.8,-434.7,285.3,-1189.2,289.5,-395.7,150.0,-6.9,-6.0,-1248.9,-1759.8,-0.6,-15.0,1030.5,-895.2,0,996,0,205,0, 
0.5567,-314.1,-257.4,640.2,214.2,-262.5,403.8,204.0,-555.9,963.3,896.4,2042.4,2832.6,-1148.7,634.5,3479.1,164.4,-6.6,-5.7,-1247.4,-1754.4,-0.6,2.1,1034.1,-871.2,0,1002,0,206,0, 
0.5600,-309.9,-239.1,648.6,222.3,-256.2,411.9,207.3,-559.2,-3630.9,910.2,1098.9,1973.4,-1368.9,544.2,-993.9,156.3,-6.6,-5.7,-1253.1,-1746.9,-0.3,11.4,1043.1,-832.2,0,1008,0,207,0, 
0.5633,-308.7,-228.6,648.0,226.2,-251.7,422.1,214.8,-567.6,-10003.5,918.9,-1923.9,-861.0,-1569.6,159.3,-7599.9,144.6,-6.6,-5.7,-1268.7,-1749.9,-0.9,7.5,1019.4,-800.7,0,1014,0,208,0, 
0.5667,-312.3,-229.8,655.8,228.6,-257.1,399.6,198.3,-568.5,-9410.7,925.8,-2791.2,-1955.1,-1474.5,6.9,-7221.6,128.7,-7.2,-6.0,-1260.0,-1757.7,-0.9,-21.9,982.5,-870.9,0,1020,0,209,0, 
0.5700,-306.6,-231.0,660.6,233.4,-254.1,398.1,201.3,-554.4,-2593.5,916.5,-281.4,329.7,-1229.7,298.8,-380.1,139.5,-6.6,-5.4,-1235.1,-1743.9,-0.6,-20.1,1017.0,-885.0,0,1026,0,210,0, 
0.5733,-309.9,-233.7,661.8,237.3,-249.3,400.2,205.8,-543.6,963.3,930.6,1980.3,2766.0,-1185.3,616.5,3459.9,141.0,-6.9,-6.0,-1218.9,-1734.6,-0.9,-10.5,1011.6,-889.2,0,1032,0,211,0, 
0.5767,-313.2,-234.6,656.1,235.8,-251.7,391.5,203.1,-551.4,-3630.9,938.1,936.0,2068.2,-1370.7,557.4,-1023.0,137.7,-6.9,-6.3,-1238.1,-1741.2,-0.6,-19.2,997.8,-905.4,0,1038,0,212,0, 
0.5800,-312.6,-247.5,649.8,228.0,-258.3,383.1,202.5,-563.4,-9855.3,942.6,-2173.5,-841.8,-1530.3,194.1,-7615.8,142.8,-7.2,-5.7,-1267.5,-1745.1,-0.9,-13.2,999.9,-922.8,0,1044,0,213,0, 
0.5833,-309.0,-243.9,654.9,232.5,-247.8,392.7,206.7,-560.1,-9336.6,946.8,-3110.4,-2032.2,-1421.4,33.0,-7215.9,147.6,-6.9,-5.7,-1261.8,-1734.3,-0.6,9.0,1013.7,-909.6,0,1050,0,214,0, 
0.5867,-306.3,-251.4,663.0,232.5,-250.2,395.7,205.5,-549.3,-2371.2,940.8,-488.7,181.2,-1177.2,321.9,-306.9,148.5,-6.6,-5.7,-1248.3,-1734.6,-0.3,5.4,1024.2,-897.3,0,1056,0,215,0, 
0.5900,-302.1,-239.4,666.9,225.9,-257.4,393.3,201.6,-549.0,1185.6,942.0,1938.3,2616.6,-1122.6,663.6,3537.0,151.2,-6.9,-6.3,-1243.5,-1744.2,-0.9,-7.8,1007.7,-880.5,0,1062,0,216,0, 
0.5933,-303.0,-233.1,666.3,226.8,-262.2,406.8,209.1,-552.9,-3630.9,932.4,969.0,1862.4,-1384.8,581.1,-1045.2,153.9,-6.9,-5.7,-1272.0,-1736.7,-0.9,7.5,1015.2,-850.5,0,1068,0,217,0, 
0.5967,-306.9,-225.3,674.1,232.2,-255.3,411.6,216.6,-562.2,-10003.5,941.1,-2135.1,-1022.7,-1555.2,170.4,-7708.8,159.9,-6.9,-5.7,-1283.1,-1734.0,-0.3,-6.9,1037.1,-838.8,0,1074,0,218,0, 
0.6000,-303.6,-233.4,670.8,233.4,-248.4,402.9,208.8,-568.5,-9336.6,936.9,-3041.1,-2057.7,-1433.7,19.2,-7210.2,146.4,-7.2,-6.0,-1290.6,-1735.2,-0.6,12.6,1016.4,-827.4,0,1080,0,219,0, 
0.6033,-299.1,-230.7,687.6,239.1,-241.5,413.1,205.5,-555.3,-2223.0,948.3,-355.2,208.2,-1153.5,306.9,-141.6,142.5,-6.9,-6.3,-1263.6,-1731.9,-0.6,-4.8,1006.2,-801.9,0,1086,0,220,0, 
0.6067,-299.1,-230.1,691.2,237.6,-245.4,401.7,204.0,-547.2,1259.7,933.3,2174.7,2766.6,-1105.8,659.7,3692.4,167.7,-6.9,-5.7,-1253.1,-1726.8,-0.9,-2.7,1016.1,-830.7,0,1092,0,221,0, 
0.6100,-298.5,-235.5,682.5,232.5,-251.1,393.6,207.3,-561.3,-4001.4,949.2,930.6,1927.2,-1338.6,570.3,-1246.2,162.0,-6.9,-5.4,-1275.0,-1742.7,-0.9,-8.1,1032.6,-876.3,0,1098,0,222,0, 
0.6133,-294.3,-230.7,686.4,231.0,-248.1,389.1,209.1,-571.5,-11115.0,952.5,-2977.5,-1468.8,-1578.6,137.4,-8706.0,153.3,-7.2,-5.7,-1305.6,-1737.9,-0.6,3.0,1029.6,-887.7,0,1104,0,223,0, 
0.6167,-294.6,-236.7,680.1,224.1,-251.1,394.5,209.1,-575.1,-10077.6,928.5,-4335.6,-2807.4,-1496.1,-45.9,-7994.1,156.3,-6.9,-6.0,-1330.2,-1744.8,-0.3,-1.8,1013.1,-870.9,0,1110,0,224,0, 
0.6200,-300.6,-242.1,687.6,227.4,-249.3,399.0,213.0,-558.6,-1704.3,936.0,-813.6,-8.4,-1173.6,289.5,408.0,173.1,-7.2,-6.3,-1303.8,-1740.9,-0.9,-7.2,1023.3,-873.0,0,1116,0,225,0, 
0.6233,-298.5,-244.5,693.0,229.5,-254.4,387.0,203.1,-556.2,2074.8,927.6,2442.0,2936.4,-1050.3,718.5,4767.3,169.5,-6.6,-6.0,-1274.7,-1741.8,-0.9,-14.7,1046.1,-891.3,0,1122,0,226,0, 
0.6267,-306.0,-270.6,676.8,215.7,-265.2,380.4,204.0,-574.2,-3779.1,931.8,1205.7,2118.9,-1337.7,621.6,-983.4,189.3,-7.2,-5.7,-1308.3,-1748.1,-0.9,-15.9,1053.9,-898.5,0,1128,0,227,0, 
0.6300,-294.3,-240.9,701.4,239.1,-242.7,402.3,209.1,-566.4,-11263.2,948.9,-2994.9,-1469.1,-1534.2,157.8,-8799.3,158.4,-6.9,-5.7,-1315.8,-1721.7,-0.9,19.2,1017.3,-863.7,0,1134,0,228,0, 
0.6333,-290.1,-242.7,711.3,246.9,-234.9,414.6,222.3,-557.1,-10003.5,967.2,-4344.9,-2723.4,-1458.6,-34.2,-8015.7,141.3,-6.3,-5.7,-1297.8,-1714.8,-0.6,23.1,1056.0,-814.5,0,1140,0,229,0, 
0.6367,-288.9,-240.3,704.7,239.1,-248.1,389.7,204.0,-553.2,-1704.3,948.0,-888.0,75.0,-1156.2,333.9,442.5,159.6,-6.9,-6.0,-1273.8,-1735.2,-0.9,6.0,1012.2,-845.4,0,1146,0,230,0, 
0.6400,-286.8,-241.2,708.9,237.9,-244.8,389.7,209.1,-546.3,2148.9,950.4,2493.6,2977.5,-1074.3,711.0,4770.6,160.5,-7.2,-5.7,-1259.4,-1724.7,-0.3,8.1,1016.4,-858.6,0,1152,0,231,0, 
0.6433,-287.1,-250.2,697.5,231.3,-251.7,399.9,218.1,-553.8,-3853.2,945.3,1241.1,2067.9,-1354.2,616.8,-1032.9,157.2,-6.6,-6.0,-1299.9,-1735.8,-0.9,8.1,1040.7,-827.7,0,1158,0,232,0, 
0.6467,-284.1,-234.3,697.8,231.9,-250.8,401.4,218.1,-564.0,-11337.3,948.9,-2914.2,-1437.6,-1666.2,126.9,-8855.4,162.6,-6.9,-5.7,-1325.1,-1734.3,-0.6,13.5,1036.5,-829.5,0,1164,0,233,0, 
0.6500,-278.1,-217.8,707.4,236.4,-245.4,401.1,208.8,-558.3,-10003.5,957.0,-4252.5,-2727.9,-1560.6,-50.7,-8037.3,153.0,-6.9,-5.7,-1310.7,-1734.6,-0.9,15.9,1010.1,-850.2,0,1170,0,234,0, 
0.6533,-284.4,-237.0,701.7,231.9,-246.0,406.5,207.9,-551.1,-1630.2,944.4,-694.2,84.0,-1158.3,310.2,439.8,148.8,-7.2,-6.0,-1285.2,-1739.4,-1.2,9.3,1034.7,-845.7,0,1176,0,235,0, 
0.6567,-293.4,-249.9,697.2,229.8,-249.6,393.9,205.2,-549.0,2148.9,938.7,2625.6,3008.4,-1101.9,707.4,4751.7,160.2,-6.3,-5.1,-1272.9,-1738.8,-0.6,4.5,1030.8,-826.2,0,1182,0,236,0, 
0.6600,-295.2,-260.1,693.6,231.3,-249.9,390.0,212.4,-561.9,-3779.1,933.3,1368.6,2108.7,-1368.9,606.0,-1033.2,183.3,-6.6,-5.7,-1298.7,-1736.7,-0.9,4.2,1048.5,-829.8,0,1188,0,237,0, 
0.6633,-286.5,-249.0,697.5,229.2,-250.5,386.1,204.6,-574.2,-11263.2,946.8,-2869.5,-1419.3,-1566.0,156.6,-8844.9,162.6,-7.2,-5.7,-1320.9,-1740.9,-0.9,10.8,1022.1,-862.5,0,1194,0,238,0, 
0.6667,-287.1,-246.3,706.8,234.6,-247.2,395.1,205.8,-574.8,-10003.5,942.0,-4246.8,-2720.4,-1420.8,-45.3,-8000.7,148.8,-7.2,-6.6,-1314.6,-1740.9,-1.2,0.3,1022.7,-844.2,0,1200,0,239,0, 
0.6700,-289.5,-243.3,711.6,231.3,-250.2,388.2,197.7,-560.4,-1630.2,943.8,-795.9,111.9,-1092.6,294.0,456.6,156.3,-6.9,-5.7,-1285.2,-1746.0,-0.6,-24.9,999.6,-855.9,0,1206,0,240,0, 
0.6733,-291.6,-247.5,709.8,231.3,-249.6,391.8,202.8,-552.3,2223.0,940.5,2716.8,3067.5,-1064.4,705.9,4778.7,157.8,-6.6,-6.0,-1274.4,-1737.0,-0.6,-11.1,1023.9,-866.1,0,1212,0,241,0, 
0.6767,-286.5,-238.5,714.3,237.3,-245.4,393.3,203.4,-551.7,-3705.0,948.3,1348.8,2139.0,-1394.7,583.8,-1088.7,153.0,-6.9,-6.3,-1289.7,-1735.2,-0.6,1.5,1008.3,-875.1,0,1218,0,242,0, 
0.6800,-299.7,-243.0,704.4,236.1,-249.9,398.4,205.5,-568.8,-11411.4,947.7,-2928.6,-1525.8,-1706.7,92.1,-8929.5,154.5,-6.6,-6.3,-1323.9,-1736.1,-0.3,2.1,1034.4,-857.4,0,1224,0,243,0, 
0.6833,-292.2,-244.2,710.4,234.6,-249.3,392.4,192.6,-569.4,-10077.6,945.9,-4248.6,-2835.0,-1463.1,-43.5,-8089.2,147.0,-6.9,-5.7,-1317.3,-1740.3,-0.9,-18.6,998.1,-883.5,0,1230,0,244,0, 
0.6867,-293.1,-267.9,697.8,223.8,-255.6,388.2,193.5,-559.5,-1630.2,930.3,-841.2,-11.1,-1149.0,336.3,427.8,157.8,-6.6,-6.0,-1308.0,-1751.4,-0.6,-22.2,1005.0,-901.2,0,1236,0,245,0, 
0.6900,-294.3,-275.4,697.2,223.8,-253.5,387.0,190.2,-550.8,2223.0,939.9,2613.9,2934.0,-1100.7,742.2,4731.3,155.1,-6.9,-5.7,-1299.0,-1746.6,-0.3,-5.7,1001.4,-874.2,0,1242,0,246,0, 
0.6933,-291.6,-258.6,699.9,225.6,-252.0,398.4,200.4,-552.6,-3705.0,945.9,1334.7,1908.6,-1385.4,623.7,-1116.0,161.4,-7.2,-6.0,-1322.1,-1745.7,-0.9,2.1,1020.9,-864.6,0,1248,0,247,0, 
0.6967,-294.0,-265.5,687.3,216.9,-260.4,394.2,200.4,-571.8,-11411.4,937.8,-2915.7,-1677.9,-1595.1,147.0,-8930.1,161.7,-6.9,-5.4,-1363.8,-1753.5,-0.9,-3.9,1036.5,-870.9,0,1254,0,248,0, 
0.7000,-296.7,-263.7,683.7,213.0,-264.3,388.5,188.7,-575.1,-10003.5,925.8,-4297.2,-2971.2,-1467.6,-24.6,-8077.5,151.8,-6.9,-6.3,-1376.7,-1765.2,-0.6,-4.5,1011.3,-882.6,0,1260,0,249,0, 
0.7033,-294.6,-255.0,711.3,228.6,-249.9,394.5,192.9,-555.3,-1556.1,949.5,-796.8,-32.7,-1194.3,336.9,463.2,156.0,-7.2,-5.4,-1303.2,-1745.1,-0.6,6.3,1042.8,-870.3,0,1266,0,250,0, 
0.7067,-283.2,-231.6,738.0,254.4,-230.4,404.4,199.8,-538.2,2371.2,971.7,2642.7,3031.5,-1106.1,741.0,4810.8,167.4,-6.9,-6.0,-1238.7,-1709.4,-0.9,24.6,1017.6,-840.6,0,1272,0,251,0, 
0.7100,-288.3,-244.2,722.4,245.1,-239.4,407.7,202.5,-545.7,-3779.1,944.7,1197.6,2092.5,-1346.7,635.4,-1027.8,162.0,-7.2,-6.0,-1296.6,-1726.5,-0.6,16.5,1013.4,-795.3,0,1278,0,252,0, 
0.7133,-288.6,-231.9,718.2,241.8,-243.0,411.6,202.2,-556.2,-11411.4,948.6,-3081.6,-1564.8,-1545.6,141.9,-8852.4,159.9,-6.9,-5.7,-1334.7,-1746.6,-0.9,-1.5,1006.8,-786.3,0,1284,0,253,0, 
0.7167,-283.8,-238.5,713.7,232.2,-258.0,400.5,198.6,-563.4,-10077.6,936.6,-4241.1,-2871.0,-1434.9,-43.2,-7966.8,168.9,-6.3,-5.1,-1343.4,-1765.5,0.0,-23.1,1033.5,-834.6,0,1290,0,254,0, 
0.7200,-278.1,-240.9,719.4,239.1,-247.8,400.8,203.7,-543.3,-1482.0,949.8,-813.3,-3.3,-1162.5,325.2,565.8,172.2,-6.9,-5.7,-1309.2,-1753.8,-0.9,-9.3,1026.6,-848.7,0,1296,0,255,0, 
0.7233,-279.3,-237.3,719.4,239.1,-246.3,407.4,208.5,-536.1,2297.1,938.4,2566.5,3027.0,-1072.8,748.5,4886.1,169.2,-6.9,-5.7,-1300.5,-1745.4,-0.3,-4.2,1042.8,-820.2,0,1302,0,0,0, 
0.7267,-285.3,-234.6,722.4,242.4,-236.7,414.0,216.3,-544.8,-3779.1,944.7,1263.6,2053.5,-1363.5,613.2,-1025.7,173.7,-6.9,-6.0,-1310.7,-1726.8,-0.6,15.6,1061.4,-820.5,0,1308,0,1,0, 
0.7300,-285.6,-240.6,719.1,243.3,-234.9,411.3,219.0,-558.0,-11485.5,951.0,-2924.1,-1468.8,-1631.4,148.2,-8894.1,173.7,-7.2,-5.7,-1333.5,-1720.5,-0.6,37.5,1069.2,-851.4,0,1314,0,2,0, 
0.7333,-274.2,-238.8,714.6,234.6,-239.7,398.1,214.2,-561.6,-10077.6,940.5,-4245.3,-2811.9,-1443.6,-35.7,-7970.1,167.1,-7.2,-6.0,-1337.7,-1737.6,-0.6,0.0,1058.7,-860.1,0,1320,0,3,0, 
0.7367,-277.2,-234.9,721.5,237.0,-236.7,396.6,202.2,-549.6,-1556.1,951.0,-702.3,14.7,-1140.0,324.6,557.7,167.7,-7.2,-5.7,-1311.6,-1744.8,-0.6,11.7,1019.4,-855.3,0,1326,0,4,0, 
0.7400,-275.7,-225.6,733.2,250.5,-223.5,409.8,210.6,-537.0,2371.2,976.5,2843.7,3144.3,-1034.4,729.9,4867.8,162.0,-7.2,-5.7,-1276.8,-1729.2,-0.6,4.5,1006.5,-825.0,0,1332,0,5,0, 
0.7433,-288.3,-244.5,722.4,243.9,-224.4,406.5,212.4,-549.3,-3630.9,969.9,1469.7,2154.3,-1373.1,598.5,-1011.9,162.6,-7.2,-6.0,-1311.6,-1725.9,-0.9,11.1,1032.3,-831.3,0,1338,0,6,0, 
0.7467,-286.8,-243.0,712.8,238.2,-233.7,399.0,208.8,-564.0,-11337.3,957.9,-2757.3,-1380.0,-1594.5,147.9,-8857.2,155.7,-6.9,-6.0,-1355.4,-1740.6,-0.6,8.7,1031.4,-861.9,0,1344,0,7,0, 
0.7500,-276.3,-234.0,726.3,240.9,-229.2,402.3,204.9,-557.4,-9855.3,951.0,-4007.4,-2681.4,-1476.6,-33.6,-7922.7,155.1,-6.9,-6.0,-1338.9,-1738.8,-0.3,2.7,1035.9,-886.5,0,1350,0,8,0, 
0.7533,-274.2,-234.0,723.6,239.4,-224.7,404.1,207.0,-544.2,-1482.0,945.3,-380.7,234.9,-1203.0,349.5,624.9,155.4,-6.6,-5.7,-1308.6,-1745.1,-0.3,-5.1,1005.9,-865.2,0,1356,0,9,0, 
0.7567,-277.5,-233.4,723.9,237.9,-224.7,399.0,199.2,-535.5,2445.3,944.1,3123.9,3285.0,-1087.8,773.4,4934.1,170.7,-6.9,-5.7,-1275.3,-1737.3,-0.9,8.1,1010.1,-838.2,0,1362,0,10,0, 
0.7600,-281.4,-243.0,717.0,242.7,-222.6,420.9,212.1,-540.6,-3556.8,959.4,1897.8,2394.9,-1340.4,645.0,-949.5,154.8,-6.6,-6.0,-1300.8,-1729.8,-0.6,18.3,1024.8,-785.1,0,1368,0,11,0, 
0.7633,-273.9,-234.6,718.5,244.8,-221.1,432.0,218.7,-549.3,-11263.2,966.9,-2175.6,-1134.3,-1514.1,134.4,-8811.0,165.0,-6.6,-5.7,-1327.5,-1724.1,-0.6,23.1,1043.7,-769.5,0,1374,0,12,0, 
0.7667,-270.6,-225.0,724.8,246.6,-222.3,418.8,209.1,-554.1,-10151.7,969.6,-3452.7,-2375.1,-1370.7,-57.9,-7900.5,168.3,-6.9,-6.0,-1321.8,-1731.9,-0.9,8.4,1021.5,-814.8,0,1380,0,13,0, 
0.7700,-281.1,-254.4,722.4,241.2,-221.7,424.5,210.9,-542.4,-1556.1,956.1,75.0,423.0,-1118.1,321.0,620.4,153.0,-6.6,-6.0,-1300.2,-1732.5,-0.3,18.9,1051.8,-836.7,0,1386,0,14,0, 
0.7733,-283.8,-253.8,713.1,243.6,-226.2,414.6,207.3,-538.5,2371.2,965.1,3534.6,3388.2,-1098.0,719.4,4896.6,165.0,-6.9,-5.7,-1290.0,-1740.9,-0.9,10.2,1030.8,-855.3,0,1392,0,15,0, 
0.7767,-282.6,-245.7,713.7,243.0,-225.0,412.8,204.6,-544.2,-3705.0,968.7,2186.7,2394.6,-1373.1,594.3,-1025.7,150.6,-6.9,-5.7,-1307.4,-1734.6,-0.6,26.7,1035.6,-864.9,0,1398,0,16,0, 
0.7800,-284.4,-241.2,713.1,247.2,-225.0,413.1,207.9,-554.7,-11263.2,958.2,-2045.4,-1065.3,-1554.0,138.3,-8860.2,155.7,-7.2,-5.7,-1340.1,-1735.8,-1.5,22.8,1025.7,-858.9,0,1404,0,17,0, 
0.7833,-286.2,-252.6,703.8,239.1,-227.1,418.2,205.5,-560.7,-10077.6,955.2,-3290.1,-2346.3,-1477.5,-33.3,-7930.2,154.8,-7.2,-6.0,-1341.9,-1737.3,-0.9,17.7,1036.2,-875.4,0,1410,0,18,0, 
0.7867,-286.5,-259.8,702.9,231.9,-233.1,402.0,197.1,-549.0,-1556.1,947.7,161.4,504.0,-1209.3,329.7,619.5,165.9,-7.5,-6.0,-1311.3,-1743.0,-0.9,7.5,1007.1,-888.9,0,1416,0,19,0, 
0.7900,-286.5,-262.8,693.9,222.3,-242.1,402.3,197.4,-548.1,2371.2,938.4,3545.7,3433.5,-1074.6,747.9,4915.8,178.5,-6.3,-5.7,-1308.9,-1748.4,-0.6,-3.3,1023.0,-871.2,0,1422,0,20,0, 
0.7933,-293.4,-266.4,691.8,220.8,-248.4,399.9,199.5,-557.7,-3630.9,939.9,2199.0,2515.2,-1326.3,627.6,-962.7,175.8,-7.2,-6.3,-1326.9,-1755.9,-0.6,-2.4,1025.1,-872.7,0,1428,0,21,0, 
0.7967,-293.4,-240.3,704.1,233.1,-235.8,414.9,204.6,-563.4,-11337.3,958.8,-2064.3,-1129.2,-1647.9,133.5,-8845.8,155.7,-6.6,-5.7,-1338.3,-1742.4,-0.3,15.3,1047.6,-825.0,0,1434,0,22,0, 
0.8000,-290.1,-239.7,708.9,241.2,-228.3,411.0,199.5,-560.7,-9929.4,960.3,-3341.7,-2355.0,-1479.6,-53.4,-7899.9,156.0,-6.9,-6.0,-1337.7,-1738.5,-0.9,21.0,1026.0,-843.9,0,1440,0,23,0, 
0.8033,-293.7,-262.8,694.2,233.4,-226.8,419.1,200.1,-552.0,-1556.1,948.0,103.2,450.9,-1149.0,333.9,673.5,175.2,-7.2,-5.7,-1329.3,-1739.7,-0.6,17.1,1044.9,-828.0,0,1446,0,24,0, 
0.8067,-287.4,-253.8,698.1,238.2,-228.0,426.9,206.1,-541.2,2371.2,949.5,3400.5,3403.8,-1069.5,743.7,4936.8,170.1,-7.2,-5.7,-1311.0,-1734.6,-0.9,17.4,1043.1,-802.5,0,1452,0,25,0, 
0.8100,-285.0,-257.4,692.1,235.8,-233.1,421.5,202.8,-552.3,-3556.8,939.3,2048.7,2511.9,-1332.9,631.5,-957.0,171.6,-7.2,-6.3,-1332.6,-1735.5,-0.6,19.8,1047.0,-816.6,0,1458,0,26,0, 
0.8133,-276.0,-236.7,698.7,234.9,-236.7,410.4,195.9,-566.4,-11263.2,958.2,-2138.1,-1024.8,-1554.3,163.2,-8816.4,156.0,-6.9,-6.0,-1363.2,-1743.3,-0.9,13.5,1016.7,-849.9,0,1464,0,27,0, 
0.8167,-279.0,-237.3,693.9,230.4,-243.3,405.3,195.0,-564.9,-9781.2,946.8,-3445.5,-2334.0,-1468.2,-37.8,-7815.3,153.0,-6.9,-6.3,-1365.9,-1759.2,-0.9,-3.3,1017.0,-867.3,0,1470,0,28,0, 
0.8200,-296.7,-253.5,686.1,222.6,-253.2,399.6,189.3,-555.6,-1556.1,933.3,-19.2,482.1,-1188.3,315.0,656.4,159.6,-6.6,-5.7,-1340.4,-1766.4,-0.9,-21.3,1009.8,-879.6,0,1476,0,29,0, 
0.8233,-290.1,-247.5,688.5,222.6,-252.9,404.1,191.1,-544.2,2371.2,946.2,3380.7,3397.5,-1110.3,724.5,4926.9,155.1,-6.9,-6.0,-1325.4,-1768.8,-0.9,-17.1,1020.0,-858.3,0,1482,0,30,0, 
0.8267,-284.1,-248.1,683.1,220.2,-258.0,408.3,195.6,-553.5,-3779.1,936.9,1981.8,2540.4,-1369.5,626.4,-960.6,150.9,-7.2,-6.0,-1352.7,-1768.2,-0.6,-22.5,1018.5,-837.3,0,1488,0,31,0, 
0.8300,-277.2,-232.5,687.0,225.6,-257.4,398.1,189.3,-565.5,-11263.2,941.4,-2268.9,-1135.5,-1583.1,171.6,-8802.3,138.9,-6.9,-6.3,-1379.1,-1764.3,-0.6,-13.5,1007.1,-886.5,0,1494,0,32,0, 
0.8333,-282.0,-242.1,693.3,230.1,-249.3,403.5,196.2,-566.1,-9929.4,949.5,-3577.5,-2228.1,-1476.9,-36.3,-7858.2,149.4,-6.9,-5.7,-1356.3,-1755.3,-0.6,0.0,1029.3,-886.5,0,1500,0,33,0, 
0.8367,-285.6,-248.7,691.8,231.6,-242.4,409.8,196.8,-548.7,-1482.0,940.2,-80.4,537.6,-1197.0,345.3,696.9,161.4,-6.9,-6.0,-1332.0,-1743.6,-0.9,5.7,1036.8,-870.3,0,1506,0,34,0, 
0.8400,-292.2,-259.2,687.0,223.5,-245.7,400.8,195.3,-546.3,2371.2,942.0,3269.4,3422.4,-1107.6,747.9,4957.8,169.2,-6.9,-6.0,-1317.3,-1751.4,-0.6,6.6,1046.4,-870.6,0,1512,0,35,0, 
0.8433,-291.6,-263.7,680.4,227.1,-244.5,411.3,201.3,-552.9,-3630.9,942.0,1915.5,2528.7,-1338.6,629.7,-935.4,170.1,-6.9,-5.7,-1338.3,-1746.9,-0.6,14.4,1038.6,-837.3,0,1518,0,36,0, 
0.8467,-280.8,-254.4,687.0,229.8,-245.4,417.6,203.1,-563.4,-11263.2,954.0,-2229.0,-916.5,-1567.5,174.6,-8774.7,156.0,-6.9,-6.0,-1365.3,-1747.5,-0.9,14.7,1003.5,-835.2,0,1524,0,37,0, 
0.8500,-284.7,-247.5,687.0,230.4,-242.7,420.9,205.8,-560.4,-9781.2,956.4,-3492.3,-2082.0,-1455.3,-19.8,-7762.8,159.3,-6.9,-5.7,-1348.2,-1745.1,-0.9,10.5,1040.7,-838.8,0,1530,0,38,0, 
0.8533,-274.8,-244.8,682.2,225.0,-254.7,415.2,196.8,-550.5,-1407.9,938.7,83.4,775.8,-1138.8,352.8,773.1,148.8,-6.6,-6.3,-1329.9,-1760.7,-0.9,1.2,1043.1,-837.9,0,1536,0,39,0, 
0.8567,-277.5,-245.7,682.2,225.9,-254.4,418.5,203.4,-538.2,2445.3,944.4,3544.8,3690.0,-1130.7,751.5,5012.4,160.8,-7.2,-5.7,-1320.9,-1751.7,-0.9,-9.0,1034.4,-823.2,0,1542,0,40,0, 
0.8600,-281.4,-230.1,700.5,243.6,-250.5,413.1,206.7,-537.3,-3630.9,971.1,2279.7,2790.0,-1378.2,632.1,-918.9,162.3,-6.9,-6.0,-1325.4,-1734.6,-0.6,15.3,1026.3,-857.7,0,1548,0,41,0, 
0.8633,-265.8,-217.5,702.3,243.3,-243.9,415.8,211.2,-546.3,-11115.0,970.5,-1901.1,-849.6,-1584.0,172.8,-8769.3,170.7,-6.9,-6.3,-1356.6,-1728.0,-0.6,19.2,1033.8,-845.1,0,1554,0,42,0, 
0.8667,-278.1,-225.3,689.4,236.7,-245.7,412.8,208.5,-556.2,-9855.3,951.0,-3258.9,-2106.0,-1548.6,-1.2,-7781.7,169.8,-7.2,-6.3,-1362.0,-1731.9,-0.6,15.9,1029.3,-843.0,0,1560,0,43,0, 
0.8700,-284.7,-232.2,691.2,237.9,-239.7,416.7,208.8,-540.6,-1407.9,945.3,323.4,770.4,-1185.0,353.1,698.4,181.2,-6.9,-6.3,-1323.6,-1734.0,-0.6,1.8,1048.8,-851.7,0,1566,0,44,0, 
0.8733,-285.0,-227.1,697.8,242.4,-236.7,414.6,207.9,-528.3,2371.2,943.8,3620.7,3685.5,-1055.1,740.1,4926.0,174.9,-6.9,-6.0,-1300.8,-1733.1,-0.6,12.6,1043.7,-858.9,0,1572,0,45,0, 
0.8767,-282.0,-235.8,693.6,241.5,-237.9,417.9,205.2,-540.0,-3853.2,960.3,2358.6,2771.7,-1301.7,631.2,-1000.5,159.9,-7.8,-6.0,-1317.0,-1725.3,-0.6,30.6,1032.9,-856.8,0,1578,0,46,0, 
0.8800,-282.3,-239.4,687.0,244.5,-240.6,427.2,207.9,-555.6,-11263.2,962.1,-2001.3,-808.5,-1530.0,173.4,-8825.7,162.3,-6.6,-5.7,-1344.3,-1723.2,-0.6,18.0,1031.7,-821.4,0,1584,0,47,0, 
0.8833,-281.4,-230.4,699.3,247.5,-233.1,431.7,207.0,-547.8,-10003.5,980.7,-3380.4,-2100.0,-1419.0,-20.7,-7863.9,153.3,-6.9,-6.3,-1331.4,-1718.4,-0.3,27.0,1020.3,-811.8,0,1590,0,48,0, 
0.8867,-284.7,-230.7,706.5,254.4,-225.0,436.5,208.5,-529.5,-1482.0,974.7,99.3,770.4,-1145.1,335.7,640.8,158.1,-6.9,-6.0,-1296.6,-1708.2,-0.6,42.0,1036.5,-835.2,0,1596,0,49,0, 
0.8900,-289.5,-236.1,699.0,246.0,-233.7,425.7,209.4,-527.7,2223.0,974.7,3421.8,3666.9,-1095.6,738.9,4875.0,160.2,-7.2,-6.0,-1285.2,-1717.2,-0.6,26.4,1047.6,-878.4,0,1602,0,50,0, 
0.8933,-290.1,-232.2,695.4,246.3,-238.5,432.6,217.8,-535.2,-4001.4,976.2,2001.3,2660.1,-1398.0,604.2,-1074.3,162.3,-6.3,-6.0,-1301.4,-1722.0,-0.6,30.3,1030.8,-848.7,0,1608,0,51,0, 
0.8967,-294.3,-237.0,679.8,233.4,-251.1,429.0,218.4,-553.8,-11337.3,946.8,-2190.0,-945.3,-1596.9,121.2,-8884.2,171.9,-6.6,-5.4,-1353.3,-1746.9,-0.9,-0.6,1044.3,-826.5,0,1614,0,52,0, 
0.9000,-286.8,-235.5,684.9,237.0,-243.6,424.8,207.6,-553.5,-10003.5,945.3,-3432.3,-2203.2,-1476.3,-35.4,-7904.4,159.9,-6.9,-6.0,-1335.9,-1737.0,-0.6,23.4,1037.4,-816.6,0,1620,0,53,0, 
0.9033,-280.2,-218.4,701.1,248.4,-231.6,431.7,207.3,-530.7,-1630.2,951.9,-89.1,570.3,-1195.5,333.3,625.2,152.4,-6.9,-5.7,-1292.1,-1721.7,-0.6,14.7,1020.9,-838.5,0,1626,0,54,0, 
0.9067,-282.9,-209.1,708.0,251.1,-239.4,417.6,201.0,-524.1,2223.0,957.3,3172.8,3518.7,-1133.7,727.8,4845.0,146.4,-6.9,-5.7,-1287.9,-1722.6,-1.5,19.5,1022.7,-891.0,0,1632,0,55,0, 
0.9100,-296.7,-228.9,688.8,239.7,-247.8,414.9,200.1,-544.8,-3779.1,956.4,1801.8,2563.2,-1393.5,613.5,-1083.0,157.8,-7.2,-6.0,-1326.6,-1731.3,-1.2,8.1,1021.5,-887.4,0,1638,0,56,0, 
0.9133,-308.4,-262.8,665.7,227.1,-261.9,415.8,202.5,-568.8,-11337.3,936.9,-2481.0,-1062.6,-1598.4,146.7,-8892.9,170.1,-7.2,-5.4,-1368.9,-1743.6,-0.3,-2.1,1032.9,-862.8,0,1644,0,57,0, 
0.9167,-291.6,-249.0,674.4,230.1,-253.8,417.6,201.3,-559.8,-9929.4,940.8,-3738.3,-2305.5,-1391.7,-24.3,-7867.5,159.6,-6.9,-6.0,-1369.5,-1741.5,-0.3,5.4,1023.0,-857.1,0,1650,0,58,0, 
0.9200,-297.9,-252.3,680.7,232.5,-248.1,418.5,201.0,-544.8,-1482.0,948.3,-192.9,498.6,-1095.0,310.8,668.4,157.8,-7.2,-5.7,-1339.8,-1731.3,-0.6,4.5,1039.5,-842.4,0,1656,0,59,0, 
0.9233,-291.9,-254.1,683.7,225.6,-263.7,397.5,191.7,-540.3,2297.1,962.7,3134.4,3425.4,-1068.9,735.3,4883.1,165.0,-7.2,-6.0,-1313.1,-1740.3,0.0,-7.8,1009.2,-874.8,0,1662,0,60,0, 
0.9267,-297.3,-251.1,675.9,224.1,-261.0,398.7,195.9,-549.6,-3779.1,952.8,1747.2,2435.4,-1373.1,605.7,-1042.5,150.3,-7.2,-5.4,-1338.3,-1734.9,-0.9,-2.7,1009.8,-867.6,0,1668,0,61,0, 
0.9300,-297.9,-236.7,684.9,233.1,-252.3,411.3,201.6,-557.1,-11337.3,964.2,-2468.7,-1108.5,-1579.5,135.6,-8859.6,154.8,-6.6,-5.4,-1369.2,-1726.5,-0.6,16.5,1015.2,-834.6,0,1674,0,62,0, 
0.9333,-295.5,-244.2,682.2,234.0,-247.2,417.9,203.7,-554.1,-9855.3,949.2,-3625.2,-2361.0,-1446.9,-27.0,-7787.7,155.7,-6.9,-6.3,-1369.8,-1725.6,-0.9,14.4,1014.9,-850.8,0,1680,0,63,0, 
0.9367,-286.8,-249.6,683.4,237.6,-249.6,402.6,195.6,-543.3,-1407.9,941.4,-130.2,451.5,-1161.0,351.6,734.1,164.4,-7.5,-6.0,-1347.6,-1732.5,-0.6,0.6,1020.6,-858.0,0,1686,0,64,0, 
0.9400,-292.8,-243.9,678.6,230.4,-254.7,408.0,200.4,-538.5,2297.1,931.2,3125.1,3385.8,-1089.3,747.9,4940.7,172.8,-6.9,-6.0,-1333.5,-1737.6,-0.9,-12.9,1031.4,-847.8,0,1692,0,65,0, 
0.9433,-303.6,-249.6,684.3,239.1,-246.6,417.6,208.2,-543.3,-3853.2,954.6,1923.9,2542.8,-1372.5,594.6,-999.0,179.4,-7.2,-5.7,-1335.3,-1725.3,-0.6,15.6,1050.9,-857.1,0,1698,0,66,0, 
0.9467,-304.8,-251.1,675.6,234.9,-251.7,416.1,205.8,-566.1,-11263.2,959.7,-2283.0,-1094.1,-1611.3,131.4,-8821.8,168.3,-6.6,-6.0,-1367.7,-1728.9,-0.9,19.2,1049.7,-882.3,0,1704,0,67,0, 
0.9500,-291.0,-250.8,676.2,228.9,-258.6,409.2,200.4,-563.7,-9855.3,957.0,-3467.7,-2326.5,-1459.8,-23.4,-7748.1,161.7,-6.9,-6.0,-1369.8,-1732.8,-0.6,9.6,1028.4,-894.6,0,1710,0,68,0, 
0.9533,-296.4,-252.6,677.4,228.3,-256.2,418.5,199.8,-547.5,-1259.7,934.5,16.8,550.5,-1194.0,346.8,741.0,157.2,-6.9,-5.7,-1336.8,-1730.7,-0.9,9.3,1003.2,-874.2,0,1716,0,69,0, 
0.9567,-292.2,-238.5,682.8,229.8,-255.3,409.5,201.3,-534.0,2371.2,943.5,3329.7,3500.1,-1137.3,747.0,4925.4,151.5,-7.2,-5.7,-1314.0,-1740.3,-0.6,-1.5,1037.1,-889.5,0,1722,0,70,0, 
0.9600,-287.1,-226.5,680.1,236.4,-252.0,416.1,207.3,-539.7,-3779.1,951.9,1904.1,2505.9,-1362.6,616.5,-1001.7,162.6,-6.6,-6.0,-1337.4,-1732.8,-0.3,13.8,1038.6,-870.6,0,1728,0,71,0, 
0.9633,-286.8,-221.4,682.5,241.2,-252.0,417.0,205.5,-550.2,-11263.2,952.8,-2171.7,-1002.0,-1572.6,156.6,-8793.6,158.4,-6.6,-5.7,-1361.7,-1728.3,-0.9,14.4,1020.3,-878.1,0,1734,0,72,0, 
0.9667,-295.2,-237.9,672.0,228.0,-258.3,426.6,216.0,-558.3,-9781.2,938.1,-3369.9,-2268.6,-1441.2,-21.0,-7734.3,169.2,-6.9,-6.3,-1379.1,-1746.3,-0.9,2.4,1037.1,-840.0,0,1740,0,73,0, 
0.9700,-296.1,-242.7,671.7,229.2,-254.7,432.3,202.5,-546.3,-1407.9,941.1,62.7,585.9,-1163.4,357.9,753.6,159.6,-6.6,-5.7,-1346.7,-1746.3,-0.9,-15.9,1020.3,-774.0,0,1746,0,74,0, 
0.9733,-287.7,-228.3,683.7,241.8,-245.4,430.8,202.2,-528.6,2445.3,947.7,3402.3,3439.8,-1060.5,728.1,4920.3,152.4,-6.9,-6.0,-1317.9,-1726.2,-0.3,-3.9,1012.8,-769.8,0,1752,0,75,0, 
0.9767,-293.7,-227.7,687.6,243.9,-246.9,429.9,206.4,-536.7,-3630.9,954.9,2028.9,2423.4,-1401.6,595.2,-1023.6,168.9,-7.2,-5.4,-1338.6,-1723.2,-1.2,4.5,1022.4,-816.0,0,1758,0,76,0, 
0.9800,-288.3,-234.3,671.4,228.9,-265.2,402.9,198.3,-558.0,-11337.3,944.7,-2088.9,-1117.5,-1601.4,134.1,-8812.8,172.5,-6.6,-6.3,-1383.6,-1739.7,-0.6,-0.6,1014.3,-901.2,0,1764,0,77,0, 
0.9833,-286.8,-240.3,667.8,226.5,-265.2,399.9,195.6,-561.9,-9781.2,938.7,-3384.6,-2304.0,-1434.0,-22.2,-7724.4,167.4,-6.9,-5.7,-1388.7,-1744.2,-0.9,-4.2,1026.0,-913.5,0,1770,0,78,0, 
0.9867,-279.3,-232.8,675.6,229.5,-261.3,406.8,200.4,-541.5,-1259.7,943.8,50.7,501.9,-1164.6,372.0,803.7,164.1,-7.5,-5.7,-1349.4,-1744.8,-0.6,-13.2,1027.2,-890.4,0,1776,0,79,0, 
0.9900,-277.8,-223.5,689.1,238.8,-252.3,420.0,203.1,-529.2,2519.4,942.6,3410.1,3486.9,-1080.3,764.4,4970.7,169.2,-6.3,-5.7,-1326.9,-1731.0,-0.6,1.5,1032.3,-870.3,0,1782,0,80,0, 
0.9933,-297.9,-239.7,687.3,240.9,-246.9,411.3,210.0,-536.4,-3705.0,965.4,1981.5,2527.2,-1338.0,606.0,-991.2,159.0,-7.2,-5.7,-1353.3,-1722.6,-1.2,10.8,1037.1,-885.3,0,1788,0,81,0, 
0.9967,-294.6,-239.1,688.5,245.4,-247.8,417.9,210.0,-546.9,-11115.0,966.6,-2070.3,-1041.9,-1555.8,149.1,-8796.6,161.4,-6.9,-6.0,-1378.8,-1719.6,-0.3,-3.3,1028.1,-862.8,0,1794,0,82,0, 
1.0000,-290.1,-233.7,700.5,256.2,-238.5,429.3,209.4,-536.7,-9855.3,972.9,-3320.7,-2282.7,-1427.1,-24.9,-7705.5,148.8,-7.2,-6.0,-1367.1,-1716.0,-1.2,3.0,1016.7,-855.9,0,1800,0,83,0, 
1.0033,-291.3,-236.1,686.7,243.9,-244.2,416.1,204.0,-529.2,-1333.8,956.1,168.0,512.7,-1150.2,349.2,793.2,156.0,-6.9,-6.0,-1342.2,-1722.9,-0.3,-0.3,1011.6,-896.1,0,1806,0,84,0, 
1.0067,-291.0,-236.4,680.7,236.7,-245.1,424.5,206.7,-523.2,2371.2,947.1,3449.4,3402.3,-1119.9,750.6,4954.2,156.6,-6.9,-5.4,-1328.4,-1725.0,-0.9,-2.4,1026.0,-877.8,0,1812,0,85,0, 
1.0100,-293.1,-221.7,680.1,237.6,-249.6,432.6,215.1,-533.1,-3630.9,942.0,1969.2,2343.6,-1359.9,635.7,-986.7,158.1,-6.6,-5.7,-1350.6,-1728.0,-0.9,11.1,1041.9,-852.9,0,1818,0,86,0, 
1.0133,-292.8,-218.7,680.1,239.7,-246.9,437.1,209.7,-545.1,-11337.3,945.0,-2037.3,-1071.9,-1575.3,140.1,-8801.4,142.5,-6.3,-5.7,-1376.7,-1727.7,-0.6,12.0,1017.3,-821.4,0,1824,0,87,0, 
1.0167,-298.5,-222.3,681.9,241.2,-247.8,435.6,211.8,-549.6,-9707.1,950.4,-3331.2,-2303.1,-1441.2,-67.8,-7719.0,140.1,-6.9,-5.7,-1376.4,-1725.3,-0.3,11.1,1042.5,-828.0,0,1830,0,88,0, 
1.0200,-299.7,-229.8,681.9,243.9,-243.9,438.0,210.9,-530.4,-1333.8,955.5,45.3,426.6,-1111.8,305.1,748.2,145.2,-6.6,-5.7,-1342.8,-1718.1,-0.6,18.0,1019.1,-807.6,0,1836,0,89,0, 
1.0233,-296.1,-241.2,675.0,240.9,-252.6,440.7,210.6,-523.2,2371.2,940.5,3322.2,3250.8,-1060.5,703.5,4898.4,138.0,-6.9,-5.4,-1339.8,-1729.5,-0.9,10.5,1009.5,-792.0,0,1842,0,90,0, 
1.0267,-305.7,-236.7,678.0,246.6,-245.1,434.7,215.1,-527.7,-3779.1,960.0,1969.5,2261.7,-1404.9,579.3,-1065.3,143.7,-6.9,-5.4,-1349.1,-1713.6,-0.3,36.3,1034.4,-828.0,0,1848,0,91,0, 
1.0300,-301.8,-226.5,678.0,248.4,-253.5,427.8,213.0,-546.0,-11337.3,959.4,-2273.7,-1341.6,-1626.3,139.8,-8843.7,165.0,-6.9,-5.7,-1373.1,-1716.9,-0.9,26.7,1029.6,-857.4,0,1854,0,92,0, 
1.0333,-295.8,-225.9,678.6,246.3,-249.6,411.9,206.1,-546.0,-9929.4,963.0,-3547.5,-2521.5,-1474.5,-36.6,-7753.5,157.2,-7.2,-6.0,-1369.5,-1723.2,-0.9,18.0,1035.0,-878.7,0,1860,0,93,0, 
1.0367,-294.0,-231.0,675.6,243.3,-255.6,401.4,201.3,-532.2,-1259.7,947.7,-66.0,268.8,-1159.2,352.2,773.7,154.2,-6.9,-5.7,-1355.4,-1730.1,-1.2,0.9,1016.4,-906.6,0,1866,0,94,0, 
1.0400,-303.6,-230.7,675.6,242.4,-251.4,418.2,206.4,-522.9,2297.1,950.7,3123.6,3125.7,-1061.1,737.1,4904.1,154.8,-6.6,-5.7,-1347.9,-1717.2,-0.9,-3.6,1014.0,-850.5,0,1872,0,95,0, 
1.0433,-303.3,-225.9,676.8,242.1,-249.9,429.3,209.7,-531.9,-3927.3,959.1,1761.9,2176.8,-1355.1,611.1,-1077.9,136.2,-6.9,-5.7,-1357.2,-1712.4,-0.9,8.7,1028.4,-826.8,0,1878,0,96,0, 
1.0467,-309.6,-240.0,667.5,235.2,-253.8,428.4,211.2,-550.2,-11263.2,963.0,-2586.9,-1438.8,-1574.1,136.8,-8858.4,153.6,-6.9,-5.7,-1388.7,-1714.2,-0.6,14.7,1025.7,-851.7,0,1884,0,97,0, 
1.0500,-301.2,-228.0,673.8,240.3,-253.5,425.1,209.7,-544.2,-9707.1,957.9,-3719.4,-2580.9,-1477.5,-36.3,-7750.5,145.5,-6.9,-5.7,-1380.9,-1718.7,-0.9,16.5,1020.9,-872.7,0,1890,0,98,0, 
1.0533,-296.4,-216.0,675.6,235.8,-256.8,418.5,198.6,-533.7,-1407.9,961.8,-327.9,199.2,-1210.2,320.1,743.4,141.9,-7.2,-5.7,-1345.8,-1720.8,-0.9,0.6,1028.7,-857.1,0,1896,0,99,0, 
1.0567,-284.7,-212.7,671.4,234.0,-261.6,415.8,199.8,-520.2,2445.3,935.4,2863.5,3006.0,-1102.8,729.0,4875.3,149.4,-6.9,-6.0,-1342.2,-1720.5,-0.6,-2.7,1016.7,-879.0,0,1902,0,100,0, 
1.0600,-297.6,-239.7,657.3,226.8,-267.6,414.6,204.6,-539.4,-3853.2,935.7,1430.4,2087.1,-1327.5,593.4,-1092.9,155.7,-6.9,-6.0,-1364.4,-1718.1,-0.6,13.5,1034.1,-870.9,0,1908,0,101,0, 
1.0633,-302.4,-247.8,651.3,226.2,-266.7,418.8,198.0,-554.7,-11189.1,950.7,-2705.4,-1445.1,-1529.4,131.7,-8869.2,153.3,-6.6,-5.4,-1393.5,-1714.5,-0.6,11.4,1008.6,-877.2,0,1914,0,102,0, 
1.0667,-308.4,-257.1,648.0,219.3,-266.4,419.4,200.1,-558.0,-9855.3,941.7,-3930.3,-2697.6,-1444.2,-47.1,-7799.1,146.7,-6.9,-6.0,-1391.7,-1732.5,-0.9,2.7,1025.7,-846.9,0,1920,0,103,0, 
1.0700,-302.7,-246.6,658.5,228.0,-262.5,422.1,199.5,-538.8,-1407.9,942.9,-460.5,111.9,-1149.6,321.0,707.1,143.1,-6.3,-5.7,-1355.4,-1722.9,-0.3,-0.9,1024.2,-847.8,0,1926,0,104,0, 
1.0733,-305.1,-250.8,654.6,224.1,-269.7,417.6,200.7,-531.6,2223.0,944.7,2942.1,3030.6,-1095.6,729.3,4860.3,162.3,-6.3,-6.0,-1341.6,-1725.3,-0.6,-2.4,1037.4,-858.3,0,1932,0,105,0, 
1.0767,-310.2,-250.8,649.8,225.3,-269.4,412.2,198.9,-541.8,-3853.2,941.7,1521.0,2060.4,-1374.6,601.2,-1151.4,164.4,-6.3,-6.0,-1369.2,-1727.1,-0.6,4.5,1022.4,-901.2,0,1938,0,106,0, 
1.0800,-304.5,-246.9,649.5,227.1,-272.1,412.5,195.6,-552.0,-11411.4,930.6,-2631.3,-1506.3,-1616.1,130.5,-8920.5,156.9,-6.9,-5.7,-1393.5,-1729.2,-0.6,11.4,1022.7,-906.9,0,1944,0,107,0, 
1.0833,-305.1,-245.7,642.9,225.0,-275.1,418.5,198.6,-552.9,-9929.4,927.9,-3819.9,-2664.6,-1458.3,-50.4,-7825.5,164.4,-6.9,-6.0,-1396.8,-1734.3,-0.6,7.8,1035.6,-884.4,0,1950,0,108,0, 
1.0867,-297.9,-239.7,662.4,231.9,-264.0,432.9,203.7,-536.7,-1407.9,954.3,-484.5,155.1,-1165.8,311.1,669.6,135.3,-6.6,-5.7,-1344.3,-1717.2,-0.9,3.9,1020.9,-837.0,0,1956,0,109,0, 
1.0900,-295.2,-234.6,661.8,231.6,-267.3,438.0,197.4,-529.8,2148.9,945.3,2822.1,3118.5,-1083.0,713.4,4817.1,115.8,-6.6,-5.4,-1327.5,-1724.1,-0.9,18.9,1011.6,-826.2,0,1962,0,110,0, 
1.0933,-297.0,-225.6,663.0,236.4,-267.6,432.3,203.4,-537.0,-3853.2,962.7,1389.9,2039.1,-1359.9,579.3,-1168.2,132.3,-6.9,-6.0,-1351.2,-1720.8,-0.9,15.3,1024.2,-825.6,0,1968,0,111,0, 
1.0967,-300.9,-233.1,651.3,225.9,-275.7,419.4,197.7,-555.0,-11411.4,941.7,-2749.8,-1458.9,-1608.0,105.3,-8932.2,142.5,-6.9,-5.7,-1392.6,-1732.2,-0.9,-11.1,1026.6,-875.1,0,1974,0,112,0, 
1.1000,-295.8,-241.8,660.0,235.2,-269.7,419.4,197.4,-548.4,-9855.3,958.8,-3980.1,-2725.5,-1472.4,-43.2,-7842.6,133.2,-6.6,-6.0,-1374.3,-1722.9,-0.9,3.0,1004.1,-877.5,0,1980,0,113,0, 
1.1033,-295.5,-240.3,662.7,239.4,-262.8,426.6,201.0,-527.1,-1407.9,948.6,-548.7,94.2,-1167.0,314.4,711.9,137.4,-6.9,-5.7,-1339.5,-1717.5,-0.6,9.0,1022.4,-874.8,0,1986,0,114,0, 
1.1067,-298.5,-241.8,656.7,235.2,-266.1,421.5,199.2,-524.7,2371.2,945.0,2700.3,3010.2,-1141.2,711.9,4830.3,136.2,-6.9,-5.7,-1328.1,-1720.2,-0.6,14.1,1018.5,-888.3,0,1992,0,115,0, 
1.1100,-296.1,-234.0,660.3,235.2,-266.4,420.6,206.4,-531.0,-3853.2,944.4,1308.3,1970.4,-1369.5,595.8,-1101.9,143.7,-7.2,-5.7,-1343.1,-1728.6,-0.9,3.9,1025.7,-892.2,0,1998,0,116,0, 
1.1133,-296.1,-249.9,642.0,229.8,-272.4,423.9,200.4,-550.5,-11263.2,945.3,-2853.0,-1583.4,-1567.5,144.3,-8848.8,139.8,-6.9,-5.4,-1389.9,-1725.9,-0.9,7.8,1017.0,-880.5,0,2004,0,117,0, 
1.1167,-294.0,-257.4,638.1,227.1,-275.1,417.0,198.0,-552.9,-9929.4,942.9,-4011.6,-2708.7,-1461.6,-40.2,-7716.6,141.9,-6.9,-6.0,-1388.4,-1728.3,-0.6,0.0,1005.6,-859.5,0,2010,0,118,0, 
1.1200,-294.6,-247.2,644.1,230.4,-267.3,426.9,197.4,-539.1,-1333.8,943.2,-620.7,149.1,-1194.9,301.5,767.7,132.3,-6.9,-6.0,-1362.3,-1734.6,-0.6,-19.8,1009.8,-844.2,0,2016,0,119,0, 
1.1233,-304.2,-246.6,648.3,231.9,-267.0,425.1,200.4,-532.8,2445.3,947.1,2755.5,3069.0,-1114.2,706.2,4894.8,145.2,-6.9,-5.7,-1340.7,-1730.1,-0.6,-0.9,1010.4,-866.7,0,2022,0,120,0, 
1.1267,-307.5,-254.1,648.0,232.5,-272.4,414.3,203.4,-544.8,-3779.1,948.3,1311.6,2069.4,-1362.0,599.7,-1083.0,141.0,-6.9,-6.0,-1361.1,-1732.8,-0.6,-4.8,1044.6,-856.2,0,2028,0,121,0, 
1.1300,-301.5,-240.0,653.4,230.4,-273.3,408.9,197.1,-557.4,-11337.3,941.1,-2887.5,-1413.0,-1569.0,133.5,-8844.0,151.5,-7.2,-6.0,-1388.4,-1732.2,-0.6,-9.6,1022.1,-841.5,0,2034,0,122,0, 
1.1333,-296.1,-238.2,661.8,234.0,-264.3,413.7,202.5,-549.0,-9707.1,940.8,-4001.7,-2514.0,-1452.6,-36.0,-7725.9,161.7,-6.9,-6.0,-1385.4,-1730.4,-0.9,-7.5,1023.9,-841.5,0,2040,0,123,0, 
1.1367,-290.4,-241.2,659.1,232.2,-266.7,401.4,195.9,-539.1,-1407.9,928.2,-574.2,323.1,-1198.2,334.5,802.2,156.3,-6.9,-5.7,-1374.0,-1733.7,-0.6,8.4,1027.5,-872.1,0,2046,0,124,0, 
1.1400,-298.8,-249.9,658.2,226.8,-266.1,411.9,203.4,-530.7,2223.0,926.1,2608.5,3113.7,-1118.1,704.1,4898.7,145.2,-6.6,-5.7,-1359.6,-1731.3,-0.6,-4.5,1025.1,-835.8,0,2052,0,125,0, 
1.1433,-300.3,-244.2,658.2,225.3,-272.1,411.9,195.6,-540.9,-3853.2,933.3,1172.4,2105.4,-1397.1,602.7,-1092.9,143.1,-7.5,-5.7,-1375.2,-1729.8,-0.9,-5.7,1004.4,-838.5,0,2058,0,126,0, 
1.1467,-296.7,-241.2,661.2,227.4,-274.8,405.0,195.9,-558.6,-11337.3,945.6,-2921.1,-1361.4,-1630.5,118.5,-8873.7,137.7,-7.2,-5.4,-1410.9,-1733.1,-0.6,-5.1,1017.9,-875.1,0,2064,0,127,0, 
1.1500,-297.6,-242.4,667.8,230.1,-268.2,395.1,194.1,-556.8,-10003.5,947.4,-4062.0,-2532.6,-1449.6,-47.7,-7742.7,148.8,-6.9,-6.0,-1406.4,-1729.2,-1.2,-29.1,1010.4,-891.6,0,2070,0,128,0, 
1.1533,-295.5,-247.8,678.0,239.1,-265.5,399.9,190.5,-540.0,-1333.8,949.5,-504.9,305.7,-1175.7,346.5,805.8,152.4,-7.2,-5.7,-1366.2,-1722.9,-0.6,-8.1,1002.9,-898.2,0,2076,0,129,0, 
1.1567,-301.8,-252.9,676.5,236.7,-263.7,405.0,194.1,-535.5,2445.3,950.1,2744.4,3182.7,-1104.6,738.0,4909.5,150.0,-6.9,-5.7,-1360.2,-1714.8,-0.6,-6.9,1008.0,-864.9,0,2082,0,130,0, 
1.1600,-306.0,-254.1,672.6,230.4,-267.6,409.2,195.9,-550.2,-3779.1,947.1,1310.4,2155.8,-1355.4,582.3,-1123.2,146.1,-7.2,-6.0,-1383.3,-1717.8,-0.9,-3.3,1002.9,-835.5,0,2088,0,131,0, 
1.1633,-303.9,-258.6,667.5,227.4,-269.1,407.7,195.9,-564.6,-11337.3,953.4,-2867.4,-1472.7,-1574.7,121.5,-8885.1,158.1,-6.6,-5.7,-1416.6,-1725.9,-1.2,-6.6,1020.3,-844.8,0,2094,0,132,0, 
1.1667,-296.4,-259.2,673.2,224.4,-269.7,403.2,189.0,-567.3,-9707.1,931.5,-4022.1,-2629.8,-1431.6,-44.7,-7724.1,159.3,-6.6,-6.0,-1419.3,-1728.9,0.0,-12.3,1003.8,-872.1,0,2100,0,133,0, 
1.1700,-295.2,-253.2,686.1,230.1,-262.8,408.0,188.1,-550.5,-1407.9,947.4,-522.9,336.3,-1136.7,315.9,776.7,143.7,-6.6,-6.3,-1384.8,-1725.9,-0.9,0.3,1001.4,-874.5,0,2106,0,134,0, 
1.1733,-294.9,-237.9,696.9,236.4,-258.3,417.3,195.9,-535.5,2297.1,954.3,2704.2,3224.4,-1088.1,681.9,4845.9,142.5,-6.9,-5.4,-1363.5,-1712.4,-0.9,15.6,1022.1,-864.3,0,2112,0,135,0, 
1.1767,-301.5,-230.7,697.8,239.7,-254.4,411.3,193.2,-540.3,-4001.4,957.0,1193.1,2203.2,-1419.0,554.1,-1174.8,153.9,-7.2,-6.0,-1379.7,-1707.3,-0.6,13.5,1023.9,-848.7,0,2118,0,136,0, 
1.1800,-300.6,-230.7,687.9,237.0,-257.7,414.3,193.2,-555.9,-11411.4,935.7,-2948.4,-1318.8,-1582.2,97.8,-8912.7,159.6,-6.6,-5.7,-1416.3,-1716.0,-0.6,7.8,1024.2,-810.9,0,2124,0,137,0, 
1.1833,-298.2,-256.5,677.4,232.8,-257.1,412.2,190.5,-558.3,-9855.3,935.7,-4110.6,-2511.6,-1428.0,-35.1,-7774.2,153.3,-7.2,-5.7,-1425.6,-1724.4,-0.9,4.5,1010.1,-828.3,0,2130,0,138,0, 
1.1867,-295.5,-266.4,681.0,227.7,-261.0,402.3,185.7,-548.1,-1482.0,932.1,-685.8,293.1,-1147.8,344.7,765.0,157.8,-6.9,-5.7,-1396.8,-1725.9,-1.2,-9.3,1027.2,-855.3,0,2136,0,139,0, 
1.1900,-292.2,-235.8,698.4,236.4,-256.5,409.8,188.4,-533.7,2297.1,948.6,2478.0,3171.0,-1088.7,689.4,4824.9,158.1,-6.6,-5.7,-1367.7,-1721.1,-0.3,-18.9,1013.1,-857.4,0,2142,0,140,0, 
1.1933,-295.8,-231.9,704.7,250.5,-248.1,426.6,196.8,-533.7,-4001.4,958.2,1058.7,2211.3,-1431.6,548.7,-1225.2,130.2,-7.2,-5.7,-1379.4,-1701.6,-0.9,37.8,1012.2,-828.0,0,2148,0,141,0, 
1.1967,-306.0,-236.7,698.4,246.9,-251.1,418.8,193.2,-552.0,-11411.4,964.5,-3097.5,-1390.5,-1647.6,89.7,-8951.7,142.5,-6.9,-6.0,-1420.5,-1702.8,-0.3,22.5,1008.9,-843.0,0,2154,0,142,0, 
1.2000,-296.7,-231.6,709.2,253.5,-243.0,416.7,192.3,-545.7,-9929.4,972.3,-4248.3,-2622.0,-1437.6,-60.3,-7803.3,140.1,-6.9,-6.0,-1409.1,-1701.0,-0.9,12.0,1005.0,-846.0,0,2160,0,143,0, 
1.2033,-301.2,-254.1,702.0,240.3,-246.3,415.2,183.3,-541.2,-1407.9,946.2,-709.5,161.4,-1190.7,318.9,729.6,150.9,-6.6,-5.7,-1404.3,-1705.5,-1.5,5.7,1013.4,-852.3,0,2166,0,144,0, 
1.2067,-300.0,-243.9,709.5,244.5,-241.5,420.0,189.9,-525.9,2297.1,967.8,2482.5,3081.3,-1135.8,718.5,4804.5,136.5,-6.6,-5.7,-1380.9,-1692.3,-0.9,30.6,1020.3,-825.9,0,2172,0,145,0, 
1.2100,-302.4,-244.2,706.8,245.1,-240.6,417.6,190.2,-536.7,-3853.2,967.5,921.0,2027.7,-1340.7,588.9,-1225.5,143.4,-6.9,-5.7,-1392.6,-1695.0,-0.6,13.2,1009.2,-829.8,0,2178,0,146,0, 
1.2133,-307.5,-252.6,699.0,243.6,-240.0,413.7,199.5,-550.5,-11337.3,965.7,-3179.7,-1448.1,-1569.6,117.6,-8963.1,142.5,-6.9,-5.7,-1426.5,-1698.3,-0.9,30.3,1035.3,-854.1,0,2184,0,147,0, 
1.2167,-301.5,-238.2,706.2,242.1,-238.5,417.6,192.3,-551.1,-9855.3,961.8,-4323.9,-2587.5,-1431.3,-51.6,-7875.9,137.1,-6.6,-6.0,-1415.1,-1694.4,-0.9,17.7,1030.2,-839.1,0,2190,0,148,0, 
1.2200,-297.3,-235.5,708.6,241.5,-239.4,419.1,188.4,-532.8,-1333.8,951.3,-854.7,186.0,-1144.5,314.7,687.0,133.2,-6.9,-5.7,-1383.3,-1693.2,-0.6,14.7,1007.1,-820.5,0,2196,0,149,0, 
1.2233,-296.1,-240.9,713.1,245.7,-238.2,414.6,192.0,-521.7,2223.0,964.8,2359.2,3025.5,-1074.0,711.0,4785.9,143.7,-6.6,-5.7,-1367.4,-1697.1,-0.9,10.2,998.7,-826.2,0,2202,0,150,0, 
1.2267,-301.2,-244.8,693.9,233.1,-256.8,408.9,193.8,-544.5,-3927.3,941.4,960.3,1961.7,-1327.5,584.4,-1260.9,170.4,-6.6,-6.0,-1404.6,-1716.9,-0.3,-10.5,1014.3,-840.9,0,2208,0,151,0, 
1.2300,-299.7,-252.6,684.6,225.3,-262.5,391.5,186.0,-560.4,-11559.6,933.6,-3168.3,-1530.6,-1562.1,126.0,-8984.4,160.8,-6.6,-6.3,-1447.8,-1728.0,-0.9,-11.7,1032.3,-865.2,0,2214,0,152,0, 
1.2333,-291.6,-240.3,701.7,231.3,-254.4,393.3,174.9,-556.5,-9855.3,969.6,-4344.0,-2694.0,-1433.7,-65.7,-7904.1,139.5,-7.2,-6.0,-1434.9,-1711.5,-0.9,-5.7,1002.0,-865.5,0,2220,0,153,0, 
1.2367,-283.2,-228.3,715.8,234.3,-246.6,404.7,185.7,-537.0,-1482.0,957.9,-927.3,134.1,-1133.7,281.7,635.1,126.9,-6.9,-5.7,-1398.6,-1710.3,-0.3,-7.5,1010.7,-841.8,0,2226,0,154,0, 
1.2400,-290.4,-238.8,711.0,237.6,-246.6,412.5,191.7,-526.2,2074.8,952.5,2327.7,3084.9,-1079.7,679.5,4701.0,134.7,-6.9,-5.7,-1397.1,-1707.3,-0.6,5.4,1007.4,-803.7,0,2232,0,155,0, 
1.2433,-296.7,-240.9,701.1,230.4,-256.8,404.7,190.5,-543.0,-4001.4,950.1,878.1,2030.1,-1343.4,558.0,-1348.5,130.5,-6.6,-6.0,-1426.2,-1712.1,-0.9,-0.9,1018.8,-842.1,0,2238,0,156,0, 
1.2467,-294.0,-242.1,705.6,232.2,-259.8,399.9,191.7,-553.8,-11633.7,964.5,-3161.1,-1563.3,-1556.1,108.0,-9039.6,162.0,-6.9,-5.7,-1453.5,-1706.1,-0.9,19.8,1016.1,-884.4,0,2244,0,157,0, 
1.2500,-291.9,-242.1,708.6,236.1,-256.5,399.0,184.5,-550.8,-10003.5,960.0,-4305.6,-2671.8,-1449.6,-55.8,-7965.0,135.3,-6.9,-6.0,-1448.4,-1705.5,-0.6,12.3,1008.9,-883.5,0,2250,0,158,0, 
1.2533,-294.3,-243.0,714.3,243.3,-245.7,410.4,191.1,-531.9,-1556.1,968.7,-893.4,216.3,-1180.5,304.2,609.3,138.0,-6.6,-5.7,-1423.8,-1699.5,-0.6,30.6,1016.7,-840.9,0,2256,0,159,0, 
1.2567,-306.6,-252.0,704.4,235.2,-252.6,410.1,196.8,-530.1,2074.8,956.7,2271.3,3003.0,-1143.0,694.8,4673.4,146.1,-6.9,-6.0,-1405.2,-1705.2,-0.9,24.6,1026.9,-822.3,0,2262,0,160,0, 
1.2600,-306.3,-237.9,697.5,232.5,-257.4,417.9,200.7,-540.0,-4149.6,942.6,755.1,1918.2,-1489.2,557.4,-1412.4,139.8,-6.6,-6.0,-1435.5,-1704.6,-0.9,9.6,1037.7,-819.0,0,2268,0,161,0, 
1.2633,-294.9,-230.7,698.1,227.7,-256.2,416.7,200.7,-555.9,-11559.6,938.1,-3430.8,-1660.5,-1647.3,104.1,-9075.3,138.6,-6.9,-6.0,-1463.1,-1705.5,-0.6,9.9,1029.9,-823.8,0,2274,0,162,0, 
1.2667,-294.9,-249.9,688.5,222.6,-268.2,402.9,185.4,-564.0,-9855.3,934.2,-4532.1,-2878.8,-1460.4,-45.0,-7974.9,157.5,-6.6,-5.7,-1474.5,-1722.9,-0.9,-23.1,1020.0,-846.9,0,2280,0,163,0, 
1.2700,-297.0,-258.9,691.5,227.7,-262.8,400.2,183.0,-548.4,-1482.0,938.7,-1031.7,-21.9,-1123.5,325.8,577.2,154.5,-6.9,-5.7,-1421.4,-1719.0,-0.6,-32.4,1019.1,-846.9,0,2286,0,164,0, 
1.2733,-296.1,-270.9,683.4,221.4,-267.0,396.0,180.9,-542.1,2148.9,942.9,2136.3,2826.6,-1091.4,705.9,4616.1,137.1,-6.6,-5.4,-1416.9,-1722.3,-0.6,-13.2,1044.3,-858.6,0,2292,0,165,0, 
1.2767,-303.3,-258.6,687.9,225.9,-269.1,404.1,181.5,-549.3,-4149.6,953.7,672.9,1764.0,-1358.7,552.0,-1467.6,152.4,-6.9,-5.7,-1438.8,-1717.8,-0.9,3.0,1000.8,-833.4,0,2298,0,166,0, 
1.2800,-301.5,-257.1,694.8,228.9,-264.0,405.6,181.8,-556.8,-11633.7,953.7,-3428.7,-1765.2,-1550.1,77.4,-9109.2,149.7,-6.9,-5.7,-1463.1,-1710.3,-0.9,0.6,1013.7,-837.0,0,2304,0,167,0, 
1.2833,-303.0,-261.0,689.7,224.1,-276.6,390.6,172.8,-562.8,-10077.6,951.9,-4523.7,-2899.5,-1429.2,-71.1,-8022.3,143.4,-6.6,-5.7,-1469.1,-1720.5,-0.9,0.3,1005.6,-875.7,0,2310,0,168,0, 
1.2867,-297.0,-255.6,690.6,222.3,-274.2,394.2,176.1,-549.0,-1630.2,941.4,-1146.6,-61.8,-1142.7,315.6,532.8,156.9,-7.2,-6.0,-1448.7,-1719.9,-0.9,-3.9,1022.4,-885.0,0,2316,0,169,0, 
1.2900,-295.5,-247.5,698.4,225.6,-264.3,403.2,180.3,-535.5,2074.8,938.7,1937.1,2716.5,-1081.8,685.8,4596.0,155.7,-6.6,-6.0,-1428.0,-1715.7,-0.6,1.8,1023.3,-864.9,0,2322,0,170,0, 
1.2933,-288.9,-237.9,708.6,234.6,-252.9,415.2,188.4,-540.0,-4149.6,956.7,473.4,1654.8,-1375.8,550.2,-1495.8,154.5,-6.9,-5.7,-1438.2,-1704.3,-0.6,17.7,1017.3,-839.7,0,2328,0,171,0, 
1.2967,-293.7,-238.5,698.1,231.9,-256.8,416.1,189.6,-555.0,-11781.9,939.3,-3647.7,-1806.6,-1594.8,99.6,-9120.6,154.8,-7.2,-6.0,-1464.9,-1706.4,-0.6,7.2,1045.2,-844.5,0,2334,0,172,0, 
1.3000,-283.5,-237.9,702.0,230.4,-260.7,414.3,185.1,-550.5,-10151.7,955.8,-4829.4,-2935.2,-1416.9,-62.7,-8028.6,153.0,-6.9,-6.0,-1458.9,-1714.8,0.0,12.6,1025.1,-850.5,0,2340,0,173,0, 
1.3033,-292.2,-246.3,704.1,231.6,-255.9,417.0,188.1,-540.0,-1556.1,945.9,-1377.0,-71.4,-1192.5,288.6,494.7,169.5,-6.6,-6.0,-1433.7,-1712.4,-0.9,3.6,1037.7,-848.1,0,2346,0,174,0, 
1.3067,-289.5,-227.7,715.8,238.5,-247.8,418.8,190.8,-526.8,2000.7,956.1,1833.9,2716.8,-1155.3,687.0,4568.1,143.7,-7.2,-6.3,-1412.1,-1694.4,-0.3,10.2,1041.9,-824.1,0,2352,0,175,0, 
1.3100,-300.6,-227.7,714.0,236.4,-249.0,424.5,197.7,-532.8,-4371.9,961.5,314.1,1660.8,-1373.7,555.3,-1523.4,144.9,-6.9,-6.0,-1434.0,-1702.2,-0.9,21.0,1045.8,-799.2,0,2358,0,176,0, 
1.3133,-293.7,-220.2,720.6,235.8,-247.5,428.4,195.0,-548.4,-11633.7,969.9,-3812.4,-1864.5,-1531.5,65.4,-9119.4,134.4,-6.6,-5.7,-1458.6,-1701.0,-0.9,19.2,1020.0,-783.3,0,2364,0,177,0, 
1.3167,-298.2,-238.2,716.1,237.0,-247.5,417.6,188.1,-548.1,-10151.7,981.0,-4911.6,-3077.7,-1438.2,-114.9,-8041.8,141.9,-7.2,-5.7,-1461.0,-1700.7,-0.9,23.7,1008.0,-846.0,0,2370,0,178,0, 
1.3200,-291.6,-249.3,713.7,230.4,-249.9,414.6,195.3,-539.1,-1556.1,958.8,-1581.0,-238.5,-1152.9,276.0,495.3,141.9,-6.9,-5.7,-1442.4,-1707.3,-0.9,6.6,1047.9,-883.2,0,2376,0,179,0, 
1.3233,-297.0,-245.1,712.5,230.7,-253.2,415.2,188.4,-528.9,2074.8,957.9,1525.5,2521.2,-1086.3,684.6,4578.6,155.1,-6.3,-5.7,-1434.6,-1692.0,-1.2,3.6,1018.2,-854.1,0,2382,0,180,0, 
1.3267,-294.3,-252.3,708.6,233.4,-254.4,410.7,179.7,-541.5,-4371.9,957.6,90.6,1455.0,-1353.3,569.7,-1522.2,132.0,-6.6,-5.7,-1448.7,-1692.9,-0.9,15.0,1015.2,-836.4,0,2388,0,181,0, 
1.3300,-288.9,-236.4,715.5,237.6,-256.2,425.4,187.2,-549.9,-11633.7,980.1,-4101.0,-2162.1,-1574.4,81.6,-9137.7,134.7,-6.9,-5.7,-1469.4,-1698.0,-1.2,2.4,1010.4,-840.3,0,2394,0,182,0, 
1.3333,-290.4,-225.6,717.3,239.4,-252.9,425.1,190.8,-546.0,-10003.5,964.8,-5236.2,-3234.9,-1414.8,-85.5,-8028.3,152.7,-6.9,-5.7,-1469.7,-1694.1,-0.6,9.9,1038.6,-857.4,0,2400,0,183,0, 
1.3367,-286.8,-241.5,714.6,238.8,-253.8,435.3,188.4,-529.5,-1482.0,955.2,-1659.0,-326.4,-1096.5,285.0,503.4,159.0,-6.9,-6.3,-1444.5,-1697.1,-0.9,6.9,1029.3,-828.9,0,2406,0,184,0, 
1.3400,-294.6,-240.6,720.6,241.5,-249.6,434.4,188.7,-522.6,1926.6,970.5,1554.3,2524.2,-1102.8,672.0,4566.0,146.1,-6.3,-5.7,-1424.4,-1696.5,-0.3,15.6,1025.7,-813.0,0,2412,0,185,0, 
1.3433,-297.0,-244.8,712.2,233.4,-258.3,426.3,195.0,-534.9,-4223.7,955.8,96.9,1330.8,-1381.5,571.5,-1530.9,154.2,-7.2,-6.0,-1451.4,-1697.7,-0.6,-1.5,1055.4,-830.1,0,2418,0,186,0, 
1.3467,-295.8,-238.5,706.2,223.5,-268.2,409.8,179.4,-556.2,-11633.7,951.0,-3951.6,-2241.6,-1634.7,102.0,-9140.1,155.1,-6.3,-5.7,-1480.8,-1710.3,-0.6,-10.5,1043.7,-868.5,0,2424,0,187,0, 
1.3500,-291.9,-238.8,708.9,228.6,-263.4,414.3,172.2,-551.7,-10003.5,945.6,-5130.3,-3424.8,-1446.0,-72.6,-8004.0,141.6,-6.6,-5.4,-1477.5,-1708.8,-0.6,-11.7,993.9,-843.6,0,2430,0,188,0, 
1.3533,-282.0,-246.9,709.8,230.7,-262.5,406.5,175.8,-536.7,-1704.3,941.7,-1768.8,-636.6,-1111.2,320.4,539.7,144.6,-6.6,-6.0,-1446.6,-1711.5,-0.3,2.4,1008.6,-894.6,0,2436,0,189,0, 
1.3567,-282.6,-239.1,711.9,239.1,-260.4,424.8,179.7,-522.0,2074.8,948.9,1503.0,2303.1,-1103.7,683.7,4598.1,149.7,-7.2,-6.0,-1434.0,-1695.0,-0.9,4.2,1004.7,-858.0,0,2442,0,190,0, 
1.3600,-290.4,-246.0,703.5,228.3,-262.2,419.7,180.6,-539.1,-4223.7,944.4,-56.4,1256.4,-1356.6,567.0,-1492.8,164.1,-6.9,-5.7,-1467.6,-1701.9,-0.6,7.5,1032.9,-859.8,0,2448,0,191,0, 
1.3633,-288.0,-247.8,694.2,226.5,-265.8,421.5,180.9,-551.4,-11559.6,935.7,-4282.5,-2367.0,-1550.1,96.9,-9131.7,152.4,-6.6,-5.7,-1508.4,-1708.5,-0.9,-7.5,1026.9,-854.1,0,2454,0,192,0, 
1.3667,-287.1,-247.5,698.1,228.6,-266.1,418.5,183.3,-550.8,-10077.6,940.2,-5359.5,-3490.8,-1452.9,-78.9,-8006.4,155.1,-6.9,-6.0,-1503.3,-1711.8,-0.9,-4.2,1023.0,-872.7,0,2460,0,193,0, 
1.3700,-288.0,-239.4,704.7,234.9,-258.6,425.4,184.5,-532.5,-1482.0,940.5,-1921.2,-653.4,-1193.4,308.7,549.3,168.0,-6.9,-5.7,-1468.8,-1706.1,-1.2,-2.1,1005.6,-840.0,0,2466,0,194,0, 
1.3733,-282.9,-228.6,705.6,232.5,-262.5,417.0,179.1,-527.4,2000.7,933.6,1288.8,2199.3,-1088.1,721.5,4610.4,153.0,-6.9,-5.7,-1451.4,-1708.5,-0.6,-12.6,1019.7,-831.0,0,2472,0,195,0, 
1.3767,-289.8,-250.5,684.6,215.7,-276.9,407.4,178.2,-547.5,-4297.8,914.4,-161.1,1035.0,-1363.5,562.2,-1484.4,162.9,-6.6,-5.7,-1501.5,-1721.1,-0.9,-36.3,1025.1,-867.9,0,2478,0,196,0, 
1.3800,-298.2,-263.7,678.3,218.4,-269.4,412.8,178.8,-559.8,-11633.7,927.3,-4338.0,-2457.9,-1579.5,57.6,-9122.4,149.7,-6.9,-5.7,-1527.0,-1717.2,-0.9,-4.8,1040.1,-874.5,0,2484,0,197,0, 
1.3833,-291.3,-247.8,689.7,225.6,-265.8,414.3,180.3,-556.5,-9929.4,930.0,-5390.4,-3651.6,-1475.7,-83.4,-8001.3,130.2,-6.6,-5.7,-1527.0,-1707.0,-0.9,2.7,1022.7,-868.2,0,2490,0,198,0, 
1.3867,-294.0,-243.6,699.0,228.6,-262.2,411.0,180.0,-536.7,-1630.2,948.0,-2002.2,-849.6,-1193.7,273.6,558.0,139.5,-6.6,-5.7,-1476.6,-1703.7,-1.2,1.5,1029.9,-867.0,0,2496,0,199,0, 
1.3900,-292.8,-236.4,696.6,229.5,-262.8,409.2,181.2,-528.6,2148.9,940.2,1308.3,2179.8,-1104.9,696.0,4644.9,144.6,-6.6,-6.0,-1467.0,-1701.6,-0.6,-20.1,1028.7,-856.2,0,2502,0,200,0, 
1.3933,-302.4,-254.7,690.6,229.2,-259.5,420.0,181.8,-540.3,-4075.5,941.7,-154.5,1155.9,-1363.5,550.5,-1425.3,162.9,-6.9,-6.3,-1490.7,-1702.8,-0.9,-22.2,1031.4,-865.8,0,2508,0,201,0, 
1.3967,-299.7,-252.6,693.0,234.6,-256.2,431.7,185.4,-552.3,-11633.7,951.0,-4259.1,-2305.8,-1566.0,84.6,-9076.5,145.8,-6.6,-5.7,-1504.5,-1689.6,-0.9,-10.2,1020.6,-828.3,0,2514,0,202,0, 
1.4000,-290.7,-243.3,700.2,238.5,-251.4,423.6,173.7,-549.6,-9929.4,949.5,-5350.8,-3510.3,-1428.9,-85.2,-7910.1,140.4,-7.2,-5.7,-1506.9,-1691.1,-0.6,6.9,1020.0,-837.3,0,2520,0,203,0, 
1.4033,-294.6,-250.8,703.5,237.3,-250.8,429.9,183.0,-533.7,-1333.8,943.5,-1788.9,-607.5,-1134.6,291.3,682.5,147.3,-6.9,-6.0,-1483.5,-1686.6,-0.6,13.2,1017.6,-829.5,0,2526,0,204,0, 
1.4067,-293.4,-258.3,701.1,228.9,-257.7,419.1,173.1,-529.2,2297.1,936.0,1430.7,2194.8,-1075.2,705.3,4718.7,143.1,-7.2,-5.7,-1468.5,-1698.6,-1.2,-4.8,1014.3,-850.5,0,2532,0,205,0, 
1.4100,-300.3,-255.0,698.4,232.2,-261.3,425.7,179.1,-535.5,-4001.4,944.7,13.2,1158.0,-1390.5,576.9,-1355.1,146.1,-6.6,-5.7,-1482.0,-1695.0,-0.6,6.3,1011.3,-843.0,0,2538,0,206,0, 
1.4133,-300.3,-248.7,692.1,223.5,-275.1,417.9,182.7,-551.1,-11411.4,948.9,-4098.6,-2325.6,-1596.9,99.6,-9026.1,172.8,-7.2,-6.0,-1525.8,-1702.8,-0.6,-3.9,1045.2,-878.1,0,2544,0,207,0, 
1.4167,-291.9,-234.9,704.4,231.3,-267.9,422.4,179.4,-544.5,-9855.3,948.6,-5168.1,-3538.5,-1461.9,-70.5,-7841.4,143.4,-6.6,-5.7,-1511.7,-1707.0,-0.9,0.3,1013.7,-875.4,0,2550,0,208,0, 
1.4200,-303.6,-242.4,708.6,238.5,-262.5,429.3,178.8,-530.7,-1333.8,947.4,-1698.6,-567.6,-1185.9,297.3,730.5,138.0,-7.2,-6.0,-1472.1,-1696.8,-0.6,-0.3,996.3,-870.6,0,2556,0,209,0, 
1.4233,-298.5,-225.9,714.3,245.7,-259.8,437.4,188.4,-518.7,2445.3,955.8,1472.7,2319.6,-1078.5,672.0,4756.2,145.8,-7.2,-5.7,-1447.8,-1688.7,-0.3,3.3,1024.8,-847.8,0,2562,0,210,0, 
1.4267,-303.6,-230.4,705.9,239.1,-264.3,434.1,190.5,-532.2,-4223.7,943.2,122.7,1375.5,-1352.1,558.3,-1301.4,152.7,-7.2,-5.7,-1463.1,-1692.3,-1.2,-2.4,1028.7,-826.8,0,2568,0,211,0, 
1.4300,-292.8,-225.9,704.7,238.8,-261.6,431.7,186.0,-546.9,-11485.5,949.2,-4061.4,-2289.6,-1607.7,103.2,-9003.9,153.0,-6.6,-5.7,-1496.1,-1695.0,-0.6,3.6,1026.0,-840.6,0,2574,0,212,0, 
1.4333,-303.0,-233.7,696.3,231.9,-265.5,427.5,187.2,-550.2,-9855.3,953.1,-5145.6,-3367.8,-1448.4,-63.0,-7736.1,157.8,-6.9,-6.0,-1500.3,-1696.2,-0.6,3.6,1032.3,-872.1,0,2580,0,213,0, 
1.4367,-291.6,-230.1,703.5,229.5,-264.6,421.5,182.7,-533.4,-1185.6,955.8,-1648.8,-514.2,-1161.3,321.6,818.7,156.0,-6.9,-5.7,-1464.3,-1698.3,-0.6,5.4,1026.9,-863.4,0,2586,0,214,0, 
1.4400,-297.0,-239.1,701.7,225.6,-265.5,430.8,191.1,-525.3,2223.0,945.3,1622.1,2385.6,-1067.4,694.8,4832.4,173.7,-6.9,-6.0,-1450.5,-1699.5,-0.3,-0.9,1038.9,-819.6,0,2592,0,215,0, 
1.4433,-298.8,-246.3,690.3,219.6,-270.9,426.0,187.5,-537.3,-4001.4,944.1,228.0,1301.1,-1329.3,564.6,-1275.6,169.5,-6.9,-6.3,-1486.5,-1706.7,-0.3,-2.7,1044.3,-817.2,0,2598,0,216,0, 
1.4467,-298.5,-231.6,699.3,231.6,-263.1,433.2,189.9,-543.6,-11337.3,953.4,-3899.1,-2236.5,-1585.5,107.1,-8981.1,132.3,-7.2,-6.0,-1509.0,-1691.7,-0.6,19.2,1034.4,-834.6,0,2604,0,217,0, 
1.4500,-303.0,-236.4,705.0,237.0,-258.6,433.2,185.4,-540.6,-9707.1,966.0,-4924.8,-3356.4,-1445.1,-50.7,-7761.6,153.0,-6.6,-5.7,-1494.0,-1686.9,-0.9,18.0,1019.4,-836.1,0,2610,0,218,0, 
1.4533,-297.0,-242.4,708.3,237.6,-258.3,427.8,186.0,-528.9,-1333.8,970.8,-1436.4,-446.4,-1105.5,322.5,801.9,145.2,-6.9,-6.0,-1452.9,-1683.3,-0.3,16.8,1017.9,-846.0,0,2616,0,219,0, 
1.4567,-295.8,-232.8,710.1,239.7,-262.2,421.5,188.1,-525.0,2223.0,963.9,1808.1,2384.1,-1074.0,713.7,4815.3,158.1,-7.2,-5.7,-1439.7,-1690.5,-1.2,17.1,1025.4,-888.6,0,2622,0,220,0, 
1.4600,-296.1,-231.6,704.1,240.6,-263.1,431.4,195.0,-531.3,-4001.4,981.6,289.2,1312.8,-1411.8,577.2,-1291.8,164.7,-6.9,-6.0,-1455.0,-1687.5,-0.6,0.9,1043.1,-853.2,0,2628,0,221,0, 
1.4633,-289.5,-227.7,690.9,227.7,-278.1,425.7,192.6,-551.1,-11411.4,957.6,-3815.1,-2254.5,-1590.9,114.6,-8999.4,167.1,-6.9,-6.0,-1493.4,-1692.6,-0.9,-6.0,1040.1,-856.8,0,2634,0,222,0, 
1.4667,-290.7,-232.8,696.0,232.2,-269.7,430.5,188.4,-544.8,-9707.1,956.1,-4760.1,-3398.7,-1407.9,-64.5,-7770.6,151.8,-6.9,-6.0,-1495.8,-1681.8,-0.6,14.1,1034.7,-854.4,0,2640,0,223,0, 
1.4700,-300.0,-231.3,696.3,231.6,-267.9,428.7,188.1,-530.4,-1333.8,943.5,-1242.3,-577.5,-1100.7,294.3,800.7,139.5,-6.6,-5.7,-1469.4,-1695.9,-0.6,0.0,1045.2,-848.7,0,2646,0,224,0, 
1.4733,-297.9,-236.4,698.4,231.6,-267.3,424.8,185.1,-521.1,2223.0,952.2,1956.0,2341.2,-1059.3,704.7,4790.7,147.9,-7.5,-6.3,-1451.7,-1691.7,-0.6,10.5,1022.7,-843.3,0,2652,0,225,0, 
1.4767,-295.5,-232.2,689.1,225.9,-268.5,424.5,183.3,-535.5,-4075.5,936.3,560.1,1297.8,-1350.6,563.1,-1285.2,146.7,-6.6,-6.0,-1480.5,-1692.3,-0.3,0.9,1006.8,-836.4,0,2658,0,226,0, 
1.4800,-300.6,-235.8,684.6,230.7,-268.5,429.0,188.7,-548.7,-11411.4,946.8,-3533.4,-2235.6,-1598.7,96.9,-8988.3,142.5,-6.9,-5.7,-1499.4,-1695.3,-0.6,12.3,1023.0,-858.3,0,2664,0,227,0, 
1.4833,-297.0,-239.7,688.5,237.3,-253.2,435.0,187.5,-541.8,-9707.1,960.0,-4672.2,-3364.8,-1436.1,-66.3,-7746.0,151.8,-6.9,-5.7,-1490.1,-1684.5,-0.9,23.1,1013.4,-843.6,0,2670,0,228,0, 
1.4867,-297.3,-235.8,687.6,231.6,-256.2,429.9,186.9,-530.1,-1333.8,956.4,-1082.4,-432.6,-1136.1,300.3,810.3,154.8,-7.2,-5.7,-1459.2,-1695.3,-0.6,12.3,1026.3,-832.2,0,2676,0,229,0, 
1.4900,-302.1,-248.1,669.0,216.9,-271.5,414.6,182.7,-526.2,2148.9,936.9,2112.9,2461.8,-1098.3,697.8,4796.4,154.5,-6.9,-5.7,-1470.3,-1715.7,-1.2,4.5,1026.3,-854.7,0,2682,0,230,0, 
1.4933,-299.7,-236.1,663.6,219.3,-275.7,426.0,191.4,-531.9,-4001.4,948.9,704.1,1435.5,-1368.3,580.8,-1266.3,159.6,-6.6,-5.7,-1491.0,-1710.0,-1.2,-1.2,1031.1,-837.0,0,2688,0,231,0, 
1.4967,-305.1,-238.2,669.6,219.3,-275.7,416.7,181.5,-549.3,-11411.4,949.2,-3442.5,-2021.1,-1572.3,104.7,-8968.2,150.9,-6.9,-6.3,-1506.0,-1683.9,-0.9,8.7,1019.4,-859.5,0,2694,0,232,0, 
1.5000,-294.3,-231.0,679.2,226.5,-268.2,423.3,181.2,-544.5,-9781.2,949.5,-4449.9,-3038.4,-1411.2,-41.1,-7677.9,147.0,-6.9,-5.7,-1493.1,-1683.3,-0.9,-0.6,1015.2,-881.1,0,2700,0,233,0, 
1.5033,-301.2,-239.4,684.3,228.9,-267.6,436.2,190.8,-527.1,-1259.7,955.5,-1007.7,-230.1,-1153.8,320.7,856.5,141.9,-7.2,-5.7,-1461.3,-1686.9,-0.6,3.0,1043.1,-854.4,0,2706,0,234,0, 
1.5067,-300.3,-233.4,687.0,231.3,-270.0,426.3,191.1,-517.5,2223.0,956.1,2219.4,2642.4,-1101.0,713.7,4851.9,155.1,-7.2,-5.7,-1442.7,-1689.9,-0.6,0.9,1043.7,-872.7,0,2712,0,235,0, 
1.5100,-299.7,-212.4,690.9,227.7,-267.0,435.9,194.1,-526.5,-4075.5,969.6,804.3,1571.7,-1325.7,567.9,-1239.0,125.1,-6.6,-5.7,-1470.6,-1688.1,-0.6,9.6,1017.3,-850.5,0,2718,0,236,0, 
1.5133,-293.1,-213.6,683.1,223.5,-274.5,433.5,195.6,-542.4,-11485.5,943.5,-3291.6,-1978.2,-1567.2,99.0,-8939.4,139.8,-6.9,-6.6,-1521.6,-1694.4,-0.6,0.9,1020.0,-852.0,0,2724,0,237,0, 
1.5167,-294.0,-228.0,685.8,226.2,-275.1,426.0,179.1,-540.9,-9781.2,938.4,-4250.7,-3082.5,-1471.8,-68.7,-7690.5,138.3,-6.9,-6.3,-1515.3,-1687.2,-0.6,0.6,1000.5,-842.4,0,2730,0,238,0, 
1.5200,-303.3,-236.4,693.3,232.5,-266.1,432.3,182.7,-521.1,-1333.8,948.9,-688.8,-245.4,-1088.1,308.1,887.7,128.4,-6.6,-5.7,-1478.4,-1686.0,-0.6,-1.5,1006.8,-809.1,0,2736,0,239,0, 
1.5233,-307.2,-250.8,678.3,223.5,-273.6,431.7,181.8,-522.3,2297.1,939.0,2679.0,2673.3,-1086.6,708.3,4866.3,132.6,-7.2,-5.7,-1481.1,-1700.1,-0.6,-6.0,1002.3,-795.3,0,2742,0,240,0, 
1.5267,-299.1,-249.3,675.3,222.6,-276.9,423.6,186.6,-533.4,-3927.3,942.9,1201.5,1620.9,-1344.6,593.1,-1215.9,147.3,-6.9,-6.0,-1500.0,-1704.6,-0.6,-2.1,1011.6,-858.9,0,2748,0,241,0, 
1.5300,-301.2,-244.8,673.5,220.8,-281.7,420.9,193.8,-546.0,-11559.6,947.7,-2737.8,-1857.6,-1565.4,109.5,-8933.1,147.9,-6.9,-6.3,-1533.0,-1702.8,-0.9,1.8,1026.6,-877.8,0,2754,0,242,0, 
1.5333,-302.1,-244.8,675.0,220.2,-282.9,420.6,190.2,-546.0,-9781.2,951.0,-3927.0,-3060.0,-1438.2,-36.6,-7623.0,157.8,-7.2,-6.0,-1527.0,-1705.5,-0.6,22.8,1032.9,-877.5,0,2760,0,243,0, 
1.5367,-305.4,-248.4,675.3,216.3,-279.9,416.7,179.7,-535.8,-1185.6,945.0,111.6,354.9,-1152.3,339.9,842.7,153.3,-6.6,-5.7,-1505.1,-1707.0,-1.2,-5.4,1004.4,-889.2,0,2766,0,244,0, 
1.5400,-305.7,-240.3,675.9,219.9,-275.4,421.2,185.4,-528.9,2371.2,948.9,3646.5,3419.1,-1129.2,730.2,4861.8,146.1,-6.9,-5.7,-1478.1,-1700.7,-0.3,-3.0,1014.3,-863.4,0,2772,0,245,0, 
1.5433,-312.0,-234.9,666.3,210.0,-285.9,418.5,187.5,-543.0,-4075.5,944.1,1926.6,2022.0,-1406.1,579.0,-1229.1,153.0,-7.2,-6.0,-1514.7,-1713.0,-1.2,-2.4,1029.6,-850.8,0,2778,0,246,0, 
1.5467,-303.3,-221.4,680.1,222.9,-273.3,423.9,188.1,-548.1,-11485.5,945.3,-2340.3,-1559.7,-1609.5,92.4,-8923.8,126.9,-7.2,-6.0,-1528.5,-1696.2,-0.6,22.2,1021.8,-834.6,0,2784,0,247,0, 
1.5500,-298.5,-218.7,678.6,223.2,-273.0,419.7,186.3,-546.0,-9855.3,948.9,-3452.1,-2637.9,-1493.1,-79.2,-7678.2,116.1,-7.5,-6.0,-1535.7,-1701.0,-0.6,-4.5,1016.1,-834.3,0,2790,0,248,0, 
1.5533,-297.6,-214.2,677.7,218.1,-276.9,402.3,178.5,-537.6,-1333.8,938.4,-17.4,115.5,-1179.3,289.5,894.6,130.5,-6.9,-6.3,-1505.7,-1706.1,-0.9,-0.3,1008.0,-901.5,0,2796,0,249,0, 
1.5567,-302.1,-236.7,671.4,215.7,-280.5,408.0,184.8,-533.4,2223.0,939.9,3205.5,2981.7,-1147.2,690.0,4864.5,135.0,-6.9,-5.7,-1490.4,-1703.1,-0.6,-7.8,1029.9,-891.9,0,2802,0,250,0, 
1.5600,-307.2,-250.5,658.5,208.2,-289.5,417.3,191.4,-550.2,-4001.4,928.5,1614.0,1847.4,-1348.5,562.8,-1220.4,146.7,-7.2,-6.0,-1525.8,-1706.7,-1.2,-18.0,1071.3,-857.1,0,2808,0,251,0, 
1.5633,-307.2,-263.7,653.7,206.7,-297.6,402.9,177.9,-568.5,-11263.2,935.7,-3015.3,-2127.6,-1532.1,109.8,-8851.5,150.0,-6.9,-5.7,-1549.5,-1717.8,-0.9,-9.9,1004.1,-846.9,0,2814,0,252,0, 
1.5667,-290.7,-245.4,662.7,211.8,-288.0,404.1,174.9,-560.7,-9558.9,948.9,-4042.5,-3162.6,-1390.8,-29.1,-7555.5,134.1,-6.9,-5.7,-1537.5,-1717.5,-1.2,-16.5,993.6,-869.4,0,2820,0,253,0, 
1.5700,-288.6,-242.7,671.1,221.4,-280.5,397.2,177.0,-542.7,-1111.5,949.2,-370.8,-214.2,-1135.2,312.0,952.5,146.1,-6.9,-5.4,-1509.0,-1710.6,-0.6,1.2,1005.9,-891.6,0,2826,0,254,0, 
1.5733,-299.1,-242.1,676.8,231.0,-270.3,411.0,185.7,-530.4,2445.3,964.5,2957.7,2715.6,-1117.5,701.7,4900.2,147.3,-6.9,-6.0,-1489.8,-1697.4,-1.2,21.6,1018.2,-863.4,0,2832,0,255,0, 
1.5767,-309.9,-250.5,671.4,225.0,-276.0,419.1,193.5,-537.6,-4075.5,972.0,1475.1,1683.0,-1376.1,561.3,-1251.0,133.5,-6.9,-5.4,-1512.6,-1704.0,-0.9,19.8,1023.9,-837.0,0,2838,0,0,0, 
1.5800,-306.0,-240.9,667.8,222.9,-281.4,422.7,197.7,-548.7,-11337.3,966.0,-2526.0,-1768.5,-1584.9,109.2,-8922.6,133.2,-6.9,-5.7,-1538.1,-1707.6,-0.6,-2.4,1011.9,-852.6,0,2844,0,1,0, 
1.5833,-297.3,-232.2,674.1,221.4,-287.1,405.9,188.4,-552.0,-9707.1,966.9,-3510.0,-2815.2,-1432.2,-42.0,-7606.5,134.1,-6.9,-5.7,-1527.9,-1712.7,-0.6,-22.2,1005.3,-870.9,0,2850,0,2,0, 
1.5867,-282.6,-225.9,677.7,229.2,-278.7,401.1,180.3,-535.5,-1185.6,960.9,39.3,93.6,-1146.0,322.8,947.1,156.9,-7.2,-6.3,-1502.7,-1705.5,-0.3,-15.9,1029.6,-884.7,0,2856,0,3,0, 
1.5900,-291.6,-219.0,685.8,231.0,-275.4,414.0,191.7,-525.9,2445.3,972.3,3207.6,2955.9,-1070.4,679.8,4895.1,139.5,-6.9,-6.0,-1485.3,-1695.9,-0.9,15.9,1040.1,-867.6,0,2862,0,4,0, 
1.5933,-286.8,-208.5,684.6,237.0,-270.3,435.6,200.7,-529.2,-3927.3,961.8,1666.8,1847.7,-1332.3,593.7,-1211.4,132.0,-7.2,-6.3,-1507.8,-1682.4,-0.6,13.2,1052.7,-810.3,0,2868,0,5,0, 
1.5967,-294.9,-220.5,686.4,239.7,-266.1,427.5,196.2,-539.1,-11337.3,974.1,-2321.1,-1545.0,-1565.7,111.3,-8899.2,135.0,-7.2,-6.0,-1532.7,-1677.0,-0.6,32.4,1022.1,-826.2,0,2874,0,6,0, 
1.6000,-297.0,-228.0,676.5,231.6,-267.0,418.2,185.1,-542.1,-9633.0,964.8,-3363.9,-2661.3,-1455.6,-23.4,-7583.4,142.5,-7.2,-6.3,-1533.6,-1683.6,-0.6,32.7,1005.0,-868.2,0,2880,0,7,0, 
1.6033,-296.1,-228.6,682.8,232.5,-263.7,415.5,190.2,-528.9,-1259.7,963.6,214.5,260.4,-1104.0,337.2,976.2,147.9,-6.9,-5.7,-1499.4,-1684.8,-0.6,36.0,1037.7,-875.7,0,2886,0,8,0, 
1.6067,-292.2,-227.4,680.1,229.8,-267.6,415.8,191.1,-523.5,2371.2,966.6,3510.9,3126.6,-1026.0,733.8,4942.2,135.9,-7.2,-6.0,-1485.0,-1677.9,-0.6,32.7,1042.2,-875.1,0,2892,0,9,0, 
1.6100,-298.2,-240.6,667.8,223.8,-268.2,418.8,189.3,-532.2,-4001.4,964.2,2022.6,2034.0,-1321.2,595.8,-1155.3,138.0,-7.2,-6.0,-1520.7,-1680.0,-0.6,8.4,1011.9,-858.3,0,2898,0,10,0, 
1.6133,-304.5,-235.2,674.7,230.4,-264.6,422.4,181.5,-546.6,-11263.2,970.8,-1953.0,-1427.1,-1540.5,123.3,-8871.0,140.4,-7.2,-6.0,-1544.7,-1674.6,-0.6,30.6,997.2,-841.8,0,2904,0,11,0, 
1.6167,-298.5,-237.9,670.5,228.9,-271.8,423.3,187.8,-544.8,-9558.9,967.2,-2942.4,-2549.1,-1401.9,-45.6,-7524.9,134.1,-6.6,-5.7,-1553.7,-1683.0,-0.6,16.2,1045.2,-838.2,0,2910,0,12,0, 
1.6200,-289.5,-231.9,678.9,232.8,-266.1,420.6,186.6,-524.4,-1111.5,973.5,402.9,299.7,-1134.9,324.0,1015.2,138.0,-6.9,-6.3,-1526.7,-1671.3,-0.6,14.4,1014.3,-858.0,0,2916,0,13,0, 
1.6233,-286.8,-220.8,681.0,227.7,-275.7,410.7,179.7,-523.5,2445.3,969.0,3577.8,3207.0,-1078.5,723.9,4974.0,136.8,-6.9,-5.7,-1513.5,-1677.6,-0.9,12.6,985.2,-888.0,0,2922,0,14,0, 
1.6267,-300.6,-218.4,675.9,228.6,-283.5,423.3,193.5,-531.6,-3927.3,962.1,1977.3,2109.6,-1434.6,578.7,-1153.5,151.8,-6.6,-5.7,-1526.1,-1682.7,-0.6,9.9,1028.7,-866.7,0,2928,0,15,0, 
1.6300,-303.6,-225.0,661.2,217.5,-296.1,420.0,190.2,-552.6,-11485.5,950.7,-2163.6,-1441.2,-1748.4,131.4,-8844.6,140.4,-6.9,-5.7,-1562.4,-1693.2,-0.9,-2.4,1035.0,-878.4,0,2934,0,16,0, 
1.6333,-291.6,-206.7,678.0,227.7,-283.8,424.5,192.0,-540.0,-9484.8,957.9,-3229.2,-2549.1,-1466.7,-27.6,-7509.6,139.5,-6.6,-5.7,-1549.2,-1692.3,-0.6,-7.8,1021.5,-885.0,0,2940,0,17,0, 
1.6367,-286.5,-217.5,683.1,238.5,-277.2,425.7,186.0,-523.5,-1037.4,974.1,359.7,521.4,-1128.0,363.0,1062.0,134.4,-6.6,-5.7,-1511.7,-1678.5,-0.6,9.3,1005.9,-885.9,0,2946,0,18,0, 
1.6400,-291.3,-221.4,680.4,234.3,-277.8,416.4,182.4,-520.8,2445.3,960.6,3509.1,3316.5,-1061.7,726.9,5007.3,142.8,-7.2,-5.7,-1496.4,-1681.5,-1.2,9.0,1010.7,-894.3,0,2952,0,19,0, 
1.6433,-299.1,-239.4,670.8,232.8,-280.2,415.8,181.5,-534.6,-4001.4,965.7,2038.5,2278.2,-1325.1,603.9,-1107.0,134.4,-6.9,-6.3,-1525.5,-1682.4,-0.6,11.1,990.0,-863.1,0,2958,0,20,0, 
1.6467,-306.3,-240.9,652.8,215.1,-291.3,417.0,187.8,-557.4,-11189.1,946.8,-2042.1,-1290.9,-1523.1,130.5,-8793.6,148.5,-6.6,-5.7,-1571.1,-1690.5,-0.6,-10.2,1037.7,-844.5,0,2964,0,21,0, 
1.6500,-296.4,-238.8,659.1,222.3,-293.4,410.4,184.8,-546.9,-9558.9,958.8,-2969.4,-2298.9,-1401.9,-5.4,-7458.3,150.9,-6.9,-5.4,-1557.6,-1694.1,-1.2,-9.6,996.0,-873.6,0,2970,0,22,0, 
1.6533,-292.2,-238.8,655.2,212.7,-305.1,410.7,183.9,-538.8,-1037.4,948.3,374.1,539.1,-1089.9,372.6,1075.5,148.5,-6.9,-5.7,-1536.9,-1706.7,-0.3,-29.4,993.6,-896.7,0,2976,0,23,0, 
1.6567,-284.4,-238.5,662.7,222.3,-290.4,405.3,181.8,-525.9,2519.4,948.3,3554.4,3399.6,-1047.0,767.1,5000.1,159.3,-6.9,-5.4,-1523.7,-1689.6,-0.9,-6.9,1005.6,-867.9,0,2982,0,24,0, 
1.6600,-296.4,-222.6,672.0,237.6,-273.6,430.5,200.4,-518.4,-4075.5,966.6,2047.5,2327.4,-1328.7,570.0,-1153.2,160.2,-6.9,-6.0,-1530.9,-1667.7,-1.2,24.0,1025.7,-809.1,0,2988,0,25,0, 
1.6633,-304.2,-239.4,669.3,237.3,-274.5,429.9,195.9,-534.0,-11263.2,968.1,-2008.5,-1204.8,-1566.6,93.0,-8867.1,153.9,-6.9,-6.3,-1557.3,-1668.6,-0.9,32.4,1018.5,-813.0,0,2994,0,26,0, 
1.6667,-300.0,-249.3,652.8,227.1,-285.3,414.0,189.9,-543.0,-9633.0,955.5,-3072.0,-2217.6,-1431.3,-49.5,-7525.2,143.1,-6.3,-6.0,-1565.7,-1688.1,-0.9,11.4,1020.9,-880.2,0,3000,0,27,0, 
1.6700,-298.5,-255.0,653.1,227.1,-277.2,424.2,190.5,-527.4,-1111.5,954.3,456.9,665.4,-1137.0,340.5,1014.6,132.6,-7.2,-6.3,-1536.3,-1688.1,-0.6,12.9,1016.4,-866.7,0,3006,0,28,0, 
1.6733,-292.5,-240.3,657.6,229.2,-282.0,413.7,183.9,-517.8,2297.1,952.2,3600.0,3471.0,-1066.5,723.9,4931.7,133.8,-7.2,-5.7,-1521.6,-1698.0,-0.6,-1.5,976.2,-868.8,0,3012,0,29,0, 
1.6767,-300.3,-231.6,665.1,228.3,-281.4,423.0,196.5,-527.4,-3927.3,955.2,2080.2,2325.9,-1351.5,571.8,-1219.8,142.5,-7.2,-6.0,-1529.7,-1695.3,-0.3,5.1,1024.5,-868.2,0,3018,0,30,0, 
1.6800,-290.1,-219.3,660.6,222.9,-293.7,408.3,194.4,-542.1,-11411.4,940.8,-1987.2,-1142.4,-1590.9,105.3,-8888.4,175.2,-7.2,-5.7,-1578.9,-1700.1,-0.3,-2.1,1034.1,-890.1,0,3024,0,31,0, 
1.6833,-291.9,-215.4,656.4,222.9,-289.8,415.2,189.0,-538.2,-9633.0,939.6,-3059.7,-2262.3,-1504.8,-53.4,-7566.6,143.4,-6.9,-5.7,-1572.3,-1698.6,-0.9,-15.9,1005.9,-867.0,0,3030,0,32,0, 
1.6867,-290.7,-216.9,663.6,231.3,-286.5,425.1,187.8,-520.8,-1111.5,939.3,401.7,668.1,-1136.7,318.6,980.4,127.2,-6.9,-5.7,-1543.2,-1690.5,-0.3,-16.8,999.9,-842.1,0,3036,0,33,0, 
1.6900,-297.9,-227.7,667.8,237.6,-277.8,425.7,193.2,-508.5,2297.1,956.1,3618.0,3481.5,-1133.7,672.3,4886.1,145.8,-6.6,-5.7,-1516.2,-1676.1,-1.2,15.3,1012.5,-890.7,0,3042,0,34,0, 
1.6933,-309.6,-237.9,659.1,229.5,-280.8,423.6,199.5,-524.7,-3927.3,940.8,2091.3,2284.8,-1367.1,570.3,-1227.9,162.3,-6.9,-5.7,-1539.9,-1682.7,-0.6,5.4,1032.6,-902.4,0,3048,0,35,0, 
1.6967,-304.8,-233.4,661.5,228.0,-282.0,422.1,201.9,-536.4,-11411.4,953.7,-1884.3,-1227.6,-1588.2,108.9,-8895.9,135.3,-6.3,-6.0,-1569.0,-1682.7,-0.9,14.7,1043.1,-893.4,0,3054,0,36,0, 
1.7000,-303.9,-229.8,657.9,225.0,-282.6,424.2,197.7,-536.1,-9633.0,945.9,-2826.3,-2265.0,-1435.5,-43.2,-7549.5,139.2,-7.2,-6.0,-1566.9,-1692.6,-0.6,5.7,1017.6,-887.1,0,3060,0,37,0, 
1.7033,-303.0,-238.5,663.6,224.7,-283.2,415.2,191.4,-523.8,-1111.5,953.7,611.1,584.4,-1118.7,334.2,999.3,136.5,-6.9,-5.7,-1533.3,-1697.1,-0.6,-3.6,997.8,-886.2,0,3066,0,38,0, 
1.7067,-307.5,-248.7,651.9,216.3,-286.5,410.1,186.0,-520.2,2297.1,948.9,3646.8,3467.4,-1089.3,717.9,4915.5,141.0,-7.2,-5.7,-1533.3,-1704.9,-0.9,-4.8,982.8,-896.1,0,3072,0,39,0, 
1.7100,-300.3,-229.2,659.1,222.3,-281.7,409.2,192.0,-524.4,-3927.3,953.1,2213.4,2411.4,-1356.6,591.9,-1205.7,146.1,-6.6,-5.4,-1545.0,-1697.4,-0.9,-1.8,1001.1,-897.0,0,3078,0,40,0, 
1.7133,-303.6,-232.5,651.6,217.5,-285.0,414.9,193.2,-541.5,-11189.1,963.0,-2002.8,-1071.0,-1555.5,110.4,-8876.1,145.5,-6.6,-5.7,-1573.2,-1707.9,-0.9,-18.9,1003.8,-867.0,0,3084,0,41,0, 
1.7167,-297.0,-227.7,653.7,217.2,-283.8,423.9,197.4,-540.6,-9484.8,939.9,-3052.5,-2156.4,-1361.4,-54.0,-7516.5,141.0,-6.6,-6.0,-1583.7,-1702.5,-0.9,-18.6,1002.0,-828.9,0,3090,0,42,0, 
1.7200,-288.9,-233.4,649.5,213.3,-291.3,410.1,194.7,-525.6,-1185.6,932.1,388.2,719.4,-1108.5,301.5,1006.8,159.0,-7.2,-5.7,-1563.3,-1707.9,-0.9,-25.8,1009.8,-872.1,0,3096,0,43,0, 
1.7233,-300.3,-243.6,651.9,219.0,-289.2,407.1,189.3,-522.3,2371.2,942.3,3446.1,3609.6,-1115.1,694.8,4920.9,144.0,-6.9,-5.7,-1546.2,-1697.4,-0.6,4.5,994.5,-891.6,0,3102,0,44,0, 
1.7267,-306.6,-249.3,644.1,217.5,-287.7,422.7,204.3,-530.1,-3927.3,937.8,2142.0,2503.8,-1437.0,561.0,-1224.3,141.6,-7.5,-6.0,-1570.5,-1698.9,-1.2,-9.3,1030.8,-838.8,0,3108,0,45,0, 
1.7300,-308.1,-240.9,647.4,217.8,-288.0,415.5,194.4,-546.0,-11411.4,942.9,-1951.5,-1002.3,-1659.0,92.4,-8888.7,147.3,-6.6,-6.0,-1599.3,-1703.1,-0.9,-12.3,1005.9,-835.5,0,3114,0,46,0, 
1.7333,-302.7,-236.7,655.8,216.9,-283.5,409.8,186.0,-540.0,-9633.0,936.0,-2992.8,-2127.6,-1469.1,-50.4,-7530.9,123.6,-6.9,-5.7,-1594.2,-1698.3,-0.6,-12.9,998.1,-864.9,0,3120,0,47,0, 
1.7367,-300.9,-242.4,658.8,211.5,-280.2,409.5,182.7,-531.3,-1185.6,918.0,503.4,876.6,-1159.5,335.1,1002.6,129.3,-6.9,-6.0,-1562.1,-1704.3,-0.6,-9.0,987.6,-877.8,0,3126,0,48,0, 
1.7400,-299.1,-242.7,666.9,217.2,-280.2,398.1,186.3,-523.5,2371.2,940.2,3720.3,3652.8,-1105.2,717.0,4934.4,132.0,-6.9,-6.3,-1524.9,-1700.7,-0.9,-15.9,999.0,-895.5,0,3132,0,49,0, 
1.7433,-299.4,-242.1,671.1,223.8,-273.0,397.8,193.2,-528.9,-3853.2,952.8,2113.2,2519.1,-1387.2,566.7,-1208.4,132.3,-7.2,-5.7,-1541.7,-1689.3,-0.6,9.9,1007.4,-888.6,0,3138,0,50,0, 
1.7467,-305.1,-245.7,663.0,218.7,-280.5,406.8,190.8,-549.9,-11337.3,936.6,-1956.3,-1067.4,-1599.3,105.6,-8865.9,134.4,-6.9,-5.7,-1580.1,-1696.8,-0.6,-2.7,1001.1,-887.1,0,3144,0,51,0, 
1.7500,-299.4,-250.5,671.4,218.1,-274.5,397.8,180.9,-546.3,-9558.9,944.4,-2987.7,-2081.1,-1412.4,-43.2,-7488.0,129.6,-6.9,-5.7,-1572.3,-1705.5,-0.6,5.4,994.8,-861.6,0,3150,0,52,0, 
1.7533,-311.1,-260.1,668.1,212.4,-280.5,407.4,187.2,-537.0,-1111.5,929.4,439.5,820.2,-1127.4,322.5,1047.9,136.5,-6.6,-6.0,-1557.6,-1707.6,-0.6,1.8,1003.2,-839.4,0,3156,0,53,0, 
1.7567,-313.2,-262.8,673.2,216.6,-283.5,390.9,181.2,-528.9,2445.3,951.3,3551.1,3658.2,-1064.4,726.0,4974.0,138.0,-7.2,-5.1,-1531.8,-1701.3,-0.6,-18.3,987.0,-870.3,0,3162,0,54,0, 
1.7600,-312.3,-276.9,666.9,208.5,-289.5,381.0,175.2,-538.5,-3927.3,952.8,2074.5,2512.5,-1353.3,603.6,-1158.3,129.3,-6.9,-6.0,-1561.2,-1696.8,-0.9,-9.3,982.5,-904.2,0,3168,0,55,0, 
1.7633,-302.7,-267.0,668.4,205.8,-284.7,386.7,177.9,-550.8,-11263.2,946.8,-2028.6,-976.2,-1569.9,129.3,-8807.7,136.5,-6.6,-5.7,-1608.3,-1705.5,-0.6,-7.5,995.4,-902.4,0,3174,0,56,0, 
1.7667,-303.6,-263.1,677.4,211.2,-273.3,389.7,176.7,-548.7,-9484.8,949.2,-2989.8,-1988.4,-1480.8,-36.0,-7414.8,141.3,-6.9,-6.0,-1599.0,-1701.6,-0.6,-16.8,996.6,-891.3,0,3180,0,57,0, 
1.7700,-299.1,-248.7,690.3,212.4,-272.1,386.4,176.7,-534.9,-963.3,942.0,554.1,978.3,-1125.9,333.3,1073.7,141.3,-7.2,-6.0,-1562.4,-1699.8,-0.9,-22.2,1009.5,-867.9,0,3186,0,58,0, 
1.7733,-307.5,-250.5,689.1,217.2,-269.4,396.0,183.3,-526.8,2445.3,936.6,3648.6,3659.1,-1070.4,703.5,4976.4,137.7,-6.9,-6.0,-1562.4,-1698.3,-0.9,-11.4,1026.0,-826.5,0,3192,0,59,0, 
1.7767,-296.4,-254.1,684.9,214.8,-273.3,401.4,185.7,-534.9,-3927.3,942.9,2046.0,2639.7,-1323.0,553.2,-1164.0,141.9,-6.9,-5.7,-1595.7,-1698.3,-0.6,-23.1,1011.0,-795.0,0,3198,0,60,0, 
1.7800,-307.5,-251.1,693.6,219.3,-272.4,402.9,179.4,-546.9,-11411.4,958.2,-1942.5,-843.3,-1576.8,65.4,-8834.4,110.4,-6.9,-5.7,-1621.8,-1695.3,-0.9,2.1,1008.6,-818.1,0,3204,0,61,0, 
1.7833,-307.2,-249.6,697.8,219.0,-274.8,393.3,172.5,-546.3,-9558.9,951.9,-3051.0,-1944.3,-1494.3,-61.8,-7439.7,124.5,-6.6,-5.7,-1615.2,-1695.3,-0.3,-9.0,988.5,-851.4,0,3210,0,62,0, 
1.7867,-294.9,-240.3,700.5,221.4,-273.3,386.4,178.2,-528.6,-1037.4,933.0,333.6,908.1,-1175.7,337.5,1094.7,129.9,-6.6,-6.0,-1589.4,-1696.5,-0.6,5.4,993.6,-881.1,0,3216,0,63,0, 
1.7900,-300.0,-248.7,690.9,213.6,-278.7,386.1,177.3,-523.2,2445.3,928.2,3527.1,3716.1,-1107.9,705.0,4995.9,126.0,-7.2,-5.7,-1591.8,-1702.2,-0.9,-5.4,1010.4,-874.8,0,3222,0,64,0, 
1.7933,-312.3,-268.2,681.6,208.8,-278.7,391.5,184.2,-540.0,-3927.3,935.7,2020.2,2661.3,-1370.1,582.6,-1155.0,129.6,-6.9,-5.7,-1605.9,-1703.4,-0.6,-4.8,1012.8,-859.5,0,3228,0,65,0, 
1.7967,-310.5,-272.4,678.0,201.6,-290.7,383.7,174.6,-559.5,-11263.2,934.8,-2030.7,-924.3,-1576.8,114.0,-8804.4,130.5,-7.2,-6.0,-1641.3,-1705.5,-0.9,-3.3,1002.3,-870.9,0,3234,0,66,0, 
1.8000,-306.3,-268.5,688.5,204.6,-288.9,380.1,168.3,-558.0,-9484.8,933.9,-3069.0,-1943.4,-1419.3,-39.0,-7422.9,128.1,-6.9,-5.7,-1638.9,-1710.9,-0.6,-5.4,1000.8,-864.6,0,3240,0,67,0, 
1.8033,-300.9,-278.1,692.4,208.5,-280.8,379.2,168.0,-543.3,-1185.6,940.8,395.7,918.3,-1155.6,338.7,1084.5,137.7,-7.2,-5.4,-1612.8,-1704.3,-0.9,-15.3,994.5,-877.8,0,3246,0,68,0, 
1.8067,-298.8,-274.8,686.7,201.9,-292.2,381.0,174.0,-536.7,2371.2,933.9,3580.2,3733.8,-1126.2,748.5,4970.7,158.1,-6.9,-5.7,-1607.7,-1716.0,-0.9,-30.6,1007.7,-878.4,0,3252,0,69,0, 
1.8100,-303.9,-255.3,700.8,216.9,-274.2,395.7,177.3,-542.7,-4149.6,953.7,2091.9,2673.9,-1395.6,572.1,-1228.8,133.2,-6.9,-6.0,-1617.6,-1692.9,-0.6,-4.2,998.1,-845.4,0,3258,0,70,0, 
1.8133,-307.5,-251.7,695.7,213.6,-277.8,397.8,183.6,-556.2,-11411.4,949.2,-2020.2,-873.6,-1662.0,86.1,-8894.1,146.7,-6.6,-5.7,-1645.5,-1692.0,-0.9,0.6,998.7,-826.2,0,3264,0,71,0, 
1.8167,-301.8,-248.4,690.9,210.3,-280.2,384.3,169.5,-556.5,-9633.0,942.3,-3052.2,-1917.0,-1507.2,-51.3,-7499.1,132.3,-6.6,-6.3,-1649.4,-1702.2,-0.6,-1.2,991.2,-854.7,0,3270,0,72,0, 
1.8200,-298.8,-264.6,690.9,201.6,-284.7,375.6,163.8,-546.0,-1111.5,921.9,512.1,1030.5,-1166.7,327.0,1033.5,133.8,-6.9,-6.0,-1629.0,-1712.7,-0.6,-20.4,997.5,-860.4,0,3276,0,73,0, 
1.8233,-289.8,-262.2,695.4,207.6,-280.8,370.5,170.1,-531.0,2371.2,927.9,3625.5,3837.9,-1085.7,714.9,4901.7,123.9,-6.6,-6.0,-1599.9,-1709.1,0.0,-21.6,1008.0,-876.0,0,3282,0,74,0, 
1.8267,-299.1,-267.3,698.1,211.5,-277.8,380.4,180.9,-539.4,-4001.4,944.1,2045.1,2700.0,-1349.4,544.5,-1262.1,144.3,-6.6,-5.4,-1620.0,-1704.3,-0.6,-3.3,1026.9,-877.2,0,3288,0,75,0, 
1.8300,-297.9,-255.6,702.3,213.9,-272.1,390.6,189.9,-549.9,-11411.4,951.9,-1939.2,-684.9,-1574.1,78.0,-8906.7,141.3,-6.9,-6.0,-1635.0,-1701.9,-0.9,-11.4,1021.5,-845.7,0,3294,0,76,0, 
1.8333,-296.7,-252.0,707.7,214.5,-273.3,381.3,181.5,-547.5,-9633.0,962.1,-3071.4,-1757.1,-1429.2,-66.0,-7507.8,161.1,-6.9,-5.7,-1627.2,-1699.5,-0.6,-1.5,1035.3,-840.6,0,3300,0,77,0, 
1.8367,-296.1,-255.0,709.5,217.2,-269.4,390.9,178.2,-534.6,-1259.7,953.4,431.7,1082.4,-1151.4,322.2,1019.7,134.7,-6.6,-6.0,-1596.3,-1696.2,-0.6,8.1,1021.2,-854.4,0,3306,0,78,0, 
1.8400,-299.7,-254.4,713.4,218.1,-271.5,382.8,168.3,-531.6,2371.2,951.6,3549.6,3833.4,-1050.9,693.0,4902.0,125.4,-7.2,-5.7,-1574.7,-1684.8,-0.6,18.6,1013.7,-837.9,0,3312,0,79,0, 
1.8433,-300.3,-256.5,702.0,212.7,-279.6,379.5,177.6,-542.4,-4075.5,946.8,2055.6,2718.3,-1312.8,549.0,-1243.8,140.1,-6.9,-5.4,-1604.1,-1701.6,-0.6,2.7,1030.2,-840.3,0,3318,0,80,0, 
1.8467,-306.9,-269.7,692.1,209.4,-282.6,380.1,175.5,-556.2,-11559.6,947.7,-2011.5,-826.2,-1555.5,82.2,-8863.2,149.7,-6.9,-5.7,-1644.0,-1700.4,-0.3,2.7,1008.3,-853.5,0,3324,0,81,0, 
1.8500,-304.8,-266.4,697.5,212.1,-279.3,381.3,176.7,-552.9,-9558.9,950.7,-3027.6,-1812.0,-1435.2,-48.3,-7462.8,129.6,-7.2,-6.3,-1634.7,-1702.2,-0.6,-8.4,1005.6,-873.0,0,3330,0,82,0, 
1.8533,-301.2,-277.8,700.8,213.9,-273.9,378.3,176.1,-534.0,-1185.6,945.3,421.2,1008.3,-1145.7,333.0,1073.7,139.5,-6.9,-5.7,-1600.8,-1701.6,-0.6,-8.1,1003.5,-862.2,0,3336,0,83,0, 
1.8567,-308.1,-273.3,699.6,211.2,-283.5,369.9,165.0,-528.6,2445.3,952.8,3600.0,3861.3,-1111.8,714.9,4935.6,140.1,-6.9,-6.0,-1594.2,-1718.4,-0.6,-12.3,981.0,-872.7,0,3342,0,84,0, 
1.8600,-310.2,-269.1,700.2,205.2,-284.7,378.0,171.9,-538.5,-4075.5,949.2,2055.0,2704.8,-1407.0,565.8,-1212.3,131.4,-6.9,-6.0,-1630.8,-1734.9,-0.6,-16.2,990.3,-855.6,0,3348,0,85,0, 
1.8633,-308.1,-260.7,697.5,208.2,-279.6,387.3,174.6,-551.4,-11411.4,934.8,-1961.7,-725.1,-1615.2,96.0,-8837.4,140.7,-6.9,-6.0,-1661.1,-1719.3,-0.9,0.3,992.7,-858.0,0,3354,0,86,0, 
1.8667,-314.1,-273.0,701.1,214.8,-272.7,381.3,168.6,-559.2,-9484.8,934.5,-2915.7,-1724.1,-1519.2,-67.2,-7433.7,143.1,-6.9,-5.7,-1633.5,-1687.5,-0.9,-8.7,1002.3,-871.5,0,3360,0,87,0, 
1.8700,-302.1,-264.3,714.9,218.4,-263.7,383.4,164.4,-535.8,-1111.5,951.9,470.1,1116.6,-1169.1,310.8,1078.5,119.7,-6.9,-5.7,-1601.1,-1675.8,-0.6,-1.5,983.7,-867.6,0,3366,0,88,0, 
1.8733,-303.0,-262.8,713.1,219.0,-276.6,377.4,161.4,-526.5,2445.3,949.5,3616.2,3867.9,-1122.3,685.8,4943.7,119.4,-7.2,-5.7,-1589.4,-1697.1,-0.9,-14.7,970.5,-879.3,0,3372,0,89,0, 
1.8767,-303.9,-261.9,710.7,220.8,-270.6,404.7,177.6,-532.2,-3927.3,939.3,2076.3,2757.6,-1402.8,566.7,-1219.5,116.7,-6.3,-5.7,-1626.6,-1688.4,-0.9,-0.3,991.2,-833.1,0,3378,0,90,0, 
1.8800,-309.3,-262.5,702.6,211.8,-273.9,401.4,171.3,-555.0,-11337.3,939.9,-2088.0,-763.2,-1591.8,78.9,-8847.9,135.3,-7.2,-6.0,-1659.3,-1699.8,-0.6,-19.8,1008.3,-838.8,0,3384,0,91,0, 
1.8833,-296.7,-255.3,703.2,213.0,-273.6,386.1,161.4,-552.3,-9633.0,945.0,-3061.2,-1900.5,-1425.0,-61.8,-7430.1,125.4,-6.9,-5.4,-1657.5,-1689.6,-0.6,-26.1,989.4,-848.1,0,3390,0,92,0, 
1.8867,-302.4,-269.7,698.7,208.2,-274.5,386.4,159.0,-543.3,-1185.6,935.1,433.5,973.5,-1151.4,277.8,1072.8,123.0,-6.6,-6.0,-1631.1,-1685.7,-0.6,-21.3,976.2,-850.5,0,3396,0,93,0, 
1.8900,-318.6,-274.2,694.5,209.7,-273.0,388.2,165.0,-533.4,2297.1,927.3,3596.4,3794.4,-1158.3,654.9,4906.8,130.8,-6.9,-5.4,-1623.6,-1680.0,-0.3,-19.5,996.0,-854.4,0,3402,0,94,0, 
1.8933,-311.1,-282.9,691.5,206.1,-273.9,383.4,165.3,-544.5,-3927.3,936.9,2021.4,2616.3,-1332.9,549.9,-1229.1,128.7,-6.9,-5.4,-1635.0,-1689.3,-0.9,0.9,1003.2,-863.7,0,3408,0,95,0, 
1.8967,-310.5,-289.8,689.4,204.9,-274.5,381.0,165.9,-556.2,-11263.2,941.7,-2101.2,-885.9,-1580.4,83.4,-8844.9,133.8,-6.9,-5.7,-1653.6,-1692.9,0.0,1.8,1002.0,-845.1,0,3414,0,96,0, 
1.9000,-303.0,-276.6,699.9,211.8,-270.6,390.0,167.7,-554.7,-9633.0,946.8,-3008.4,-1903.5,-1420.5,-72.6,-7416.9,135.6,-6.9,-6.0,-1645.5,-1690.8,-0.6,-7.2,997.8,-859.5,0,3420,0,97,0, 
1.9033,-309.0,-276.0,702.6,209.7,-265.8,390.3,167.7,-538.2,-1111.5,945.6,538.5,976.5,-1172.4,292.5,1065.3,128.1,-6.9,-6.0,-1627.8,-1693.8,-0.3,-8.7,994.2,-889.2,0,3426,0,98,0, 
1.9067,-307.5,-276.0,710.4,211.2,-264.0,381.9,163.5,-533.1,2297.1,941.1,3483.9,3770.1,-1148.4,678.0,4910.7,140.7,-7.2,-5.7,-1598.7,-1682.7,-0.6,-0.9,1010.7,-872.1,0,3432,0,99,0, 
1.9100,-316.2,-283.2,693.9,205.5,-265.2,385.2,169.5,-547.8,-4001.4,936.6,2003.7,2587.2,-1376.7,540.0,-1244.7,159.9,-6.9,-6.3,-1619.4,-1677.6,-0.9,-9.0,1020.3,-843.3,0,3438,0,100,0, 
1.9133,-307.2,-273.9,696.3,212.7,-264.0,397.8,171.0,-553.5,-11337.3,939.9,-2063.7,-879.0,-1582.8,70.5,-8876.7,146.1,-6.9,-6.0,-1648.2,-1678.2,-0.9,8.7,1011.0,-820.5,0,3444,0,101,0, 
1.9167,-307.8,-267.9,704.4,212.7,-262.8,392.4,168.3,-553.2,-9558.9,937.2,-3118.5,-1889.7,-1458.9,-79.5,-7443.6,152.1,-6.9,-5.7,-1630.5,-1681.2,-0.3,8.4,988.8,-839.7,0,3450,0,102,0, 
1.9200,-312.6,-270.3,707.4,215.4,-263.1,401.7,171.0,-535.2,-1185.6,937.8,417.0,1028.7,-1201.5,296.7,1071.3,135.6,-6.6,-5.7,-1600.2,-1672.8,-0.3,10.2,984.6,-829.5,0,3456,0,103,0, 
1.9233,-313.8,-266.4,706.8,210.6,-262.5,396.3,168.9,-530.1,2297.1,948.0,3495.6,3850.5,-1103.1,687.9,4932.6,128.1,-6.9,-6.0,-1590.9,-1674.0,-0.9,8.1,1011.9,-854.4,0,3462,0,104,0, 
1.9267,-308.1,-266.7,698.1,207.9,-265.2,398.1,172.8,-542.1,-4001.4,936.9,1925.1,2740.5,-1347.0,547.5,-1252.8,141.9,-6.9,-6.0,-1614.9,-1671.9,-0.6,1.8,1009.2,-842.7,0,3468,0,105,0, 
1.9300,-309.6,-265.5,696.9,210.3,-264.0,399.3,177.3,-551.4,-11411.4,939.3,-2187.6,-832.5,-1603.8,68.4,-8882.7,142.8,-6.9,-6.0,-1644.9,-1680.3,-0.9,3.0,1019.1,-842.1,0,3474,0,106,0, 
1.9333,-296.4,-260.1,703.5,212.1,-266.1,395.1,168.9,-551.1,-9633.0,936.0,-3029.4,-1881.0,-1464.9,-57.9,-7419.9,127.8,-7.5,-6.0,-1639.8,-1688.1,-0.3,-24.3,987.0,-850.8,0,3480,0,107,0, 
1.9367,-299.7,-267.0,699.0,205.5,-276.9,371.7,156.6,-550.5,-963.3,921.6,384.9,933.0,-1161.0,305.4,1113.0,134.1,-6.6,-6.0,-1608.9,-1696.5,-0.9,-39.6,984.0,-892.8,0,3486,0,108,0, 
1.9400,-308.7,-265.8,706.5,213.0,-266.7,383.4,161.7,-532.5,2223.0,948.3,3393.6,3763.8,-1117.2,683.1,4910.4,147.0,-7.2,-5.7,-1586.4,-1674.9,-0.3,-0.6,992.1,-885.0,0,3492,0,109,0, 
1.9433,-313.8,-262.8,703.5,219.9,-261.3,402.0,174.9,-537.9,-4149.6,950.4,1867.2,2682.6,-1389.6,541.5,-1285.2,145.2,-6.9,-6.3,-1607.7,-1666.5,-0.9,5.4,1007.4,-831.0,0,3498,0,110,0, 
1.9467,-313.8,-260.4,702.3,222.9,-253.8,410.4,183.9,-545.4,-11337.3,957.0,-2168.4,-731.1,-1585.5,64.8,-8887.5,154.2,-6.6,-6.3,-1638.9,-1662.3,-0.9,5.7,1027.2,-797.1,0,3504,0,111,0, 
1.9500,-304.2,-259.8,705.0,217.8,-260.4,393.0,169.8,-550.2,-9558.9,948.3,-3169.2,-1757.1,-1394.1,-87.0,-7427.7,150.3,-6.6,-5.7,-1635.9,-1670.7,-0.9,2.1,1003.2,-846.9,0,3510,0,112,0, 
1.9533,-305.4,-270.6,697.8,205.8,-274.5,384.6,167.7,-542.1,-1111.5,939.6,361.2,1069.5,-1073.7,261.9,1074.0,136.8,-6.9,-6.3,-1614.6,-1684.8,-0.6,-4.2,1022.1,-878.4,0,3516,0,113,0, 
1.9567,-307.8,-275.1,692.1,217.8,-266.1,393.9,173.1,-526.5,2223.0,951.6,3428.4,3910.8,-1104.9,657.0,4914.6,151.2,-6.9,-5.7,-1600.8,-1674.9,-1.2,13.2,1007.4,-873.0,0,3522,0,114,0, 
1.9600,-305.4,-260.1,700.5,226.2,-259.5,402.9,181.8,-528.9,-4001.4,955.8,1937.7,2820.9,-1435.5,543.3,-1278.9,154.5,-7.2,-6.3,-1618.5,-1661.4,-0.6,26.1,1011.0,-863.1,0,3528,0,115,0, 
1.9633,-304.2,-254.7,696.3,228.3,-264.9,405.3,186.3,-545.7,-11337.3,945.3,-2154.6,-693.9,-1610.4,73.8,-8882.4,145.5,-6.9,-6.0,-1644.3,-1668.3,-0.3,0.6,1018.8,-843.9,0,3534,0,116,0, 
1.9667,-303.3,-255.6,702.9,225.3,-259.5,391.8,172.2,-544.8,-9558.9,947.7,-3079.8,-1733.4,-1424.7,-64.2,-7397.7,165.3,-6.6,-6.3,-1632.9,-1669.5,-0.6,-12.6,996.9,-858.9,0,3540,0,117,0, 
1.9700,-308.1,-286.2,684.3,214.8,-276.9,390.9,171.9,-541.8,-1111.5,940.8,354.3,1117.2,-1142.4,312.9,1112.4,155.1,-6.9,-5.7,-1615.5,-1682.4,-0.6,-18.0,1015.5,-858.9,0,3546,0,118,0, 
1.9733,-305.1,-269.7,691.5,219.0,-266.7,405.6,172.8,-530.1,2297.1,956.1,3433.5,3889.8,-1084.2,689.7,4932.3,149.1,-6.6,-6.0,-1594.2,-1666.2,-0.9,-9.9,997.5,-813.9,0,3552,0,119,0, 
1.9767,-304.5,-263.7,683.4,220.5,-270.9,402.6,176.4,-539.4,-4149.6,944.4,1932.0,2781.3,-1375.2,540.9,-1274.1,142.5,-6.3,-6.3,-1619.4,-1671.3,-0.6,-6.3,1013.4,-840.0,0,3558,0,120,0, 
1.9800,-314.1,-268.8,678.3,214.8,-277.8,396.0,177.0,-552.6,-11263.2,933.0,-2199.6,-719.7,-1610.7,80.4,-8865.0,157.8,-7.5,-6.0,-1658.7,-1678.8,-0.3,4.5,1007.4,-886.8,0,3564,0,121,0, 
1.9833,-301.8,-262.8,678.0,210.6,-277.8,405.9,177.3,-551.1,-9633.0,932.1,-3177.3,-1707.9,-1431.0,-81.3,-7391.7,142.8,-6.6,-6.0,-1662.3,-1681.5,-0.6,-5.1,1001.7,-853.2,0,3570,0,122,0, 
1.9867,-307.8,-264.0,689.4,212.1,-272.1,403.8,174.6,-539.7,-1037.4,939.0,348.3,1178.7,-1155.3,268.2,1116.0,138.3,-6.9,-6.0,-1629.3,-1678.8,-0.6,-5.4,997.5,-849.0,0,3576,0,123,0, 
1.9900,-309.0,-255.9,685.5,206.7,-279.3,392.7,165.6,-530.7,2297.1,935.4,3394.8,3897.3,-1156.2,672.6,4943.1,128.4,-6.6,-6.0,-1635.0,-1680.6,-0.9,2.7,981.0,-850.5,0,3582,0,124,0, 
1.9933,-306.6,-266.4,670.8,199.2,-286.2,393.3,171.0,-543.6,-4001.4,918.6,1844.7,2741.7,-1403.4,521.1,-1235.4,147.0,-6.6,-5.7,-1671.6,-1682.1,-0.9,-11.1,1002.0,-850.8,0,3588,0,125,0, 
1.9967,-308.4,-266.1,684.3,208.8,-287.7,392.7,172.5,-553.2,-11189.1,935.7,-2213.1,-823.5,-1586.1,78.3,-8811.9,149.4,-7.2,-6.0,-1667.7,-1688.7,-0.6,-27.0,1002.0,-870.3,0,3594,0,126,0, 
2.0000,-311.4,-270.9,685.2,209.1,-284.1,387.0,165.6,-552.3,-9484.8,933.6,-3309.9,-1898.4,-1442.1,-69.3,-7338.6,137.1,-6.9,-6.0,-1664.7,-1693.5,-0.3,-33.6,981.6,-908.7,0,3600,0,127,0, 
2.0033,-304.8,-266.4,685.5,207.9,-278.4,388.2,174.0,-531.9,-1037.4,923.7,217.2,1042.2,-1170.0,328.8,1187.4,143.7,-6.9,-6.0,-1631.1,-1690.2,-0.6,-24.6,992.4,-896.4,0,3606,0,128,0, 
2.0067,-306.3,-275.4,679.5,207.3,-280.8,385.2,170.4,-525.9,2371.2,922.5,3387.3,3984.9,-1137.9,707.4,4996.8,144.6,-6.9,-5.7,-1618.8,-1694.1,-0.6,-33.3,989.4,-908.1,0,3612,0,129,0, 
2.0100,-304.8,-262.5,680.7,210.3,-280.5,383.7,168.0,-534.0,-4001.4,929.4,1894.2,2790.6,-1416.9,557.1,-1188.9,136.2,-6.9,-6.0,-1635.9,-1686.3,-0.9,-24.0,972.6,-907.5,0,3618,0,130,0, 
2.0133,-309.0,-277.2,665.7,195.3,-297.0,380.1,166.2,-556.2,-11189.1,915.6,-2171.7,-689.4,-1648.8,78.9,-8801.4,141.6,-6.6,-5.7,-1686.0,-1694.1,-0.6,-31.2,983.1,-893.7,0,3624,0,131,0, 
2.0167,-308.4,-281.7,662.4,190.5,-299.4,383.4,165.6,-555.9,-9558.9,910.5,-3140.7,-1799.4,-1504.5,-89.4,-7344.3,139.2,-6.3,-6.3,-1696.2,-1703.7,-0.6,-33.0,987.3,-882.9,0,3630,0,132,0, 
2.0200,-305.7,-274.8,667.2,195.6,-299.1,387.6,166.8,-542.1,-1037.4,909.0,240.0,1050.6,-1163.7,290.4,1169.4,134.7,-6.6,-5.7,-1668.6,-1701.0,-0.9,-30.9,987.0,-872.7,0,3636,0,133,0, 
2.0233,-314.7,-281.7,675.0,199.2,-291.6,389.1,170.7,-530.4,2297.1,926.7,3431.1,3802.8,-1080.3,669.0,4972.5,133.2,-7.2,-6.0,-1653.0,-1689.3,-0.3,-35.4,996.6,-854.7,0,3642,0,134,0, 
2.0267,-318.9,-285.6,658.2,193.5,-295.5,392.7,181.2,-544.8,-4075.5,920.4,1896.0,2658.9,-1381.2,525.0,-1249.8,138.3,-6.9,-5.7,-1682.1,-1699.2,-0.6,-32.7,1002.9,-852.9,0,3648,0,135,0, 
2.0300,-312.3,-274.5,669.9,205.8,-280.8,391.5,172.2,-550.5,-11337.3,925.2,-2205.9,-822.6,-1568.4,82.5,-8829.3,122.7,-6.9,-5.7,-1689.9,-1685.4,-0.6,-19.8,986.7,-839.1,0,3654,0,136,0, 
2.0333,-305.1,-280.2,677.4,207.6,-284.4,375.3,163.8,-547.8,-9484.8,941.4,-3237.3,-1850.4,-1418.7,-53.7,-7344.0,129.9,-7.2,-6.0,-1687.2,-1682.7,-0.3,-15.6,987.0,-900.3,0,3660,0,137,0, 
2.0367,-304.2,-262.8,680.1,205.5,-280.2,379.8,167.4,-534.6,-963.3,930.0,293.7,1109.4,-1146.0,306.3,1173.6,126.9,-6.9,-6.0,-1667.4,-1680.9,-0.9,-12.6,988.2,-881.4,0,3666,0,138,0, 
2.0400,-302.7,-258.9,675.3,201.6,-278.7,389.1,175.8,-528.9,2371.2,919.8,3365.1,3858.3,-1133.4,690.0,4970.7,139.5,-7.2,-6.0,-1655.4,-1679.1,-0.6,0.9,994.5,-848.1,0,3672,0,139,0, 
2.0433,-312.0,-272.7,652.8,188.4,-293.4,383.7,177.9,-548.1,-4075.5,909.6,1884.3,2730.3,-1431.0,547.5,-1242.3,175.8,-7.2,-6.0,-1691.7,-1699.8,-0.6,-28.5,1015.8,-849.9,0,3678,0,140,0, 
2.0467,-308.7,-259.2,663.9,201.3,-287.7,381.0,176.1,-548.1,-11337.3,937.5,-2276.7,-839.4,-1589.7,51.9,-8874.9,141.6,-7.2,-6.0,-1702.5,-1693.8,-0.9,-15.9,1006.2,-882.9,0,3684,0,141,0, 
2.0500,-315.6,-261.6,669.6,207.3,-278.4,387.9,172.2,-544.2,-9633.0,936.3,-3247.2,-1869.6,-1478.1,-107.1,-7431.0,120.3,-6.6,-6.0,-1690.8,-1687.2,-0.6,1.5,1007.7,-875.7,0,3690,0,142,0, 
2.0533,-312.9,-271.8,671.4,204.6,-282.6,371.4,163.2,-532.8,-1037.4,939.0,340.8,1106.7,-1201.8,285.9,1111.5,116.4,-6.6,-5.7,-1666.8,-1689.6,-0.9,-27.6,968.1,-903.3,0,3696,0,143,0, 
2.0567,-316.8,-269.4,675.0,203.1,-284.4,374.1,168.6,-523.5,2148.9,940.5,3303.0,3787.8,-1147.8,669.0,4908.9,116.1,-6.9,-5.7,-1648.2,-1691.4,-0.6,-37.2,971.4,-872.1,0,3702,0,144,0, 
2.0600,-313.5,-268.5,667.5,194.1,-290.1,380.1,172.2,-537.3,-4075.5,926.7,2140.2,3040.8,-1383.9,526.8,-1355.7,118.8,-6.9,-6.3,-1676.4,-1689.9,-0.9,-32.4,966.6,-811.5,0,3708,0,145,0, 
2.0633,-319.5,-287.1,652.2,189.6,-294.6,381.6,177.9,-555.3,-11411.4,912.6,-1397.4,-132.9,-1592.7,60.3,-8961.0,113.1,-6.9,-5.7,-1718.7,-1699.8,-0.9,-34.8,1009.5,-858.6,0,3714,0,146,0, 
2.0667,-310.5,-275.1,664.8,196.8,-297.3,361.5,171.9,-554.4,-9558.9,921.6,-2626.8,-1417.5,-1427.1,-72.0,-7435.5,131.1,-6.9,-5.7,-1711.8,-1699.2,-0.9,-25.2,1007.4,-931.8,0,3720,0,147,0, 
2.0700,-306.3,-262.5,678.0,204.0,-289.5,359.7,165.9,-534.3,-1111.5,927.0,819.3,1485.0,-1122.0,282.0,1095.3,123.9,-6.6,-6.0,-1682.7,-1696.8,-0.9,-24.9,987.3,-922.2,0,3726,0,148,0, 
2.0733,-312.9,-265.8,664.5,195.0,-296.7,363.0,166.8,-538.5,2223.0,918.6,3868.5,4193.7,-1131.3,664.2,4874.7,133.2,-6.9,-6.0,-1686.0,-1696.2,-0.9,-35.1,992.4,-897.9,0,3732,0,149,0, 
2.0767,-307.2,-256.8,667.5,199.2,-286.5,374.1,172.2,-540.9,-4075.5,936.9,2145.0,3011.4,-1418.4,521.7,-1335.3,115.5,-6.9,-5.4,-1709.1,-1691.1,-0.9,-6.0,978.0,-859.5,0,3738,0,150,0, 
2.0800,-314.7,-257.1,662.4,197.7,-289.8,375.6,169.8,-558.3,-11485.5,935.1,-1855.2,-484.2,-1623.3,37.8,-8970.6,123.3,-6.6,-6.0,-1734.9,-1692.0,-0.6,-15.3,987.9,-847.2,0,3744,0,151,0, 
2.0833,-311.7,-265.2,660.0,196.8,-290.4,379.5,167.4,-555.0,-9558.9,921.9,-2862.9,-1543.5,-1452.3,-82.8,-7464.0,127.5,-6.9,-6.0,-1733.1,-1706.4,-0.3,-23.1,991.2,-849.6,0,3750,0,152,0, 
2.0867,-306.3,-260.7,668.4,199.8,-289.8,380.1,171.6,-537.9,-1111.5,934.2,575.1,1323.6,-1162.5,284.7,1089.6,143.7,-6.6,-5.7,-1693.8,-1702.2,-0.3,-30.3,979.2,-860.4,0,3756,0,153,0, 
2.0900,-307.2,-242.1,678.9,203.4,-285.6,367.5,165.6,-526.2,2297.1,948.3,3569.7,4080.6,-1136.1,658.8,4862.7,128.1,-7.2,-5.4,-1663.2,-1695.9,-0.9,-23.1,986.4,-900.0,0,3762,0,154,0, 
2.0933,-311.1,-240.0,669.6,200.7,-290.1,362.7,170.4,-536.7,-4075.5,936.0,2003.7,2825.1,-1456.2,525.9,-1395.3,123.9,-7.2,-6.0,-1687.5,-1695.9,-0.6,-14.7,1000.5,-913.2,0,3768,0,155,0, 
2.0967,-312.6,-265.2,661.2,200.1,-280.2,382.5,179.1,-551.4,-11337.3,939.3,-2243.7,-884.4,-1555.2,64.2,-8943.3,137.1,-6.9,-6.0,-1720.5,-1686.0,-0.9,-6.0,1020.6,-875.4,0,3774,0,156,0, 
2.1000,-316.5,-282.3,654.0,199.2,-280.2,391.5,174.9,-551.7,-9633.0,944.4,-3696.6,-2251.5,-1424.7,-81.3,-7443.0,140.4,-6.9,-5.4,-1735.2,-1691.1,-0.3,-17.7,1016.4,-863.4,0,3780,0,157,0, 
2.1033,-318.9,-278.4,662.1,203.4,-275.1,388.5,172.2,-533.4,-1259.7,950.4,-39.6,841.8,-1199.1,296.1,1096.5,141.9,-6.9,-5.7,-1701.3,-1686.6,-0.6,-11.7,998.7,-884.7,0,3786,0,158,0, 
2.1067,-316.2,-277.2,660.9,198.3,-284.4,377.7,162.9,-534.6,2297.1,941.4,3119.4,3700.5,-1128.6,691.5,4879.8,133.8,-7.2,-5.7,-1698.6,-1686.3,-0.6,-2.7,988.2,-891.0,0,3792,0,159,0, 
2.1100,-316.2,-268.5,665.7,205.2,-279.0,392.4,176.7,-538.8,-4075.5,949.2,1749.3,2670.9,-1372.5,558.3,-1332.3,137.1,-6.9,-6.0,-1712.1,-1679.7,-0.9,11.4,994.2,-870.3,0,3798,0,160,0, 
2.1133,-321.3,-284.4,648.0,192.6,-290.4,399.6,180.6,-557.4,-11411.4,930.3,-2337.6,-899.4,-1572.3,95.7,-8925.6,137.4,-6.9,-6.0,-1750.5,-1692.0,-0.9,1.8,1018.2,-847.2,0,3804,0,161,0, 
2.1167,-316.8,-277.2,654.3,192.6,-291.6,388.5,173.1,-558.0,-9484.8,931.5,-3247.5,-1933.8,-1431.0,-52.5,-7419.0,145.2,-6.9,-5.7,-1751.1,-1698.6,-0.9,-16.5,1007.7,-860.7,0,3810,0,162,0, 
2.1200,-311.7,-268.2,666.3,204.0,-280.8,396.0,168.3,-533.7,-1111.5,944.7,255.0,970.8,-1121.7,311.7,1110.9,133.5,-6.6,-5.7,-1719.0,-1686.9,-0.3,2.7,1002.0,-839.4,0,3816,0,163,0, 
2.1233,-313.5,-260.4,663.6,200.1,-291.0,403.8,179.7,-531.3,2297.1,943.8,3387.6,3713.4,-1066.8,680.4,4881.6,141.3,-6.9,-5.4,-1707.3,-1691.1,-0.9,-20.4,1015.5,-825.0,0,3822,0,164,0, 
2.1267,-308.1,-243.9,672.6,209.7,-292.8,399.3,172.8,-536.7,-4075.5,971.4,1833.9,2484.6,-1342.2,549.6,-1333.2,138.0,-6.6,-6.0,-1713.9,-1674.6,-0.9,-11.4,980.7,-831.3,0,3828,0,165,0, 
2.1300,-306.3,-241.5,658.5,198.0,-300.6,388.2,166.8,-554.7,-11337.3,941.4,-2252.1,-1030.5,-1547.4,94.5,-8920.2,124.8,-6.9,-5.7,-1759.2,-1689.6,-0.6,-30.9,979.8,-834.9,0,3834,0,166,0, 
2.1333,-315.6,-263.4,651.3,189.9,-302.7,386.7,170.4,-555.3,-9558.9,938.1,-3204.3,-2006.4,-1479.3,-72.3,-7405.8,147.9,-6.9,-5.7,-1762.5,-1701.9,-0.6,-28.8,1009.5,-843.0,0,3840,0,167,0, 
2.1367,-314.7,-257.1,656.4,190.2,-301.8,377.4,160.2,-544.8,-1037.4,948.0,257.7,868.2,-1170.6,299.1,1140.6,154.5,-6.6,-5.7,-1726.2,-1695.6,-0.6,-14.1,990.6,-902.4,0,3846,0,168,0, 
2.1400,-324.9,-252.3,667.8,199.5,-299.7,372.3,166.8,-533.4,2297.1,954.9,3360.9,3643.2,-1103.1,681.6,4919.7,150.6,-6.9,-5.7,-1691.4,-1681.2,-0.6,-1.2,1015.5,-922.5,0,3852,0,169,0, 
2.1433,-329.7,-261.3,651.6,188.1,-312.0,365.7,161.4,-555.0,-4075.5,943.2,1719.9,2499.0,-1361.1,554.4,-1309.8,150.6,-6.6,-5.7,-1722.6,-1691.4,-0.9,-3.0,999.0,-915.0,0,3858,0,170,0, 
2.1467,-327.6,-276.9,639.6,183.9,-313.5,369.3,170.1,-565.2,-11485.5,943.8,-2217.3,-975.3,-1553.1,86.4,-8897.4,148.2,-6.9,-6.0,-1763.7,-1699.5,-0.9,-14.7,1021.8,-911.7,0,3864,0,171,0, 
2.1500,-317.7,-268.8,647.4,190.8,-306.9,375.0,166.5,-558.9,-9484.8,956.4,-3210.9,-1921.8,-1424.7,-66.9,-7370.4,128.4,-6.9,-6.0,-1761.0,-1697.1,-0.6,-9.3,1001.1,-882.3,0,3870,0,172,0, 
2.1533,-324.0,-263.4,657.0,199.2,-303.3,379.2,167.4,-541.2,-1037.4,978.6,171.3,1022.4,-1168.2,291.0,1164.6,130.8,-6.9,-6.0,-1725.3,-1688.4,-0.6,8.7,1008.0,-874.8,0,3876,0,173,0, 
2.1567,-318.0,-274.5,639.9,188.1,-311.7,370.5,167.4,-537.6,2371.2,942.0,3246.0,3910.8,-1096.8,691.2,4940.4,140.7,-6.6,-5.4,-1725.9,-1697.7,-0.6,-4.5,1011.0,-863.7,0,3882,0,174,0, 
2.1600,-327.0,-275.4,621.6,175.8,-327.6,366.9,164.4,-555.6,-4149.6,925.2,1694.1,2755.2,-1438.2,557.1,-1295.7,143.4,-6.9,-5.7,-1765.2,-1704.6,-0.6,-15.6,1012.5,-874.2,0,3888,0,175,0, 
2.1633,-328.5,-253.5,634.8,180.9,-321.0,364.8,159.6,-565.8,-11411.4,942.0,-2211.3,-688.8,-1661.4,77.4,-8891.4,124.2,-6.9,-6.0,-1775.4,-1711.5,-0.6,-12.0,981.0,-887.1,0,3894,0,176,0, 
2.1667,-326.4,-247.5,645.0,194.7,-309.3,380.1,166.2,-552.9,-9707.1,947.7,-3277.8,-1819.5,-1485.9,-103.2,-7387.5,122.7,-6.9,-5.7,-1759.5,-1691.7,-0.9,11.1,992.1,-871.2,0,3900,0,177,0, 
2.1700,-328.8,-267.3,647.1,195.3,-304.2,381.9,168.3,-536.4,-889.2,949.5,228.3,1111.2,-1122.6,301.8,1192.2,114.6,-6.9,-5.7,-1729.8,-1691.7,-0.6,-5.1,979.2,-851.1,0,3906,0,178,0, 
2.1733,-330.3,-270.0,644.1,191.4,-314.4,374.4,168.9,-533.7,2297.1,939.3,3268.5,3952.2,-1080.3,682.8,4951.8,119.7,-6.9,-6.0,-1720.5,-1698.6,-0.3,-21.0,991.2,-864.3,0,3912,0,179,0, 
2.1767,-331.2,-266.4,639.0,188.7,-307.8,375.3,167.4,-545.4,-4075.5,943.8,1719.0,2786.1,-1361.7,554.7,-1288.8,144.6,-6.6,-5.7,-1740.9,-1692.3,-0.9,-17.1,979.8,-882.0,0,3918,0,180,0, 
2.1800,-323.7,-252.0,643.2,194.7,-299.7,386.1,172.5,-554.7,-11411.4,942.0,-2265.0,-733.5,-1569.6,93.3,-8854.5,140.7,-6.6,-5.7,-1759.8,-1692.9,-1.2,-7.5,999.3,-852.9,0,3924,0,181,0, 
2.1833,-312.6,-252.0,647.4,191.7,-302.4,384.6,163.8,-557.4,-9262.5,939.3,-3004.8,-1843.5,-1398.3,-54.9,-7301.1,119.7,-6.9,-5.7,-1757.7,-1703.7,-0.6,-9.6,969.9,-844.5,0,3930,0,182,0, 
2.1867,-316.8,-251.7,654.0,198.9,-301.5,372.0,165.6,-542.1,-1037.4,946.5,372.6,1176.3,-1138.5,300.0,1224.3,125.4,-6.9,-5.7,-1706.1,-1696.8,-0.6,4.2,997.5,-896.7,0,3936,0,183,0, 
2.1900,-321.0,-255.3,662.4,209.4,-291.3,382.2,174.0,-528.3,2445.3,971.7,3499.5,3969.9,-1097.7,679.5,4975.2,124.8,-6.9,-5.7,-1674.0,-1683.9,-0.6,8.1,1015.8,-881.4,0,3942,0,184,0, 
2.1933,-314.1,-251.7,656.4,203.1,-305.7,378.3,171.6,-539.1,-4075.5,951.9,1972.8,2780.1,-1378.8,561.9,-1274.4,129.0,-7.2,-5.4,-1712.1,-1696.2,-0.6,-16.5,1009.5,-880.2,0,3948,0,185,0, 
2.1967,-316.8,-250.8,652.8,199.5,-306.6,375.6,168.9,-553.8,-11337.3,949.5,-2079.0,-750.0,-1574.1,75.3,-8841.9,124.5,-6.9,-6.0,-1736.1,-1702.2,-0.9,0.3,992.4,-891.9,0,3954,0,186,0, 
2.2000,-315.9,-253.8,654.9,196.2,-311.1,375.3,168.0,-547.8,-9484.8,957.0,-3064.2,-1801.2,-1445.1,-63.6,-7311.0,134.1,-6.6,-6.0,-1736.1,-1708.8,-0.6,-19.8,966.0,-885.0,0,3960,0,187,0, 
2.2033,-318.3,-254.4,652.5,198.9,-312.6,370.2,165.6,-534.3,-1037.4,957.3,531.9,1092.6,-1171.2,317.4,1218.9,119.4,-6.9,-5.7,-1711.2,-1705.5,-0.9,-15.9,974.4,-891.6,0,3966,0,188,0, 
2.2067,-315.3,-254.7,654.6,198.6,-309.6,376.2,173.4,-522.9,2519.4,952.2,3674.4,3872.7,-1113.9,703.5,4972.8,130.8,-6.9,-6.0,-1702.5,-1702.8,-0.6,-13.8,988.5,-899.4,0,3972,0,189,0, 
