Time,P3,C3,F3,Fz,F4,C4,P4,Cz,CM,A1,Fp1,Fp2,T3,T5,O1,O2,X3,X2,F7,F8,X1,A2,T6,T4,Trigger,Time_Offset,ADC_Status,ADC_Sequence,Event,Comments
0.0033,-329.4,756.0,-136.2,1204.5,884.1,-1031.4,99.6,276.0,-2223.0,-285.3,-336.3,147.9,-3167.7,451.5,735.6,362.7,-6.6,-6.0,1106.4,1962.6,-0.9,-160.2,-2055.0,-3617.4,0,6,0,194,0, 
0.0067,-405.3,751.5,-130.5,1208.4,546.6,-1032.0,95.4,270.0,-2741.7,-276.3,-326.7,-639.0,-3177.9,44.1,331.2,365.7,-6.6,-6.3,-98.7,111.3,-0.9,-153.6,-2063.4,-3611.4,0,12,0,195,0, 
0.0100,-440.7,745.8,-135.9,1195.8,391.2,-1036.5,94.5,269.4,-2889.9,-279.0,-332.1,-1280.7,-3173.1,-85.2,91.8,361.8,-7.2,-5.7,-873.6,-1799.1,-0.9,-159.3,-2058.9,-3610.8,0,18,0,196,0, 
0.0133,-387.3,749.1,-147.3,1197.0,655.2,-1038.3,83.1,259.8,-2148.9,-286.5,-340.2,-889.2,-3174.6,230.7,424.2,368.4,-6.6,-6.0,-150.6,-1021.2,-0.6,-161.7,-2068.2,-3626.4,0,24,0,197,0, 
0.0167,-312.6,758.4,-146.4,1201.5,942.3,-1035.0,89.1,262.2,-1778.4,-286.5,-335.7,39.0,-3169.5,542.4,868.2,374.4,-6.9,-5.4,1143.9,1224.3,-0.9,-172.5,-2065.2,-3633.3,0,30,0,198,0, 
0.0200,-342.6,762.0,-141.6,1201.8,886.2,-1023.6,90.9,273.0,-2000.7,-282.9,-333.6,250.8,-3175.8,476.1,825.0,370.8,-6.9,-6.0,1229.1,1967.7,-0.6,-157.5,-2061.9,-3624.6,0,36,0,199,0, 
0.0233,-408.9,753.9,-140.4,1196.7,487.5,-1024.5,90.6,265.5,-2741.7,-292.5,-335.4,-632.4,-3182.7,41.7,291.3,352.2,-7.2,-5.7,1.2,266.4,-1.2,-165.0,-2062.8,-3620.7,0,42,0,200,0, 
0.0267,-436.5,753.3,-141.9,1194.3,321.9,-1025.1,91.2,268.2,-2964.0,-295.5,-336.0,-1366.5,-3185.1,-19.8,-6.3,337.8,-6.9,-6.0,-845.1,-1653.3,-0.9,-163.5,-2071.5,-3631.5,0,48,0,201,0, 
0.0300,-368.7,752.4,-144.6,1197.0,649.8,-1026.9,87.6,267.0,-2297.1,-293.7,-339.9,-910.8,-3176.4,247.5,322.2,360.6,-6.9,-5.7,-85.8,-1003.5,-0.9,-168.0,-2063.4,-3624.3,0,54,0,202,0, 
0.0333,-321.6,746.1,-150.0,1196.1,970.8,-1020.9,92.1,265.8,-1704.3,-302.4,-345.9,1.8,-3176.1,605.4,777.0,370.2,-6.9,-6.0,1140.0,1317.0,-0.9,-172.8,-2069.1,-3619.5,0,60,0,203,0, 
0.0367,-345.0,752.7,-143.4,1201.5,942.0,-1022.1,96.3,268.2,-2148.9,-292.5,-333.6,128.4,-3170.1,473.4,822.9,358.5,-6.3,-5.7,1221.3,2020.8,-0.9,-165.3,-2063.7,-3611.7,0,66,0,204,0, 
0.0400,-424.8,752.4,-138.9,1200.3,567.9,-1020.9,97.2,275.4,-2667.6,-283.5,-329.1,-755.1,-3178.2,73.2,358.5,339.9,-7.2,-6.3,70.8,250.8,-0.9,-153.0,-2062.2,-3613.8,0,72,0,205,0, 
0.0433,-436.2,756.3,-139.2,1193.7,426.9,-1019.7,92.4,273.0,-2815.8,-279.6,-329.7,-1431.6,-3182.4,-81.0,87.6,343.8,-6.9,-5.7,-703.5,-1607.1,-0.9,-151.8,-2061.0,-3614.4,0,78,0,206,0, 
0.0467,-384.6,765.0,-134.4,1208.7,627.3,-1014.9,93.9,276.6,-2148.9,-275.1,-325.5,-1060.5,-3169.5,205.8,320.4,364.8,-6.9,-6.3,-42.3,-953.4,-0.6,-146.7,-2055.3,-3606.0,0,84,0,207,0, 
0.0500,-285.9,761.7,-132.3,1215.9,1113.0,-1008.9,89.7,278.7,-1778.4,-285.6,-321.6,68.4,-3154.5,669.9,872.1,390.9,-7.2,-6.0,1383.6,1582.5,-1.2,-151.2,-2049.9,-3612.3,0,90,0,208,0, 
0.0533,-254.7,756.6,-138.3,1213.5,1561.8,-1019.7,89.1,275.4,-2000.7,-284.1,-333.0,1054.2,-3156.6,1089.9,1357.5,388.8,-7.2,-5.7,2146.8,3306.0,-0.6,-153.9,-2059.5,-3619.2,0,96,0,209,0, 
0.0567,-388.8,747.0,-140.7,1194.9,1093.8,-1029.3,80.1,271.5,-2815.8,-281.4,-335.7,-12.6,-3173.1,486.3,725.7,336.3,-6.9,-5.7,765.0,1034.4,-0.9,-161.4,-2067.0,-3621.0,0,102,0,210,0, 
0.0600,-426.3,754.8,-136.2,1198.2,862.2,-1022.4,83.4,273.3,-2889.9,-280.2,-332.4,-797.7,-3181.2,284.1,380.7,340.8,-7.2,-5.7,-251.4,-1020.6,-0.9,-151.5,-2055.0,-3606.0,0,108,0,211,0, 
0.0633,-371.7,754.2,-136.5,1211.1,1011.3,-1017.9,85.8,277.2,-2297.1,-287.4,-332.1,-473.1,-3167.4,441.9,611.4,362.7,-6.9,-6.3,286.2,-480.9,-0.9,-165.0,-2055.3,-3609.0,0,114,0,212,0, 
0.0667,-290.7,758.1,-135.0,1209.0,1270.2,-1013.4,85.5,277.8,-1778.4,-283.8,-329.1,411.0,-3162.3,757.2,1014.9,367.2,-6.9,-6.0,1405.5,1670.1,-0.9,-155.1,-2058.0,-3609.0,0,120,0,213,0, 
0.0700,-320.7,756.6,-130.5,1211.7,1147.8,-1011.6,89.1,282.9,-2074.8,-281.1,-328.5,498.6,-3155.7,671.4,1037.4,370.2,-7.5,-5.7,1465.5,2357.4,-0.6,-153.9,-2053.2,-3606.3,0,126,0,214,0, 
0.0733,-400.8,749.7,-124.2,1206.3,815.4,-1013.7,87.6,286.2,-2593.5,-276.0,-320.7,-395.4,-3174.0,249.6,519.0,358.8,-7.2,-6.0,162.3,488.7,-0.6,-146.1,-2058.3,-3600.0,0,132,0,215,0, 
0.0767,-433.2,743.1,-128.1,1210.2,712.8,-1019.1,87.0,281.1,-2964.0,-278.7,-326.7,-1116.3,-3182.4,163.2,286.2,370.2,-7.2,-6.0,-654.3,-1443.6,-0.3,-147.6,-2053.8,-3608.1,0,138,0,216,0, 
0.0800,-371.4,755.7,-132.6,1206.3,979.2,-1021.5,89.4,283.5,-2223.0,-279.3,-329.7,-524.4,-3176.1,459.0,576.3,380.4,-7.5,-5.7,21.0,-669.3,-0.9,-155.1,-2054.1,-3614.4,0,144,0,217,0, 
0.0833,-317.1,750.3,-133.8,1204.2,1159.2,-1016.1,84.0,277.5,-1852.5,-292.2,-334.5,329.1,-3174.3,650.4,1017.0,380.7,-6.9,-6.0,1268.7,1556.4,-0.3,-161.4,-2057.1,-3615.9,0,150,0,218,0, 
0.0867,-356.7,756.0,-127.8,1207.8,1079.1,-1012.5,94.8,282.3,-2000.7,-289.2,-332.1,426.9,-3176.1,462.9,980.1,352.8,-6.9,-6.0,1344.0,2248.2,-1.2,-157.5,-2053.8,-3615.3,0,156,0,219,0, 
0.0900,-425.7,749.7,-126.0,1209.9,747.3,-1024.2,88.5,280.5,-2815.8,-283.2,-321.6,-501.0,-3187.2,74.1,525.9,338.7,-6.9,-6.0,148.8,339.0,-0.6,-158.1,-2063.7,-3621.3,0,162,0,220,0, 
0.0933,-432.9,756.9,-123.3,1216.5,549.6,-1013.4,88.8,290.1,-2889.9,-284.4,-324.0,-1271.4,-3182.1,-106.8,216.6,350.7,-7.2,-6.0,-831.9,-1622.1,-0.9,-153.0,-2053.5,-3608.4,0,168,0,221,0, 
0.0967,-381.9,755.4,-130.8,1212.9,781.8,-1022.4,90.0,285.3,-2371.2,-290.4,-330.6,-915.3,-3176.1,179.4,472.2,359.7,-6.6,-5.7,-71.7,-968.7,-0.9,-163.2,-2064.6,-3619.8,0,174,0,222,0, 
0.1000,-337.8,756.3,-128.7,1216.2,1070.4,-1020.3,88.5,285.3,-1778.4,-286.2,-326.4,152.1,-3183.3,518.4,945.6,360.6,-6.9,-6.0,1125.0,1329.6,-0.6,-160.8,-2067.3,-3630.3,0,180,0,223,0, 
0.1033,-345.3,744.0,-129.9,1213.2,1044.0,-1022.7,90.3,284.1,-2000.7,-288.3,-328.2,306.9,-3192.6,433.2,980.7,349.5,-6.9,-6.0,1282.8,2118.3,-0.9,-162.6,-2054.4,-3616.8,0,186,0,224,0, 
0.1067,-429.6,754.5,-123.3,1212.6,623.1,-1022.1,92.4,288.0,-2667.6,-284.7,-324.3,-623.7,-3185.4,29.4,517.2,345.6,-7.2,-5.7,-45.9,194.1,-0.9,-154.2,-2057.4,-3622.8,0,192,0,225,0, 
0.1100,-462.0,750.6,-126.0,1209.6,547.2,-1020.9,90.3,281.1,-2889.9,-284.1,-323.1,-1259.4,-3190.5,-162.0,157.5,342.9,-6.9,-6.0,-964.8,-1752.0,-0.9,-155.7,-2067.3,-3615.0,0,198,0,226,0, 
0.1133,-415.5,753.0,-132.3,1214.7,773.1,-1029.3,84.6,277.8,-2297.1,-297.6,-337.8,-833.4,-3187.2,130.2,448.2,355.8,-6.9,-6.0,-234.3,-964.8,-0.3,-176.1,-2068.2,-3627.3,0,204,0,227,0, 
0.1167,-344.4,756.0,-132.0,1225.8,1148.1,-1022.4,90.0,280.8,-1778.4,-290.1,-329.4,177.3,-3190.8,440.4,926.1,370.2,-6.6,-5.7,1153.2,1372.2,-0.9,-166.8,-2063.7,-3625.2,0,210,0,228,0, 
0.1200,-346.8,756.6,-126.3,1225.5,1115.4,-1022.1,92.4,284.4,-2223.0,-289.5,-327.3,432.3,-3192.9,330.0,864.6,366.6,-6.9,-6.0,1305.3,2187.0,-1.2,-160.8,-2059.2,-3616.8,0,216,0,229,0, 
0.1233,-425.1,753.6,-129.3,1212.6,757.8,-1028.4,93.3,282.0,-2815.8,-290.4,-325.5,-348.3,-3199.8,-60.6,379.5,342.6,-7.2,-6.0,30.3,253.2,-1.2,-159.9,-2064.9,-3617.7,0,222,0,230,0, 
0.1267,-457.2,754.5,-119.4,1231.2,537.6,-1019.7,92.1,291.9,-2889.9,-283.2,-316.8,-1192.8,-3190.8,-204.3,92.4,333.3,-6.9,-5.7,-795.3,-1684.5,-0.6,-150.3,-2054.7,-3612.9,0,228,0,231,0, 
0.1300,-409.5,757.5,-122.4,1225.5,785.1,-1018.2,91.8,290.4,-2297.1,-281.7,-318.6,-809.4,-3176.1,91.2,318.3,349.5,-6.9,-5.7,-123.6,-999.9,-0.6,-154.5,-2054.4,-3617.7,0,234,0,232,0, 
0.1333,-326.7,758.7,-128.1,1235.7,1042.8,-1018.2,86.7,285.9,-1852.5,-288.6,-325.5,99.9,-3175.2,495.6,756.9,356.1,-6.9,-6.0,1189.5,1388.7,-0.6,-160.5,-2068.2,-3617.4,0,240,0,233,0, 
0.1367,-358.8,750.3,-126.9,1232.7,911.7,-1021.2,82.8,283.2,-2000.7,-285.0,-321.6,208.2,-3186.9,364.5,723.6,346.8,-6.9,-6.3,1259.1,2189.4,-0.6,-162.0,-2077.2,-3624.3,0,246,0,234,0, 
0.1400,-412.8,763.5,-115.2,1227.0,590.1,-1020.9,89.4,283.5,-2593.5,-282.9,-315.3,-558.9,-3195.9,32.7,345.6,321.9,-7.2,-5.4,63.9,307.8,-1.2,-152.1,-2076.3,-3616.8,0,252,0,235,0, 
0.1433,-450.6,757.5,-118.2,1225.2,483.0,-1018.8,89.7,286.2,-2815.8,-282.6,-315.0,-1205.7,-3189.0,-66.6,67.8,334.2,-6.6,-5.7,-808.5,-1658.1,-0.9,-158.1,-2062.5,-3610.5,0,258,0,236,0, 
0.1467,-366.0,755.4,-126.3,1221.9,738.9,-1028.4,82.8,289.8,-2297.1,-294.3,-321.9,-866.7,-3185.1,189.0,339.6,360.0,-6.9,-6.0,-123.9,-983.1,-0.6,-165.6,-2076.3,-3618.6,0,264,0,237,0, 
0.1500,-332.1,754.8,-128.7,1235.4,1034.4,-1025.1,79.2,283.5,-1704.3,-286.8,-320.7,102.9,-3178.5,525.0,748.5,357.9,-7.2,-5.7,1110.9,1229.1,-0.9,-169.2,-2063.4,-3614.4,0,270,0,238,0, 
0.1533,-352.8,753.9,-125.1,1225.2,981.6,-1030.5,80.7,283.2,-2000.7,-287.4,-325.8,235.2,-3180.9,401.1,760.5,339.0,-6.6,-6.0,1296.0,2025.9,-0.9,-159.3,-2076.0,-3616.5,0,276,0,239,0, 
0.1567,-423.6,754.2,-120.0,1232.7,667.5,-1031.7,81.9,288.0,-2741.7,-278.4,-312.9,-537.3,-3178.2,56.1,281.7,336.6,-7.2,-5.7,134.7,170.1,-0.9,-153.3,-2065.8,-3606.9,0,282,0,240,0, 
0.1600,-467.7,750.3,-128.1,1217.1,484.2,-1031.1,82.2,287.1,-2889.9,-303.6,-338.7,-1336.8,-3187.2,-204.9,-50.7,330.9,-7.2,-6.3,-799.8,-1822.2,-0.9,-172.5,-2067.3,-3615.9,0,288,0,241,0, 
0.1633,-395.1,740.1,-143.7,1217.1,763.5,-1038.0,79.8,284.1,-2371.2,-316.2,-372.6,-937.5,-3197.4,104.1,245.7,343.8,-6.9,-6.0,-93.0,-1148.1,-0.6,-192.3,-2074.8,-3627.3,0,294,0,242,0, 
0.1667,-330.0,749.4,-130.8,1220.4,1002.3,-1028.4,77.7,289.5,-1778.4,-300.0,-333.6,24.9,-3190.8,429.6,699.9,346.2,-7.2,-6.3,1239.9,1210.2,-0.3,-181.2,-2077.8,-3625.2,0,300,0,243,0, 
0.1700,-347.4,754.8,-117.0,1231.2,964.8,-1023.0,80.1,289.8,-2074.8,-278.1,-296.1,240.6,-3172.2,416.7,734.1,349.2,-6.9,-6.0,1326.9,2068.2,-0.9,-159.0,-2067.6,-3611.4,0,306,0,244,0, 
0.1733,-417.3,754.5,-112.5,1231.2,609.3,-1026.0,84.0,291.6,-2741.7,-276.0,-280.8,-567.9,-3176.4,14.7,254.1,342.3,-7.2,-5.7,152.1,171.9,-0.9,-158.4,-2073.6,-3604.8,0,312,0,245,0, 
0.1767,-441.9,756.3,-109.8,1231.2,463.2,-1028.4,82.2,290.7,-2889.9,-290.4,-277.8,-1338.0,-3180.9,-149.1,-59.4,326.7,-7.2,-6.0,-788.1,-1734.6,-0.6,-169.5,-2072.7,-3608.1,0,318,0,246,0, 
0.1800,-375.9,764.4,-111.9,1243.8,745.8,-1027.5,85.2,286.8,-2297.1,-293.4,-273.3,-969.0,-3168.6,168.0,309.0,343.5,-6.9,-5.7,38.4,-1014.0,-0.6,-178.5,-2070.0,-3610.8,0,324,0,247,0, 
0.1833,-309.6,772.5,-102.0,1251.3,1082.4,-1023.6,78.0,295.5,-1556.1,-284.4,-240.3,39.6,-3152.1,540.3,812.1,357.3,-6.6,-5.7,1392.6,1244.1,-0.9,-168.0,-2073.6,-3607.2,0,330,0,248,0, 
0.1867,-340.8,772.2,-97.5,1250.7,945.9,-1017.0,80.7,292.2,-2000.7,-282.3,-226.2,142.2,-3158.4,450.3,761.1,333.3,-7.2,-5.7,1387.8,1960.8,-0.6,-173.4,-2073.3,-3612.6,0,336,0,249,0, 
0.1900,-413.1,764.4,-96.6,1242.9,617.4,-1030.5,73.2,293.1,-2519.4,-293.1,-217.2,-595.2,-3174.6,94.8,382.5,316.2,-6.3,-5.7,228.0,106.5,-0.9,-192.9,-2080.5,-3619.8,0,342,0,250,0, 
0.1933,-404.7,770.1,-87.0,1257.6,540.3,-1025.1,76.2,292.8,-2667.6,-282.0,-191.4,-1272.9,-3165.0,-81.6,178.8,333.3,-7.2,-6.0,-641.1,-1712.1,-0.9,-174.0,-2075.7,-3608.4,0,348,0,251,0, 
0.1967,-352.2,773.7,-83.4,1259.4,743.7,-1023.6,84.3,294.0,-2223.0,-288.6,-184.5,-764.1,-3156.6,242.4,363.9,327.6,-7.5,-6.0,-24.0,-969.9,-0.9,-184.5,-2064.0,-3607.5,0,354,0,252,0, 
0.2000,-300.6,778.8,-81.9,1272.0,990.3,-1021.5,83.1,296.7,-1556.1,-289.5,-190.2,118.2,-3159.3,525.6,798.0,343.8,-7.2,-5.7,1223.4,1387.5,-0.9,-185.1,-2080.5,-3608.7,0,360,0,253,0, 
0.2033,-315.6,780.0,-65.7,1272.9,1008.3,-1014.6,91.5,302.1,-1926.6,-274.5,-151.5,313.2,-3141.6,486.0,839.7,333.3,-6.9,-6.0,1290.6,2048.4,-1.2,-172.8,-2070.3,-3597.6,0,366,0,254,0, 
0.2067,-406.5,778.5,-74.7,1265.1,654.0,-1024.8,83.7,293.7,-2519.4,-273.3,-167.1,-531.6,-3160.2,72.0,417.9,319.8,-6.6,-5.4,100.5,173.4,-0.9,-179.4,-2073.3,-3606.6,0,372,0,255,0, 
0.2100,-427.5,774.9,-70.5,1259.4,438.9,-1022.4,85.2,303.3,-2815.8,-279.3,-164.4,-1236.3,-3150.3,-75.3,117.0,330.6,-6.9,-6.0,-727.2,-1703.1,-0.6,-174.0,-2066.7,-3605.4,0,378,0,0,0, 
0.2133,-342.6,773.7,-73.8,1268.1,736.5,-1020.3,87.9,302.4,-2074.8,-278.1,-164.4,-835.2,-3155.1,253.2,407.1,344.7,-6.9,-6.0,5.4,-951.9,-0.6,-182.7,-2068.5,-3603.9,0,384,0,1,0, 
0.2167,-282.6,772.8,-73.8,1266.6,1048.2,-1014.6,85.5,302.1,-1556.1,-282.3,-170.7,148.2,-3150.3,558.6,895.8,367.2,-6.6,-6.3,1292.1,1468.8,-0.9,-187.5,-2068.8,-3608.7,0,390,0,2,0, 
0.2200,-320.7,777.9,-73.2,1263.0,936.9,-1012.8,87.3,300.9,-2074.8,-282.9,-173.7,254.7,-3140.7,399.9,836.4,341.7,-6.9,-5.7,1284.0,2154.9,-0.6,-172.2,-2066.1,-3602.1,0,396,0,3,0, 
0.2233,-384.0,780.0,-65.7,1264.2,635.4,-1006.5,93.9,303.9,-2519.4,-270.6,-163.8,-610.5,-3143.4,86.4,425.7,333.9,-7.2,-5.7,70.5,255.9,-0.6,-177.9,-2063.1,-3594.3,0,402,0,4,0, 
0.2267,-422.7,772.8,-70.5,1263.9,478.8,-1015.8,89.1,303.3,-2741.7,-282.9,-172.8,-1365.6,-3150.6,-99.6,133.8,335.7,-6.9,-5.7,-729.3,-1574.1,-0.9,-181.5,-2060.7,-3597.3,0,408,0,5,0, 
0.2300,-365.4,777.9,-74.7,1262.1,738.0,-1022.1,85.5,299.7,-2148.9,-277.8,-174.9,-922.5,-3130.8,240.9,457.5,350.7,-7.2,-6.3,-8.1,-857.4,-0.6,-186.3,-2070.6,-3612.3,0,414,0,6,0, 
0.2333,-296.7,782.1,-76.8,1252.2,1024.8,-1022.7,81.0,300.6,-1630.2,-283.8,-174.3,93.3,-3138.3,526.2,852.6,359.4,-7.2,-5.7,1275.9,1472.7,-0.9,-183.9,-2070.9,-3616.5,0,420,0,7,0, 
0.2367,-331.5,782.1,-75.0,1257.3,968.4,-1015.5,81.6,301.5,-1926.6,-281.7,-180.9,373.8,-3132.6,457.5,872.1,344.1,-7.2,-6.6,1421.7,2247.6,-0.6,-179.7,-2069.4,-3614.7,0,426,0,8,0, 
0.2400,-401.4,776.7,-72.9,1255.2,551.1,-1020.3,83.1,300.0,-2593.5,-283.2,-179.4,-441.9,-3144.9,28.5,439.8,329.7,-6.6,-5.7,200.4,350.1,-0.3,-185.4,-2063.7,-3606.0,0,432,0,9,0, 
0.2433,-416.4,778.2,-67.5,1260.9,466.2,-1014.9,83.1,299.1,-2815.8,-279.9,-176.1,-1084.8,-3142.8,-65.7,191.4,327.6,-7.2,-6.0,-610.5,-1504.2,-0.3,-184.8,-2071.8,-3601.2,0,438,0,10,0, 
0.2467,-361.8,788.1,-69.0,1268.1,729.3,-1015.8,86.4,302.7,-2148.9,-277.2,-176.7,-777.0,-3133.5,182.1,440.7,358.5,-6.6,-5.7,83.4,-851.7,-1.2,-178.5,-2058.3,-3607.2,0,444,0,11,0, 
0.2500,-310.2,773.4,-78.0,1260.3,987.3,-1015.8,80.7,298.8,-1630.2,-286.8,-189.0,175.5,-3144.6,476.1,912.6,350.4,-6.9,-6.0,1252.8,1388.4,-0.3,-188.1,-2065.2,-3608.1,0,450,0,12,0, 
0.2533,-311.1,764.7,-82.8,1235.4,940.8,-1023.0,82.8,293.1,-2074.8,-293.7,-193.8,496.5,-3159.9,440.1,950.4,320.7,-6.9,-5.7,1417.5,2199.0,-0.9,-191.1,-2066.1,-3611.7,0,456,0,13,0, 
0.2567,-404.4,760.2,-81.6,1241.4,694.8,-1018.5,84.0,295.5,-2519.4,-287.7,-191.7,-299.1,-3157.5,31.5,477.0,312.0,-7.2,-6.0,294.9,382.8,-0.6,-186.3,-2064.6,-3600.6,0,462,0,14,0, 
0.2600,-436.5,764.7,-80.7,1242.6,496.5,-1017.3,86.4,302.7,-2593.5,-288.6,-193.8,-1074.6,-3158.7,-110.1,169.5,314.4,-6.9,-6.0,-661.5,-1599.3,-0.6,-182.7,-2061.9,-3604.8,0,468,0,15,0, 
0.2633,-380.1,771.0,-80.1,1255.5,742.2,-1010.1,86.7,303.9,-2223.0,-289.8,-192.0,-609.6,-3164.7,206.4,426.9,327.3,-7.2,-6.0,29.7,-870.6,-0.6,-181.2,-2059.8,-3601.2,0,474,0,16,0, 
0.2667,-296.4,765.3,-83.7,1246.5,1052.7,-1016.7,83.1,298.5,-1630.2,-291.9,-197.1,240.6,-3165.0,470.1,831.6,324.3,-6.9,-5.7,1195.5,1261.2,-0.3,-188.1,-2065.2,-3609.6,0,480,0,17,0, 
0.2700,-333.6,763.5,-79.8,1249.8,1027.8,-1014.6,87.6,298.8,-1926.6,-293.1,-194.4,485.1,-3173.4,352.5,858.6,332.7,-7.5,-6.0,1270.2,2053.5,-0.6,-188.1,-2057.7,-3597.6,0,486,0,18,0, 
0.2733,-406.5,766.2,-78.6,1252.2,664.2,-1015.8,86.4,297.0,-2519.4,-289.2,-194.4,-368.7,-3186.0,51.6,414.9,315.3,-6.6,-6.0,85.8,428.1,-0.6,-178.2,-2058.6,-3588.0,0,492,0,19,0, 
0.2767,-447.9,761.7,-83.4,1243.2,488.4,-1018.8,86.4,294.9,-2667.6,-291.3,-197.4,-1101.9,-3184.2,-107.1,129.9,321.6,-6.6,-5.7,-734.7,-1518.3,-0.9,-190.2,-2058.0,-3597.9,0,498,0,20,0, 
0.2800,-361.5,768.9,-80.1,1244.4,659.1,-1012.2,88.5,297.6,-2148.9,-290.1,-193.8,-730.5,-3151.2,185.4,388.8,337.8,-6.9,-6.0,-65.4,-949.8,-0.9,-187.2,-2055.3,-3595.2,0,504,0,21,0, 
0.2833,-304.8,769.5,-85.2,1252.8,971.4,-1016.7,79.5,295.2,-1704.3,-291.9,-199.5,94.8,-3139.8,524.7,829.5,348.6,-7.2,-5.7,1145.1,1291.5,-0.9,-186.0,-2057.1,-3600.6,0,510,0,22,0, 
0.2867,-345.6,762.9,-84.0,1243.5,894.6,-1022.1,80.1,292.8,-2000.7,-287.4,-194.4,335.1,-3162.0,423.0,809.1,332.4,-7.2,-6.0,1268.1,2053.5,-0.9,-186.9,-2059.2,-3602.7,0,516,0,23,0, 
0.2900,-416.1,759.0,-81.3,1230.9,593.7,-1019.7,79.5,293.7,-2667.6,-289.8,-193.8,-475.8,-3146.4,57.3,421.8,312.9,-7.5,-6.0,142.2,327.0,-0.6,-182.1,-2059.2,-3602.1,0,522,0,24,0, 
0.2933,-425.7,762.6,-86.1,1233.0,502.5,-1026.0,78.6,286.2,-2741.7,-299.4,-197.7,-1068.3,-3165.9,-6.9,136.8,306.6,-7.2,-5.7,-668.4,-1494.0,-0.6,-183.3,-2058.0,-3603.3,0,528,0,25,0, 
0.2967,-355.2,773.1,-81.3,1236.3,750.3,-1021.8,87.3,286.2,-2074.8,-291.0,-197.4,-776.4,-3154.5,208.5,364.2,319.5,-6.9,-6.0,-28.5,-944.1,-0.9,-192.6,-2049.9,-3600.6,0,534,0,26,0, 
0.3000,-311.1,770.7,-86.7,1240.8,981.3,-1028.7,78.0,276.6,-1704.3,-290.7,-200.1,60.0,-3155.4,388.5,796.5,322.2,-6.9,-6.3,1057.2,1311.9,-0.6,-194.7,-2062.2,-3613.5,0,540,0,27,0, 
0.3033,-326.1,760.5,-91.5,1228.5,918.6,-1031.4,78.6,274.2,-2000.7,-295.8,-207.0,325.8,-3154.8,286.2,802.5,318.9,-6.9,-6.3,1173.9,2118.9,-0.6,-194.7,-2055.0,-3617.1,0,546,0,28,0, 
0.3067,-388.2,761.1,-84.6,1235.7,647.1,-1031.1,86.7,278.7,-2593.5,-294.0,-199.5,-295.5,-3170.7,-27.0,441.3,297.9,-6.9,-5.7,122.4,624.3,-0.3,-184.5,-2041.5,-3599.7,0,552,0,29,0, 
0.3100,-448.2,764.4,-84.3,1238.4,472.2,-1023.3,92.1,280.8,-2593.5,-291.0,-196.5,-1006.8,-3165.9,-202.2,29.4,315.9,-6.9,-5.7,-873.9,-1396.5,-0.6,-178.5,-2045.4,-3602.1,0,558,0,30,0, 
0.3133,-366.6,767.7,-88.2,1242.9,732.0,-1036.8,83.1,278.4,-2223.0,-289.5,-201.9,-678.0,-3163.8,82.8,217.8,325.5,-6.6,-5.7,-210.9,-874.8,-0.6,-184.5,-2053.8,-3602.7,0,564,0,31,0, 
0.3167,-314.4,775.8,-85.8,1240.2,1026.0,-1028.7,88.5,276.9,-1704.3,-290.1,-199.2,241.8,-3149.4,426.9,684.3,351.0,-6.9,-6.0,966.6,1352.4,-0.9,-190.2,-2047.5,-3599.7,0,570,0,32,0, 
0.3200,-333.6,770.1,-89.7,1238.7,925.5,-1029.6,81.6,281.7,-1926.6,-283.5,-201.9,393.0,-3154.5,348.6,756.6,328.5,-6.6,-5.7,1112.4,2198.4,-0.6,-187.8,-2046.3,-3598.5,0,576,0,33,0, 
0.3233,-386.7,773.4,-79.2,1237.5,607.8,-1022.1,89.1,283.8,-2519.4,-279.0,-194.4,-216.3,-3145.2,18.9,366.9,321.3,-6.9,-6.0,60.3,521.7,-0.9,-179.1,-2044.8,-3593.7,0,582,0,34,0, 
0.3267,-420.9,774.3,-79.5,1253.1,456.6,-1022.7,90.3,288.0,-2741.7,-276.6,-193.8,-983.1,-3156.3,-164.1,78.9,319.2,-6.9,-6.3,-831.9,-1426.8,-0.3,-175.2,-2048.7,-3591.6,0,588,0,35,0, 
0.3300,-368.7,778.8,-79.5,1249.8,648.0,-1015.8,89.4,287.4,-2297.1,-278.1,-191.7,-636.0,-3157.8,85.2,365.7,330.6,-7.2,-5.7,-147.6,-834.9,-0.9,-177.0,-2051.7,-3589.8,0,594,0,36,0, 
0.3333,-299.1,780.3,-79.5,1245.9,932.1,-1018.2,87.9,279.9,-1630.2,-283.2,-191.7,120.3,-3146.7,390.9,771.3,336.0,-6.6,-6.0,995.4,1319.7,-0.9,-186.0,-2055.0,-3600.3,0,600,0,37,0, 
0.3367,-313.5,784.8,-76.8,1242.6,943.8,-1015.2,93.0,279.9,-2000.7,-273.6,-190.5,417.3,-3145.5,347.7,849.6,339.3,-6.9,-6.0,1195.2,2155.2,-0.6,-173.4,-2052.0,-3593.4,0,606,0,38,0, 
0.3400,-392.1,774.9,-72.0,1240.8,624.3,-1024.2,92.4,285.0,-2519.4,-273.3,-188.1,-430.5,-3169.5,-31.2,434.7,328.8,-6.9,-6.3,89.1,447.9,-0.9,-170.1,-2056.5,-3591.0,0,612,0,39,0, 
0.3433,-416.4,780.9,-73.5,1233.6,502.2,-1020.0,92.1,281.7,-2815.8,-272.7,-193.5,-1097.1,-3159.9,-183.0,174.0,324.9,-6.9,-5.7,-699.3,-1459.5,-0.6,-172.8,-2051.7,-3590.4,0,618,0,40,0, 
0.3467,-360.9,785.4,-76.5,1249.2,774.6,-1024.8,93.6,279.3,-2148.9,-275.4,-195.0,-612.3,-3143.7,113.4,412.2,328.2,-6.9,-6.0,1.5,-811.8,-0.3,-179.4,-2053.5,-3601.8,0,624,0,41,0, 
0.3500,-303.6,787.2,-79.2,1253.1,989.4,-1016.7,94.8,278.4,-1556.1,-260.4,-191.1,223.5,-3135.0,429.0,763.2,345.6,-6.9,-6.0,1180.8,1273.8,-0.9,-175.2,-2052.9,-3586.2,0,630,0,42,0, 
0.3533,-336.6,785.7,-75.3,1242.0,954.6,-1020.9,90.3,276.3,-2000.7,-270.0,-190.8,325.8,-3143.4,374.1,754.8,327.3,-6.9,-6.3,1196.1,2237.4,-0.9,-172.5,-2061.3,-3591.9,0,636,0,43,0, 
0.3567,-416.4,775.8,-74.7,1235.7,593.1,-1019.7,92.1,268.2,-2667.6,-276.9,-193.8,-478.2,-3160.5,-50.1,199.5,321.9,-6.9,-5.7,-49.5,357.3,-0.9,-183.9,-2059.2,-3594.9,0,642,0,44,0, 
0.3600,-437.7,764.7,-81.0,1231.2,476.1,-1026.9,83.7,266.7,-2667.6,-286.8,-199.8,-1176.9,-3161.7,-146.4,-7.2,308.4,-7.2,-6.3,-932.7,-1553.7,-0.9,-185.4,-2066.1,-3598.8,0,648,0,45,0, 
0.3633,-383.1,769.8,-82.8,1233.3,707.1,-1026.9,83.7,262.8,-2223.0,-287.4,-213.3,-714.9,-3152.4,100.8,198.6,331.2,-6.9,-6.3,-189.9,-912.0,-0.6,-197.7,-2062.8,-3603.6,0,654,0,46,0, 
0.3667,-322.5,766.5,-86.4,1239.9,1010.4,-1030.8,78.9,263.1,-1704.3,-293.4,-207.3,326.4,-3155.7,448.5,630.9,329.7,-7.5,-6.0,988.8,1389.3,-0.9,-200.7,-2067.0,-3603.6,0,660,0,47,0, 
0.3700,-354.3,768.6,-78.9,1238.7,896.7,-1032.3,86.4,261.9,-1926.6,-285.9,-204.6,564.6,-3152.7,378.9,623.7,314.1,-6.6,-6.3,987.3,2174.4,-1.2,-194.1,-2064.3,-3595.8,0,666,0,48,0, 
0.3733,-420.0,764.1,-81.3,1227.9,517.2,-1025.7,86.4,255.9,-2667.6,-288.9,-206.7,-328.5,-3157.2,-9.3,225.9,303.6,-7.2,-5.7,-179.7,368.1,-0.6,-195.6,-2063.4,-3593.7,0,672,0,49,0, 
0.3767,-448.5,766.5,-78.3,1236.6,366.6,-1027.2,84.3,254.4,-2741.7,-294.9,-205.2,-1031.7,-3151.5,-95.4,-135.9,305.4,-6.9,-6.0,-989.4,-1565.4,-0.6,-191.4,-2064.3,-3596.4,0,678,0,50,0, 
0.3800,-385.8,776.7,-79.8,1240.5,708.9,-1024.5,82.2,250.8,-2148.9,-292.5,-201.3,-528.6,-3138.9,225.9,194.1,308.7,-7.2,-6.0,-235.8,-873.0,-0.3,-189.9,-2063.7,-3602.1,0,684,0,51,0, 
0.3833,-321.0,770.7,-88.2,1238.7,1005.6,-1028.7,81.6,247.5,-1704.3,-298.8,-208.2,419.1,-3144.0,567.0,719.7,325.8,-7.2,-6.3,1041.6,1517.1,-0.9,-191.1,-2067.9,-3599.4,0,690,0,52,0, 
0.3867,-336.0,767.4,-88.5,1238.1,951.0,-1018.5,85.5,244.5,-1852.5,-299.1,-209.4,640.8,-3150.3,439.5,678.9,311.1,-6.9,-6.0,1226.4,2322.9,-0.6,-190.5,-2057.7,-3604.2,0,696,0,53,0, 
0.3900,-413.4,770.7,-83.7,1234.2,597.6,-1022.4,87.9,246.3,-2667.6,-288.0,-207.3,-366.6,-3163.8,-13.2,168.0,312.9,-7.2,-5.7,-55.8,302.1,-0.9,-182.7,-2057.7,-3596.7,0,702,0,54,0, 
0.3933,-439.5,774.6,-87.3,1234.8,447.3,-1016.7,87.6,242.1,-2667.6,-286.8,-203.7,-949.2,-3155.4,-141.3,-76.8,310.8,-7.2,-6.0,-872.7,-1620.6,-0.6,-192.9,-2067.6,-3603.9,0,708,0,55,0, 
0.3967,-384.6,771.6,-89.4,1235.7,708.9,-1027.2,84.6,237.6,-2000.7,-291.0,-206.4,-581.4,-3153.0,186.6,151.2,313.5,-6.9,-6.0,-208.2,-879.3,-0.9,-195.9,-2068.5,-3602.7,0,714,0,56,0, 
0.4000,-327.9,777.0,-87.3,1236.0,1016.4,-1018.5,86.1,234.6,-1704.3,-292.5,-207.9,486.9,-3141.0,538.2,567.9,324.6,-7.5,-6.0,1099.8,1283.4,-0.6,-196.8,-2067.0,-3601.8,0,720,0,57,0, 
0.4033,-340.2,776.4,-85.5,1243.2,983.1,-1028.7,82.5,234.0,-1852.5,-287.1,-206.1,612.9,-3161.7,492.0,663.0,313.5,-7.5,-5.7,1212.3,2200.2,-0.6,-183.9,-2066.4,-3597.0,0,726,0,58,0, 
0.4067,-420.3,772.2,-80.7,1234.5,681.0,-1022.1,89.4,233.4,-2593.5,-285.0,-200.4,-242.1,-3163.8,40.2,204.6,308.1,-6.9,-5.7,30.0,340.8,-1.2,-187.2,-2063.1,-3593.4,0,732,0,59,0, 
0.4100,-430.8,766.2,-87.0,1231.8,528.3,-1027.2,86.7,223.2,-2741.7,-287.1,-207.6,-1038.3,-3150.0,-87.3,-64.2,310.5,-6.9,-6.0,-813.3,-1632.3,-0.9,-192.0,-2061.9,-3592.5,0,738,0,60,0, 
0.4133,-378.9,771.0,-89.7,1231.8,741.3,-1023.6,78.3,219.6,-2000.7,-292.8,-211.8,-702.3,-3146.7,213.0,180.3,321.6,-6.9,-5.7,-42.9,-850.5,-0.9,-197.4,-2064.3,-3602.7,0,744,0,61,0, 
0.4167,-293.7,768.6,-93.3,1239.9,1006.5,-1027.5,74.4,210.0,-1630.2,-296.1,-211.8,202.8,-3150.3,487.2,591.0,329.4,-7.2,-6.0,1121.4,1306.2,-0.6,-200.1,-2079.6,-3598.2,0,750,0,62,0, 
0.4200,-326.4,766.8,-92.7,1245.0,969.0,-1043.4,70.8,204.9,-1926.6,-304.2,-221.7,459.0,-3153.9,379.2,592.5,312.3,-6.9,-6.0,1317.0,2148.6,-0.9,-195.0,-2072.4,-3610.2,0,756,0,63,0, 
0.4233,-419.7,762.9,-92.1,1232.1,642.3,-1037.4,68.4,202.8,-2593.5,-303.6,-221.7,-446.4,-3163.8,-27.9,154.8,288.0,-6.9,-5.7,15.0,199.8,-0.9,-200.4,-2069.1,-3605.1,0,762,0,64,0, 
0.4267,-420.9,773.1,-86.1,1235.1,500.4,-1041.3,70.5,204.3,-2667.6,-294.6,-208.2,-1204.2,-3152.1,-202.2,-80.7,290.7,-7.2,-6.0,-836.7,-1698.3,-0.9,-198.3,-2065.8,-3597.6,0,768,0,65,0, 
0.4300,-359.4,777.0,-91.5,1230.9,784.8,-1038.6,69.0,197.4,-2148.9,-289.8,-210.6,-749.7,-3140.7,169.8,189.3,305.1,-6.6,-5.7,-52.2,-920.4,-0.9,-194.1,-2065.8,-3592.2,0,774,0,66,0, 
0.4333,-304.8,769.8,-94.8,1234.5,1109.4,-1036.5,64.2,194.7,-1556.1,-297.3,-218.7,226.5,-3143.4,474.3,648.0,315.3,-6.6,-5.4,1166.7,1320.9,-0.9,-197.1,-2074.2,-3600.6,0,780,0,67,0, 
0.4367,-311.4,773.7,-88.8,1244.7,1101.3,-1029.0,71.1,197.1,-2074.8,-291.0,-206.7,417.0,-3151.2,369.0,714.6,306.9,-6.9,-6.0,1265.7,2107.2,-0.6,-190.8,-2063.4,-3587.7,0,786,0,68,0, 
0.4400,-402.9,766.2,-86.1,1244.7,722.1,-1029.3,77.7,197.7,-2593.5,-285.9,-203.4,-481.2,-3141.9,9.0,313.8,297.0,-6.6,-6.0,75.9,329.7,-0.3,-186.6,-2061.0,-3582.6,0,792,0,69,0, 
0.4433,-424.2,772.2,-87.3,1244.7,579.0,-1027.2,76.8,195.9,-2741.7,-283.8,-205.5,-1276.2,-3149.4,-139.5,21.0,294.0,-6.9,-6.0,-918.0,-1741.8,-0.9,-188.7,-2055.9,-3582.9,0,798,0,70,0, 
0.4467,-370.2,780.9,-92.7,1248.0,788.1,-1028.4,74.7,189.9,-2148.9,-296.1,-211.8,-867.3,-3148.8,78.9,222.9,289.8,-6.9,-5.7,-206.7,-1058.4,-1.2,-201.0,-2054.7,-3595.5,0,804,0,71,0, 
0.4500,-291.3,784.2,-90.9,1250.7,1124.1,-1029.9,69.9,184.5,-1778.4,-295.8,-213.0,130.5,-3149.4,436.8,681.9,326.1,-6.9,-5.7,1060.8,1263.6,-1.2,-195.9,-2071.2,-3600.3,0,810,0,72,0, 
0.4533,-325.2,780.3,-90.0,1239.3,1022.4,-1035.6,72.3,179.1,-1852.5,-301.8,-214.8,350.1,-3154.5,378.9,660.6,318.0,-7.2,-6.0,1035.6,2006.4,-0.9,-198.6,-2070.6,-3595.5,0,816,0,73,0, 
0.4567,-397.5,785.1,-78.6,1255.2,660.3,-1034.4,74.7,183.9,-2667.6,-292.8,-204.3,-483.6,-3165.6,18.0,209.1,303.9,-7.2,-5.7,-154.2,169.8,-0.6,-186.3,-2063.7,-3588.3,0,822,0,74,0, 
0.4600,-428.7,790.8,-79.5,1245.3,506.4,-1027.2,74.4,182.4,-2667.6,-298.2,-213.0,-1067.4,-3161.1,-127.2,-20.1,312.3,-7.2,-5.7,-935.7,-1718.7,-0.6,-190.8,-2065.5,-3588.0,0,828,0,75,0, 
0.4633,-363.9,804.0,-77.4,1252.5,768.3,-1023.3,75.0,187.5,-2223.0,-291.6,-205.2,-608.1,-3132.6,198.3,256.5,319.8,-6.9,-6.0,-91.5,-887.4,-0.9,-185.7,-2070.6,-3588.0,0,834,0,76,0, 
0.4667,-302.1,798.6,-80.4,1251.0,1047.6,-1021.8,75.0,187.2,-1630.2,-294.9,-207.6,287.1,-3140.7,480.6,679.8,320.7,-6.6,-5.7,1128.0,1294.5,-0.6,-191.1,-2064.6,-3587.1,0,840,0,77,0, 
0.4700,-345.3,795.9,-81.3,1245.9,1004.4,-1025.4,69.0,182.4,-2000.7,-289.5,-206.1,501.9,-3142.2,400.8,649.2,301.5,-7.2,-5.7,1128.9,2157.9,-1.2,-188.4,-2070.3,-3582.3,0,846,0,78,0, 
0.4733,-416.1,791.7,-78.3,1242.0,637.2,-1027.2,70.2,179.4,-2667.6,-280.5,-204.9,-346.8,-3153.0,41.7,210.9,297.9,-6.9,-5.7,-187.5,315.9,-0.6,-181.2,-2072.1,-3584.7,0,852,0,79,0, 
0.4767,-445.8,784.8,-80.4,1241.1,492.6,-1032.9,66.6,171.0,-2741.7,-292.2,-214.2,-1117.8,-3156.3,-190.5,-173.4,304.8,-7.5,-6.0,-1098.0,-1633.5,-1.2,-197.4,-2067.3,-3589.5,0,858,0,80,0, 
0.4800,-380.1,787.2,-89.1,1248.6,739.2,-1028.4,71.4,171.6,-2223.0,-285.6,-216.9,-687.3,-3153.0,136.8,206.4,317.4,-6.9,-6.0,-301.8,-804.9,-1.2,-199.2,-2060.7,-3587.4,0,864,0,81,0, 
0.4833,-321.9,787.2,-93.3,1242.6,1083.9,-1024.5,70.8,166.2,-1556.1,-295.2,-216.0,278.7,-3156.9,511.8,655.5,317.4,-7.2,-6.3,1006.2,1608.6,-0.9,-198.3,-2069.4,-3585.9,0,870,0,82,0, 
0.4867,-343.5,781.2,-92.4,1238.1,1125.6,-1034.4,72.6,162.0,-1926.6,-294.6,-217.2,477.0,-3157.5,474.0,698.7,293.4,-7.2,-5.7,1188.0,2406.0,-0.9,-200.7,-2072.4,-3591.9,0,876,0,83,0, 
0.4900,-477.3,777.0,-85.5,1227.3,540.0,-1036.8,72.3,161.1,-2593.5,-293.4,-211.5,-877.5,-3160.5,-285.3,-35.1,271.8,-6.9,-6.0,-400.2,-136.8,-0.6,-194.7,-2068.8,-3584.1,0,882,0,84,0, 
0.4933,-484.8,773.4,-82.8,1231.5,189.9,-1036.5,77.4,161.7,-2741.7,-288.3,-207.6,-1738.5,-3150.9,-573.0,-496.5,283.2,-7.2,-5.7,-1480.2,-2375.7,-0.9,-190.2,-2061.0,-3571.5,0,888,0,85,0, 
0.4967,-427.5,781.8,-87.9,1236.0,533.1,-1026.6,81.3,161.4,-2223.0,-290.4,-211.2,-1166.1,-3149.7,-96.9,-60.6,303.9,-7.2,-6.0,-590.1,-1403.4,-0.9,-190.2,-2058.9,-3575.7,0,894,0,86,0, 
0.5000,-329.4,780.6,-93.0,1233.0,895.8,-1031.1,77.7,154.5,-1704.3,-299.4,-216.6,-191.1,-3144.9,302.4,450.6,313.5,-7.2,-6.3,708.3,1115.1,-0.6,-193.2,-2056.8,-3580.2,0,900,0,87,0, 
0.5033,-334.2,777.0,-94.8,1233.9,915.0,-1039.5,75.0,146.4,-1926.6,-298.8,-222.6,67.8,-3152.7,237.0,462.3,293.7,-6.6,-6.0,768.0,1966.2,-0.9,-190.5,-2057.7,-3584.4,0,906,0,88,0, 
0.5067,-423.6,778.8,-90.6,1236.9,585.0,-1027.5,74.7,147.3,-2593.5,-295.5,-218.1,-716.7,-3165.3,-131.4,84.0,288.9,-7.2,-6.0,-376.2,150.0,-0.3,-197.1,-2058.9,-3585.9,0,912,0,89,0, 
0.5100,-446.7,784.2,-89.1,1231.8,393.6,-1030.2,72.3,143.7,-2889.9,-287.7,-213.9,-1464.3,-3150.9,-277.5,-197.4,292.5,-6.6,-5.7,-1249.2,-1899.6,-1.2,-191.4,-2060.1,-3585.0,0,918,0,90,0, 
0.5133,-384.0,790.5,-89.1,1241.1,675.6,-1026.6,73.8,146.7,-2297.1,-291.3,-210.6,-915.3,-3142.5,77.1,106.8,312.3,-7.2,-5.7,-585.6,-1068.9,-0.6,-195.3,-2053.5,-3585.0,0,924,0,91,0, 
0.5167,-323.4,784.8,-90.6,1249.5,1059.6,-1020.0,70.5,142.8,-1704.3,-290.1,-213.6,124.2,-3132.3,409.2,660.3,313.2,-6.9,-6.0,848.4,1380.3,-0.9,-196.5,-2054.7,-3584.4,0,930,0,92,0, 
0.5200,-328.5,788.1,-89.7,1242.3,991.2,-1027.5,72.6,139.8,-2074.8,-288.3,-217.2,305.1,-3138.9,258.9,673.2,309.0,-6.6,-6.0,920.4,2220.9,-0.9,-199.8,-2054.1,-3587.4,0,936,0,93,0, 
0.5233,-403.2,790.5,-83.1,1232.7,633.9,-1023.3,76.8,140.4,-2741.7,-293.4,-215.7,-513.0,-3150.9,-123.6,193.8,301.2,-7.2,-6.0,-287.4,261.6,-0.9,-201.6,-2049.0,-3582.6,0,942,0,94,0, 
0.5267,-429.9,784.2,-85.2,1237.8,468.3,-1025.7,76.2,140.4,-2815.8,-288.0,-216.0,-1245.0,-3139.2,-263.4,-80.7,306.9,-7.5,-6.3,-1134.6,-1637.7,-0.9,-199.5,-2049.9,-3582.3,0,948,0,95,0, 
0.5300,-369.9,783.6,-88.5,1247.1,702.9,-1028.4,71.1,144.6,-2074.8,-294.6,-212.1,-795.9,-3129.0,47.4,177.6,325.2,-6.6,-6.0,-324.3,-883.5,-0.6,-192.6,-2055.6,-3592.2,0,954,0,96,0, 
0.5333,-301.8,786.9,-92.7,1253.7,992.4,-1026.9,71.4,135.3,-1778.4,-293.7,-210.0,72.0,-3136.5,415.5,603.0,315.0,-7.2,-5.7,907.5,1604.4,-0.6,-189.3,-2058.6,-3593.4,0,960,0,97,0, 
0.5367,-335.4,784.2,-92.1,1245.6,897.0,-1024.8,73.2,134.7,-2074.8,-297.6,-209.4,324.6,-3155.7,380.4,623.4,303.3,-6.9,-5.7,1057.2,2382.3,-0.9,-186.6,-2053.2,-3585.3,0,966,0,98,0, 
0.5400,-409.5,784.2,-87.0,1239.3,567.6,-1030.2,71.1,126.9,-2741.7,-286.5,-201.9,-555.6,-3162.6,-33.9,149.1,288.0,-7.2,-6.0,-156.6,491.4,-0.6,-178.5,-2049.6,-3584.1,0,972,0,99,0, 
0.5433,-443.1,777.6,-87.9,1239.9,417.9,-1031.1,73.2,122.1,-2815.8,-287.7,-200.1,-1253.1,-3159.9,-141.9,-122.1,300.9,-6.9,-5.7,-1038.9,-1398.6,-0.9,-177.9,-2051.7,-3582.0,0,978,0,100,0, 
0.5467,-382.2,780.9,-93.6,1247.7,662.1,-1035.6,74.4,125.7,-2148.9,-295.5,-210.6,-837.9,-3153.0,51.0,153.9,308.1,-6.9,-6.0,-386.4,-721.8,-0.6,-179.7,-2051.4,-3587.4,0,984,0,101,0, 
0.5500,-305.4,780.9,-90.6,1254.3,954.0,-1029.6,81.3,125.1,-1704.3,-298.2,-208.5,125.4,-3151.5,311.4,533.4,316.5,-6.9,-6.0,870.9,1563.3,-1.2,-184.5,-2055.3,-3584.4,0,990,0,102,0, 
0.5533,-321.9,775.5,-87.9,1255.5,924.9,-1018.8,77.7,126.9,-1926.6,-286.5,-200.1,331.5,-3158.4,227.1,643.8,300.0,-6.9,-5.7,970.5,2263.8,-0.9,-174.0,-2046.3,-3582.6,0,996,0,103,0, 
0.5567,-408.6,762.3,-89.1,1245.9,532.8,-1024.5,77.7,125.1,-2667.6,-286.8,-207.0,-570.3,-3169.8,-86.4,151.8,292.2,-7.5,-6.0,-243.9,420.6,-0.6,-184.8,-2049.3,-3576.9,0,1002,0,104,0, 
0.5600,-423.9,765.0,-88.2,1244.4,405.9,-1027.2,81.3,121.5,-2815.8,-288.6,-210.9,-1346.7,-3169.8,-167.4,-100.5,309.9,-7.2,-6.0,-1168.5,-1725.9,-0.3,-174.0,-2049.6,-3580.2,0,1008,0,105,0, 
0.5633,-364.5,764.1,-95.4,1248.0,704.1,-1021.2,77.7,122.7,-2223.0,-296.7,-212.4,-801.3,-3174.0,159.6,155.1,322.5,-6.9,-5.7,-337.2,-873.9,-0.6,-186.0,-2054.7,-3581.4,0,1014,0,106,0, 
0.5667,-301.5,766.5,-100.8,1257.9,968.7,-1010.4,84.0,124.2,-1778.4,-293.7,-218.1,181.8,-3157.8,552.3,590.1,331.5,-6.9,-6.0,1001.4,1523.1,-0.9,-181.5,-2048.7,-3581.4,0,1020,0,107,0, 
0.5700,-348.0,766.8,-97.5,1251.0,907.2,-1013.1,81.3,125.1,-1852.5,-298.5,-214.2,380.4,-3171.6,432.6,531.6,314.4,-6.9,-5.7,1004.4,2266.5,-0.6,-182.1,-2051.1,-3585.9,0,1026,0,108,0, 
0.5733,-438.3,756.6,-100.2,1239.6,584.7,-1018.2,81.9,123.0,-2667.6,-297.9,-215.7,-455.7,-3175.5,75.9,19.2,307.5,-7.2,-5.7,-192.6,275.1,-1.2,-184.8,-2049.3,-3591.9,0,1032,0,109,0, 
0.5767,-440.4,760.8,-97.2,1248.6,443.1,-1016.4,79.8,126.9,-2815.8,-304.8,-218.7,-1187.4,-3187.2,-29.1,-249.0,303.3,-6.9,-6.0,-1068.6,-1620.6,-0.6,-182.4,-2051.7,-3589.5,0,1038,0,110,0, 
0.5800,-364.2,770.4,-101.7,1252.2,725.1,-1016.4,77.4,124.8,-2223.0,-299.4,-219.3,-744.6,-3161.1,294.0,-0.3,332.1,-6.9,-6.3,-237.3,-907.5,-1.2,-192.3,-2056.2,-3584.4,0,1044,0,111,0, 
0.5833,-303.9,778.2,-98.7,1249.5,949.2,-1017.6,75.0,127.5,-1556.1,-296.4,-215.7,255.9,-3159.6,582.9,498.3,334.8,-6.9,-5.7,1079.4,1488.9,-0.6,-184.5,-2051.7,-3585.3,0,1050,0,112,0, 
0.5867,-334.5,770.1,-100.2,1244.1,927.6,-1017.6,78.9,131.7,-2000.7,-291.6,-216.3,382.5,-3154.8,474.9,560.1,323.7,-6.6,-6.3,1146.3,2174.1,-1.2,-181.5,-2053.5,-3578.7,0,1056,0,113,0, 
0.5900,-438.3,765.6,-103.5,1234.8,592.2,-1019.4,77.4,136.5,-2667.6,-289.2,-220.2,-499.5,-3173.4,123.3,90.3,311.4,-7.2,-6.0,-227.7,202.8,-0.9,-185.7,-2050.8,-3576.3,0,1062,0,114,0, 
0.5933,-434.7,767.1,-98.4,1244.7,515.7,-1017.0,75.6,138.9,-2741.7,-292.2,-215.7,-1168.5,-3168.0,-18.0,-162.0,326.7,-6.3,-6.6,-1034.4,-1639.8,-1.2,-186.6,-2050.8,-3573.9,0,1068,0,115,0, 
0.5967,-369.0,768.3,-104.4,1244.4,726.6,-1014.6,73.5,145.2,-2223.0,-292.8,-222.6,-669.0,-3159.0,250.5,42.9,330.0,-6.9,-5.7,-295.8,-905.4,-1.2,-187.5,-2052.3,-3575.4,0,1074,0,116,0, 
0.6000,-309.6,757.2,-115.8,1235.7,985.2,-1026.6,71.1,145.5,-1704.3,-300.6,-228.0,254.4,-3162.0,520.8,546.6,337.5,-6.9,-6.0,945.6,1322.4,-0.9,-187.8,-2061.9,-3590.4,0,1080,0,117,0, 
0.6033,-342.6,757.5,-111.3,1229.7,908.7,-1015.8,70.2,155.1,-2000.7,-295.5,-228.9,429.0,-3174.0,468.6,574.5,333.0,-6.9,-6.3,1161.0,2247.0,-0.6,-188.4,-2058.3,-3580.8,0,1086,0,118,0, 
0.6067,-437.7,761.1,-107.4,1224.6,613.5,-1014.0,84.3,165.9,-2667.6,-296.7,-226.2,-495.6,-3177.0,31.8,128.7,319.2,-6.9,-5.7,-196.2,154.2,-1.2,-187.5,-2046.3,-3573.9,0,1092,0,119,0, 
0.6100,-422.4,763.8,-106.5,1222.2,425.1,-1009.5,86.1,173.4,-2741.7,-295.8,-224.7,-1173.6,-3176.4,-103.2,-160.5,334.8,-6.9,-6.0,-1067.1,-1755.6,-0.9,-183.6,-2049.0,-3568.5,0,1098,0,120,0, 
0.6133,-400.5,759.0,-109.5,1237.8,717.0,-1016.7,83.1,179.7,-2223.0,-301.8,-232.2,-726.3,-3164.7,210.3,126.3,335.4,-7.2,-5.4,-331.5,-995.1,-0.6,-189.6,-2047.2,-3578.1,0,1104,0,121,0, 
0.6167,-351.9,750.9,-116.4,1238.4,921.6,-1018.8,73.5,178.8,-1630.2,-304.5,-241.5,137.7,-3171.6,502.5,582.0,324.9,-6.9,-5.7,983.7,1400.4,-1.2,-195.3,-2053.8,-3583.2,0,1110,0,122,0, 
0.6200,-371.7,757.2,-112.2,1237.5,929.4,-1015.8,77.1,181.2,-2000.7,-302.1,-232.8,425.7,-3168.0,383.7,591.0,315.6,-6.6,-5.7,1068.6,2194.8,-1.5,-195.6,-2050.2,-3580.2,0,1116,0,123,0, 
0.6233,-415.8,755.1,-103.5,1239.3,571.5,-1011.9,87.6,191.7,-2667.6,-298.5,-228.6,-516.6,-3167.4,67.2,162.3,322.8,-6.6,-5.7,-172.2,266.4,-1.2,-187.8,-2043.9,-3574.8,0,1122,0,124,0, 
0.6267,-453.6,756.0,-110.4,1231.2,456.3,-1015.2,84.6,192.0,-2741.7,-303.6,-234.9,-1217.7,-3174.0,-89.7,-105.3,316.8,-6.9,-6.0,-933.9,-1667.1,-0.6,-192.3,-2047.2,-3582.3,0,1128,0,125,0, 
0.6300,-399.3,761.4,-110.4,1241.7,681.9,-1016.7,79.2,198.3,-2297.1,-306.3,-236.4,-777.3,-3172.5,224.1,222.0,326.7,-7.2,-6.0,-148.2,-943.2,-0.6,-197.1,-2051.4,-3589.5,0,1134,0,126,0, 
0.6333,-339.3,769.8,-110.1,1249.8,887.1,-1024.2,78.9,194.4,-1630.2,-309.3,-236.4,169.2,-3167.7,473.7,549.6,337.5,-6.6,-6.0,1031.4,1312.8,-0.3,-194.4,-2058.9,-3589.8,0,1140,0,127,0, 
0.6367,-372.9,763.8,-111.6,1244.1,838.2,-1022.4,74.1,197.7,-2000.7,-315.9,-237.6,277.2,-3190.2,348.6,570.3,326.4,-6.9,-5.7,1171.8,2100.6,-0.9,-201.9,-2053.2,-3587.1,0,1146,0,128,0, 
0.6400,-447.0,765.9,-111.0,1231.5,552.3,-1025.7,76.2,204.9,-2741.7,-309.0,-234.9,-471.6,-3195.6,6.0,174.3,312.3,-6.6,-6.0,-82.8,270.9,-0.6,-192.9,-2051.4,-3583.5,0,1152,0,129,0, 
0.6433,-449.7,772.5,-107.4,1230.3,429.9,-1022.7,79.2,207.6,-2741.7,-305.1,-232.2,-1169.7,-3189.0,-147.9,-144.9,297.9,-6.9,-6.0,-830.4,-1671.0,-0.9,-195.3,-2049.3,-3586.8,0,1158,0,130,0, 
0.6467,-401.7,761.7,-108.9,1237.8,702.9,-1010.4,80.1,210.9,-2148.9,-303.3,-232.8,-797.4,-3181.5,153.6,62.7,321.0,-7.2,-6.0,-136.8,-881.1,-0.3,-195.6,-2049.0,-3579.3,0,1164,0,131,0, 
0.6500,-348.0,765.6,-109.5,1237.5,998.1,-1016.1,76.8,211.2,-1778.4,-307.8,-234.9,151.5,-3166.8,501.9,557.1,321.0,-7.2,-6.0,1099.8,1483.8,-0.6,-188.7,-2055.9,-3586.2,0,1170,0,132,0, 
0.6533,-344.7,764.7,-107.4,1244.4,836.4,-1021.8,79.5,215.1,-2000.7,-300.9,-234.3,323.4,-3170.7,389.7,476.1,323.1,-6.9,-6.0,1124.7,2099.4,-0.9,-190.8,-2051.7,-3578.7,0,1176,0,133,0, 
0.6567,-406.5,770.7,-102.3,1243.5,491.7,-1013.4,81.3,230.7,-2667.6,-306.9,-228.6,-505.2,-3176.1,27.0,82.8,317.7,-6.9,-5.4,-170.7,207.0,-0.6,-190.8,-2049.9,-3575.4,0,1182,0,134,0, 
0.6600,-446.4,760.5,-109.8,1234.8,395.1,-1021.8,82.8,231.0,-3038.1,-309.6,-236.1,-1266.6,-3190.2,-124.2,-257.1,303.9,-7.2,-6.0,-1012.2,-1756.2,-0.9,-187.2,-2054.4,-3583.2,0,1188,0,135,0, 
0.6633,-366.9,774.0,-108.0,1245.6,692.4,-1011.6,86.4,242.4,-2148.9,-311.7,-226.8,-758.1,-3184.2,114.6,79.8,331.2,-6.6,-5.7,-137.7,-942.6,-0.6,-196.5,-2051.1,-3585.3,0,1194,0,136,0, 
0.6667,-302.4,770.7,-103.2,1253.1,1023.9,-1015.5,80.7,246.6,-1926.6,-304.2,-231.3,179.1,-3174.9,471.0,532.5,342.0,-7.2,-5.7,1119.6,1376.7,-1.2,-198.3,-2055.3,-3583.8,0,1200,0,137,0, 
0.6700,-325.5,761.1,-110.4,1240.2,944.1,-1014.3,87.6,242.4,-2074.8,-308.1,-239.4,276.6,-3176.4,372.3,561.3,322.8,-6.9,-6.0,1170.3,2212.2,-0.3,-197.7,-2049.3,-3588.9,0,1206,0,138,0, 
0.6733,-408.0,762.9,-108.0,1234.5,615.3,-1012.2,84.0,246.6,-2741.7,-300.6,-233.4,-693.0,-3183.3,34.8,43.5,315.9,-7.2,-6.0,-144.3,244.2,-0.6,-188.1,-2053.8,-3586.8,0,1212,0,139,0, 
0.6767,-450.0,759.0,-110.7,1238.4,471.6,-1013.1,84.0,249.9,-2815.8,-303.9,-233.1,-1409.7,-3179.4,-85.5,-202.5,320.7,-6.9,-6.0,-916.5,-1751.7,-0.6,-202.5,-2061.9,-3589.5,0,1218,0,140,0, 
0.6800,-394.8,753.3,-113.7,1239.6,736.5,-1010.4,82.8,251.1,-2223.0,-308.4,-234.6,-969.9,-3176.7,230.7,70.8,351.6,-6.9,-5.7,-194.7,-925.8,-0.6,-201.3,-2060.1,-3588.3,0,1224,0,141,0, 
0.6833,-319.8,762.9,-114.0,1236.9,1088.1,-1017.0,84.6,249.3,-1704.3,-309.3,-237.3,84.6,-3176.1,525.0,526.5,346.8,-6.9,-5.4,1105.8,1499.7,-0.6,-200.1,-2059.5,-3585.9,0,1230,0,142,0, 
0.6867,-334.5,755.4,-114.6,1229.7,920.7,-1017.6,83.1,248.7,-2000.7,-306.9,-239.4,129.6,-3181.2,364.2,444.0,326.1,-6.9,-6.0,1000.2,2106.3,-0.9,-201.6,-2063.4,-3581.7,0,1236,0,143,0, 
0.6900,-412.2,759.3,-109.8,1222.8,558.0,-1015.5,79.8,244.5,-2667.6,-312.3,-237.3,-570.6,-3185.7,24.9,18.3,319.8,-6.9,-5.7,-208.2,199.2,-0.9,-204.3,-2065.2,-3582.0,0,1242,0,144,0, 
0.6933,-430.2,756.3,-102.3,1227.6,431.7,-1010.4,86.7,260.4,-2741.7,-306.9,-229.8,-1299.3,-3187.5,-93.3,-248.1,323.7,-6.6,-6.0,-1067.4,-1657.5,-0.6,-195.6,-2058.9,-3577.2,0,1248,0,145,0, 
0.6967,-371.7,768.9,-104.4,1233.3,698.7,-1011.3,87.9,258.6,-2000.7,-306.0,-228.3,-798.9,-3170.1,136.2,-24.0,338.7,-6.6,-5.7,-345.6,-933.3,-0.9,-192.0,-2057.4,-3573.3,0,1254,0,146,0, 
0.7000,-328.5,764.4,-104.1,1246.2,1014.3,-1008.3,89.1,261.3,-1704.3,-305.7,-230.7,147.9,-3157.2,422.1,471.6,350.7,-7.2,-6.3,881.1,1442.7,-0.3,-190.5,-2058.6,-3571.5,0,1260,0,147,0, 
0.7033,-330.3,765.0,-102.0,1232.7,893.1,-1004.7,93.6,261.3,-2074.8,-303.3,-227.7,271.2,-3175.2,365.1,451.5,330.6,-7.2,-6.0,1022.1,2238.9,-0.6,-190.5,-2053.8,-3570.9,0,1266,0,148,0, 
0.7067,-399.0,771.0,-94.8,1234.8,612.0,-1002.0,97.5,271.2,-2741.7,-294.6,-219.6,-579.6,-3172.2,-36.0,16.2,305.7,-6.6,-6.0,-210.9,274.2,-0.6,-179.7,-2049.0,-3561.6,0,1272,0,149,0, 
0.7100,-410.1,761.4,-97.8,1236.9,416.4,-1003.2,97.2,267.9,-2889.9,-293.4,-222.9,-1412.7,-3168.6,-129.0,-192.0,296.1,-6.9,-5.4,-1017.6,-1732.5,-0.6,-182.1,-2050.8,-3571.8,0,1278,0,150,0, 
0.7133,-368.1,770.7,-102.6,1238.7,637.8,-1004.4,93.9,272.7,-2148.9,-300.9,-228.0,-888.0,-3166.2,150.6,123.3,318.0,-6.9,-6.0,-268.2,-973.5,-0.6,-182.1,-2060.1,-3579.0,0,1284,0,151,0, 
0.7167,-328.8,754.8,-105.9,1241.1,967.5,-1009.5,82.2,261.9,-1704.3,-306.3,-234.6,35.4,-3174.3,451.8,555.3,318.0,-7.2,-5.7,1078.8,1297.5,-0.9,-196.8,-2065.5,-3584.1,0,1290,0,152,0, 
0.7200,-364.2,762.9,-97.5,1233.9,873.6,-1008.0,93.9,266.7,-2074.8,-297.9,-227.1,286.2,-3173.7,292.5,500.1,311.7,-7.2,-6.0,1185.6,1959.0,-0.6,-184.2,-2060.1,-3569.1,0,1296,0,153,0, 
0.7233,-423.0,761.4,-101.4,1221.6,466.2,-1012.8,94.2,269.7,-2667.6,-298.8,-227.4,-605.1,-3184.5,-180.3,7.5,304.8,-6.9,-5.4,-143.1,17.7,-0.9,-189.0,-2055.9,-3570.0,0,1302,0,154,0, 
0.7267,-438.0,774.6,-96.9,1227.9,326.7,-1010.1,101.4,270.3,-2889.9,-292.2,-223.8,-1329.6,-3168.9,-325.8,-273.9,298.2,-7.2,-5.7,-1072.8,-2001.6,-1.2,-178.5,-2057.1,-3563.1,0,1308,0,155,0, 
0.7300,-375.9,762.3,-105.9,1229.4,561.3,-1014.3,91.2,265.5,-2297.1,-303.3,-234.0,-843.9,-3166.8,115.5,66.6,312.9,-6.9,-5.4,-196.8,-1179.3,-1.2,-195.3,-2070.3,-3579.0,0,1314,0,156,0, 
0.7333,-296.4,766.2,-106.2,1234.5,832.2,-1012.8,90.0,266.4,-1630.2,-300.6,-234.9,106.2,-3153.0,392.7,473.1,329.1,-6.9,-6.0,1021.5,1176.0,-0.6,-189.3,-2068.2,-3570.9,0,1320,0,157,0, 
0.7367,-324.3,759.3,-106.2,1237.5,779.4,-1003.5,92.7,274.2,-1926.6,-311.4,-239.4,285.6,-3158.4,285.3,507.6,304.5,-6.9,-5.7,1167.0,2007.6,-0.6,-187.2,-2069.7,-3570.6,0,1326,0,158,0, 
0.7400,-411.6,763.2,-94.2,1237.8,438.6,-1002.9,96.0,274.2,-2741.7,-291.6,-223.5,-666.0,-3158.4,-156.3,48.6,305.7,-7.2,-6.3,-74.1,5.7,-0.9,-176.4,-2061.0,-3565.2,0,1332,0,159,0, 
0.7433,-424.8,762.0,-93.6,1237.8,335.4,-1005.3,96.3,274.8,-2741.7,-286.8,-213.6,-1417.2,-3154.2,-272.4,-249.0,299.1,-6.9,-6.0,-936.9,-1862.7,-0.9,-171.9,-2059.5,-3562.5,0,1338,0,160,0, 
0.7467,-386.1,759.9,-98.7,1230.3,558.3,-1002.3,94.2,277.5,-2297.1,-292.5,-227.7,-951.0,-3152.4,66.9,0.9,321.6,-6.9,-6.0,-192.6,-1044.6,-0.6,-174.6,-2055.6,-3570.6,0,1344,0,161,0, 
0.7500,-333.9,758.7,-100.2,1236.6,939.6,-1005.9,87.9,273.6,-1704.3,-293.1,-233.1,67.2,-3163.2,348.3,435.9,332.7,-7.2,-6.0,1083.3,1256.4,-0.9,-174.3,-2058.9,-3574.5,0,1350,0,162,0, 
0.7533,-360.6,755.4,-96.3,1232.7,828.9,-1006.5,90.0,271.5,-2074.8,-279.6,-225.6,320.4,-3166.8,261.6,460.8,319.8,-7.2,-5.7,1164.0,2019.3,-0.9,-178.2,-2055.0,-3571.8,0,1356,0,163,0, 
0.7567,-437.4,753.0,-95.4,1230.3,536.1,-1016.1,87.0,274.2,-2519.4,-286.5,-228.3,-540.3,-3178.8,-56.4,-10.8,297.9,-6.9,-6.3,-114.3,66.6,-0.9,-183.0,-2058.0,-3576.6,0,1362,0,164,0, 
0.7600,-459.9,760.8,-88.8,1233.6,491.1,-1005.3,90.6,276.0,-2889.9,-288.0,-222.6,-1177.8,-3164.1,-121.8,-220.5,304.8,-6.6,-5.7,-927.0,-1731.3,-0.6,-178.5,-2058.3,-3571.5,0,1368,0,165,0, 
0.7633,-396.3,765.0,-92.4,1233.0,714.3,-1011.3,85.8,277.5,-2148.9,-291.0,-227.1,-805.5,-3159.3,92.7,44.7,311.4,-7.2,-5.4,-295.8,-1035.3,-0.6,-178.2,-2057.4,-3579.0,0,1374,0,166,0, 
0.7667,-329.4,768.9,-94.8,1230.3,1078.2,-1010.4,81.6,279.9,-1778.4,-302.1,-230.7,144.3,-3155.1,467.4,600.3,324.6,-6.9,-5.7,1065.9,1358.4,-0.9,-190.2,-2066.7,-3584.4,0,1380,0,167,0, 
0.7700,-348.3,767.1,-84.9,1236.9,957.0,-1010.7,84.3,283.5,-1926.6,-302.4,-225.6,351.0,-3163.2,394.2,621.9,308.4,-6.9,-6.0,1177.5,2111.4,-0.9,-192.9,-2063.4,-3575.1,0,1386,0,168,0, 
0.7733,-407.4,765.9,-83.4,1232.7,678.0,-1008.9,94.5,283.5,-2667.6,-295.5,-225.0,-433.5,-3169.8,3.6,210.9,295.2,-7.5,-6.3,-47.1,342.0,-0.9,-192.9,-2062.5,-3567.3,0,1392,0,169,0, 
0.7767,-459.9,760.5,-91.8,1221.3,507.9,-1027.2,81.6,275.7,-2815.8,-297.0,-231.0,-1264.5,-3171.3,-168.3,-147.3,294.3,-6.9,-6.0,-1005.0,-1688.1,-0.9,-187.8,-2072.4,-3569.1,0,1398,0,170,0, 
0.7800,-385.2,772.8,-90.6,1232.4,779.1,-1018.2,82.8,279.6,-2223.0,-299.4,-234.3,-881.1,-3154.5,111.3,132.3,313.5,-7.2,-6.0,-212.4,-810.0,-0.6,-187.8,-2073.3,-3569.4,0,1404,0,171,0, 
0.7833,-341.7,754.5,-101.7,1218.0,1037.4,-1017.3,75.3,268.8,-1630.2,-306.3,-243.9,86.7,-3168.6,325.2,539.4,312.0,-6.9,-5.7,957.0,1281.3,-0.9,-201.3,-2077.5,-3578.4,0,1410,0,172,0, 
0.7867,-371.1,756.0,-99.9,1223.4,1032.6,-1012.5,77.1,270.9,-1926.6,-309.6,-244.2,246.9,-3159.9,274.8,564.0,299.4,-6.6,-5.7,1110.3,1936.5,-0.6,-202.2,-2077.2,-3577.2,0,1416,0,173,0, 
0.7900,-429.9,751.2,-93.9,1226.7,697.5,-1015.5,85.8,269.4,-2741.7,-305.7,-235.2,-573.3,-3149.7,-109.8,128.1,300.3,-6.9,-6.0,-71.7,18.9,-0.3,-189.3,-2075.4,-3579.3,0,1422,0,174,0, 
0.7933,-440.1,767.1,-87.6,1232.1,440.1,-1009.5,91.5,276.3,-2889.9,-297.0,-229.2,-1385.1,-3151.2,-255.3,-143.4,312.3,-6.9,-6.0,-886.2,-1817.1,-0.3,-186.3,-2068.8,-3573.3,0,1428,0,175,0, 
0.7967,-385.2,769.2,-96.0,1227.9,713.4,-1018.2,83.7,267.0,-2223.0,-305.7,-236.1,-917.1,-3153.3,45.0,131.7,312.6,-6.9,-5.7,-95.1,-1016.1,-0.9,-196.8,-2077.2,-3584.1,0,1434,0,176,0, 
0.8000,-316.5,770.7,-100.8,1233.0,1007.1,-1018.8,82.5,265.5,-1704.3,-306.6,-242.7,51.9,-3156.3,326.7,566.4,320.4,-6.9,-5.4,1163.4,1295.7,-0.9,-201.6,-2075.4,-3579.6,0,1440,0,177,0, 
0.8033,-334.8,765.9,-97.5,1227.3,918.0,-1010.4,82.8,267.3,-1926.6,-302.1,-240.0,230.1,-3157.8,192.6,566.7,316.5,-6.9,-5.7,1233.6,1996.2,-0.9,-191.4,-2064.9,-3578.4,0,1446,0,178,0, 
0.8067,-385.5,774.0,-90.3,1234.5,612.0,-1017.9,88.2,270.6,-2741.7,-294.6,-231.9,-514.5,-3160.5,-163.2,132.0,308.7,-6.9,-5.7,-26.1,68.4,0.0,-193.2,-2061.6,-3574.8,0,1452,0,179,0, 
0.8100,-441.3,768.3,-101.7,1220.7,437.4,-1026.0,80.1,265.5,-2815.8,-299.7,-243.9,-1270.8,-3167.1,-335.4,-209.1,310.8,-6.9,-6.0,-850.2,-1809.6,-0.9,-198.6,-2073.3,-3580.8,0,1458,0,180,0, 
0.8133,-383.4,769.5,-103.8,1225.2,733.5,-1023.6,84.0,270.9,-2371.2,-298.2,-240.3,-828.6,-3161.7,-11.7,97.5,333.9,-6.9,-6.0,-117.0,-1118.1,-0.9,-193.5,-2068.5,-3576.0,0,1464,0,181,0, 
0.8167,-335.1,764.7,-103.2,1228.2,1002.0,-1015.5,81.0,270.9,-1630.2,-300.9,-242.7,113.4,-3150.0,314.1,524.7,336.6,-6.6,-5.7,1173.9,1285.8,-0.6,-193.5,-2066.7,-3584.7,0,1470,0,182,0, 
0.8200,-357.0,760.5,-99.0,1230.6,997.8,-1015.2,78.9,271.5,-2000.7,-295.5,-241.2,349.2,-3144.0,264.9,563.1,336.6,-7.2,-5.7,1272.3,2058.0,-0.6,-183.9,-2066.7,-3575.4,0,1476,0,183,0, 
0.8233,-422.1,762.3,-96.6,1224.3,663.0,-1016.1,81.0,270.6,-2741.7,-300.6,-240.0,-574.2,-3155.1,-140.1,85.2,310.8,-7.2,-5.7,-48.9,106.5,-0.9,-192.0,-2070.3,-3580.8,0,1482,0,184,0, 
0.8267,-442.5,767.7,-95.4,1223.4,537.3,-1010.4,85.8,270.0,-2741.7,-294.0,-238.8,-1313.7,-3148.2,-222.0,-151.5,310.2,-7.2,-6.0,-918.3,-1781.1,-0.6,-192.3,-2065.2,-3582.0,0,1488,0,185,0, 
0.8300,-402.6,765.3,-102.6,1230.9,759.0,-1012.5,87.9,268.8,-2223.0,-303.3,-250.5,-849.3,-3152.7,105.3,69.0,307.2,-7.2,-6.0,-219.6,-1083.9,-0.9,-205.8,-2066.4,-3590.7,0,1494,0,186,0, 
0.8333,-360.0,760.8,-101.7,1232.4,1027.8,-1021.2,81.0,272.1,-1778.4,-297.3,-244.5,21.6,-3138.0,327.0,524.7,322.2,-6.9,-6.0,985.8,1264.5,-0.6,-196.8,-2083.2,-3588.9,0,1500,0,187,0, 
0.8367,-374.1,763.2,-100.8,1230.0,1020.6,-1019.7,83.1,273.6,-1926.6,-300.3,-246.3,228.0,-3132.0,235.2,534.0,303.9,-7.5,-5.7,1166.7,2042.4,-0.6,-200.7,-2070.0,-3588.6,0,1506,0,188,0, 
0.8400,-443.1,755.1,-96.3,1224.3,633.0,-1007.4,84.3,278.1,-2519.4,-294.9,-241.8,-639.0,-3148.8,-169.8,216.9,299.1,-7.2,-6.3,25.8,163.8,-0.9,-192.3,-2062.5,-3579.3,0,1512,0,189,0, 
0.8433,-478.5,758.4,-101.4,1212.9,460.5,-1005.3,83.1,271.8,-2815.8,-296.4,-244.8,-1490.7,-3157.8,-286.8,-129.6,299.7,-6.9,-6.0,-918.0,-1832.1,-0.6,-193.8,-2060.1,-3580.2,0,1518,0,190,0, 
0.8467,-416.1,761.1,-102.3,1229.4,705.6,-1005.3,82.5,271.5,-2223.0,-295.8,-241.5,-1062.6,-3146.7,-17.1,137.4,320.1,-6.6,-5.7,-154.2,-1139.4,-0.3,-196.2,-2065.2,-3567.9,0,1524,0,191,0, 
0.8500,-325.5,765.0,-100.8,1233.6,988.8,-1003.8,88.8,281.4,-1704.3,-296.7,-241.8,-87.6,-3125.1,282.3,558.3,329.4,-7.2,-5.7,1070.1,1252.2,-0.6,-190.2,-2052.0,-3574.2,0,1530,0,192,0, 
0.8533,-366.0,765.6,-98.4,1234.8,942.3,-1005.6,87.9,278.1,-2000.7,-294.9,-239.7,131.4,-3135.3,197.1,607.5,318.0,-6.9,-5.7,1161.0,2036.7,-0.9,-182.4,-2052.3,-3562.2,0,1536,0,193,0, 
0.8567,-423.0,760.2,-94.5,1219.8,643.2,-1005.3,87.0,275.4,-2667.6,-296.1,-240.0,-667.5,-3152.7,-173.1,105.0,305.7,-7.2,-5.7,-58.8,195.3,-0.6,-185.7,-2058.3,-3567.6,0,1542,0,194,0, 
0.8600,-468.6,762.3,-93.9,1229.1,421.8,-1001.7,86.1,278.7,-2815.8,-296.1,-236.1,-1353.3,-3138.3,-330.9,-191.4,308.1,-7.2,-6.0,-874.8,-1766.4,-0.9,-179.7,-2053.2,-3555.6,0,1548,0,195,0, 
0.8633,-387.9,768.0,-99.6,1230.3,755.4,-997.5,81.6,279.6,-2297.1,-295.5,-236.4,-945.0,-3137.7,-14.4,76.5,315.6,-7.2,-6.0,-110.4,-1008.6,-0.3,-191.7,-2054.1,-3559.8,0,1554,0,196,0, 
0.8667,-337.5,761.1,-105.9,1226.7,981.0,-1010.7,73.2,273.6,-1704.3,-302.4,-245.1,-54.9,-3137.7,267.0,527.7,324.3,-7.2,-6.0,1173.0,1155.9,-0.6,-191.4,-2067.9,-3566.1,0,1560,0,197,0, 
0.8700,-374.7,757.8,-98.7,1224.6,880.2,-1007.4,81.0,273.3,-2074.8,-295.5,-238.5,152.1,-3136.8,172.5,516.9,322.5,-6.9,-5.7,1270.8,1944.9,-0.3,-190.2,-2057.1,-3562.2,0,1566,0,198,0, 
0.8733,-439.8,759.9,-94.8,1226.7,514.2,-1005.9,84.3,277.8,-2667.6,-289.5,-232.5,-731.7,-3136.2,-217.5,51.6,305.1,-6.6,-6.0,-88.5,43.2,-0.9,-177.6,-2052.0,-3554.4,0,1572,0,199,0, 
0.8767,-462.6,772.2,-94.5,1219.5,386.1,-1007.7,83.7,278.7,-2889.9,-288.0,-229.2,-1485.9,-3134.4,-368.7,-265.5,300.3,-6.6,-5.4,-934.8,-1909.8,-0.9,-177.0,-2050.5,-3553.2,0,1578,0,200,0, 
0.8800,-413.7,764.1,-104.4,1225.5,729.3,-1010.4,80.4,278.7,-2223.0,-294.0,-237.6,-918.3,-3128.1,133.2,126.6,337.2,-6.6,-5.7,-141.9,-978.3,-1.2,-177.0,-2049.6,-3555.3,0,1584,0,201,0, 
0.8833,-350.1,764.4,-102.9,1229.1,910.2,-1010.7,79.5,276.0,-1704.3,-290.1,-233.4,-123.9,-3127.5,337.2,405.9,317.1,-6.9,-6.0,966.3,1037.1,-0.6,-177.6,-2061.0,-3557.1,0,1590,0,202,0, 
0.8867,-285.3,759.9,-106.5,1232.1,1413.6,-1005.3,82.2,273.6,-2000.7,-292.8,-240.9,875.4,-3113.1,925.2,1000.2,343.5,-6.6,-6.0,1795.8,2819.7,-0.6,-187.5,-2054.7,-3557.1,0,1596,0,203,0, 
0.8900,-378.3,758.7,-102.6,1222.2,1110.0,-1000.5,83.7,276.9,-2667.6,-283.2,-236.7,222.9,-3125.7,538.2,621.0,306.9,-6.9,-6.0,694.5,1204.5,-0.3,-180.9,-2057.7,-3554.7,0,1602,0,204,0, 
0.8933,-418.2,762.3,-99.3,1216.2,817.8,-1007.7,80.1,277.5,-2889.9,-285.6,-240.0,-676.5,-3133.5,222.3,151.5,313.2,-6.9,-6.3,-433.8,-1064.1,-0.9,-183.6,-2050.5,-3558.0,0,1608,0,205,0, 
0.8967,-396.9,759.3,-103.5,1219.5,968.7,-1018.8,76.5,274.5,-2223.0,-289.2,-239.1,-345.0,-3132.3,356.4,318.3,317.7,-6.9,-6.3,184.8,-589.5,-0.9,-182.4,-2054.1,-3557.4,0,1614,0,206,0, 
0.9000,-346.5,763.5,-107.4,1225.8,1348.2,-1008.9,79.5,271.8,-1630.2,-286.8,-243.0,531.9,-3124.8,594.3,855.3,339.0,-7.2,-5.4,1473.0,1753.5,-0.6,-183.3,-2052.6,-3558.6,0,1620,0,207,0, 
0.9033,-362.7,760.2,-106.8,1213.8,1232.4,-1013.7,77.7,270.3,-2074.8,-292.5,-244.8,637.8,-3141.9,426.3,762.0,312.0,-6.9,-5.7,1439.4,2273.4,-0.9,-180.9,-2054.7,-3561.0,0,1626,0,208,0, 
0.9067,-441.9,764.7,-103.8,1205.1,861.3,-1019.4,80.4,271.2,-2667.6,-289.2,-241.8,-351.6,-3145.8,11.7,276.0,295.5,-6.9,-5.4,150.0,264.0,-0.6,-181.8,-2055.0,-3556.2,0,1632,0,209,0, 
0.9100,-476.4,762.3,-109.2,1203.6,661.2,-1024.2,82.8,271.5,-2741.7,-293.1,-241.5,-1067.7,-3143.4,-159.3,-51.9,298.8,-6.6,-6.3,-743.4,-1740.3,-0.9,-183.6,-2056.5,-3559.5,0,1638,0,210,0, 
0.9133,-408.3,763.5,-106.5,1205.7,872.7,-1017.9,75.9,275.4,-2148.9,-289.5,-243.3,-698.1,-3138.6,135.0,170.4,321.6,-6.9,-5.4,-24.9,-1011.3,-0.9,-178.8,-2048.7,-3552.6,0,1644,0,211,0, 
0.9167,-354.6,759.0,-109.8,1207.8,1067.4,-1011.3,78.9,273.3,-1704.3,-295.8,-243.6,238.8,-3136.8,408.6,596.1,324.0,-6.9,-6.0,1181.7,1304.4,-0.9,-185.1,-2053.2,-3556.8,0,1650,0,212,0, 
0.9200,-367.2,752.4,-111.3,1200.6,1048.8,-1024.2,66.9,264.9,-2000.7,-286.2,-247.5,429.9,-3154.2,309.9,497.1,318.9,-7.2,-6.3,1267.2,2018.1,-1.2,-181.2,-2071.8,-3564.0,0,1656,0,213,0, 
0.9233,-443.4,757.2,-104.4,1212.9,733.2,-1014.9,72.6,274.2,-2667.6,-286.5,-238.5,-501.3,-3148.5,-63.6,96.6,315.6,-6.9,-6.0,66.9,243.6,-0.3,-178.8,-2061.0,-3554.1,0,1662,0,214,0, 
0.9267,-464.1,764.7,-104.1,1209.0,567.9,-1014.3,76.5,273.3,-2815.8,-285.3,-237.0,-1254.6,-3141.3,-191.4,-183.6,301.8,-6.9,-5.7,-851.4,-1749.3,-0.6,-180.9,-2063.1,-3550.5,0,1668,0,215,0, 
0.9300,-396.3,758.7,-108.6,1212.6,791.1,-1007.7,74.1,271.5,-2148.9,-292.5,-241.5,-846.6,-3138.3,102.3,49.2,318.6,-6.9,-6.0,-55.5,-1026.0,-0.6,-188.7,-2069.4,-3557.1,0,1674,0,216,0, 
0.9333,-345.6,756.3,-115.8,1208.7,1040.7,-1015.2,71.1,263.7,-1704.3,-297.3,-249.9,94.5,-3144.3,405.3,471.0,329.1,-6.9,-6.0,1186.5,1374.6,-0.6,-186.0,-2074.5,-3557.7,0,1680,0,217,0, 
0.9367,-373.2,758.4,-111.9,1217.1,980.1,-1014.9,75.9,269.1,-2074.8,-292.2,-245.4,330.6,-3144.0,268.5,440.1,320.7,-7.5,-6.3,1317.0,2183.7,-0.3,-179.7,-2073.0,-3554.7,0,1686,0,218,0, 
0.9400,-431.7,756.0,-108.0,1208.7,534.6,-1009.8,78.6,268.8,-2593.5,-290.1,-244.8,-485.4,-3151.2,-204.3,-33.6,319.2,-7.2,-5.7,54.0,272.4,-0.3,-177.9,-2065.5,-3549.9,0,1692,0,219,0, 
0.9433,-464.7,757.8,-106.2,1220.7,442.2,-1001.1,79.2,273.9,-2964.0,-295.5,-239.1,-1212.9,-3152.1,-315.9,-315.3,321.6,-7.2,-5.7,-802.5,-1659.0,-0.9,-183.9,-2061.0,-3548.7,0,1698,0,220,0, 
0.9467,-400.2,762.0,-108.0,1229.1,690.9,-1002.9,76.8,273.9,-2148.9,-288.6,-242.1,-675.3,-3144.0,16.5,-36.9,334.2,-6.9,-5.7,-78.0,-908.7,-0.9,-180.6,-2064.3,-3549.6,0,1704,0,221,0, 
0.9500,-351.6,765.3,-109.8,1225.5,1008.0,-1007.7,69.6,264.9,-1704.3,-295.5,-241.8,263.7,-3140.4,331.2,414.6,333.6,-6.9,-6.0,1197.0,1353.6,-0.9,-188.1,-2071.2,-3555.6,0,1710,0,222,0, 
0.9533,-367.5,771.0,-104.7,1230.3,982.5,-1003.5,75.6,273.3,-2074.8,-293.1,-235.2,471.3,-3150.6,258.6,504.3,316.2,-6.9,-6.0,1287.9,2180.7,-0.9,-180.9,-2073.9,-3542.4,0,1716,0,223,0, 
0.9567,-460.2,749.1,-112.5,1214.4,626.1,-1019.1,69.3,260.7,-2667.6,-291.9,-245.1,-338.4,-3164.4,-122.1,55.5,290.1,-7.2,-6.0,-11.7,303.9,-0.6,-186.6,-2071.2,-3558.0,0,1722,0,224,0, 
0.9600,-488.4,746.4,-111.0,1221.3,485.1,-1012.5,72.9,268.2,-2815.8,-288.9,-243.3,-1102.2,-3161.7,-315.6,-286.8,294.0,-7.5,-6.3,-939.0,-1694.7,-0.3,-182.1,-2067.9,-3545.7,0,1728,0,225,0, 
0.9633,-414.3,753.6,-114.0,1230.6,758.1,-1008.6,77.7,267.0,-2074.8,-290.4,-243.3,-691.8,-3162.9,-30.6,-28.2,314.1,-6.9,-5.7,-221.1,-956.1,-1.2,-179.1,-2058.9,-3547.8,0,1734,0,226,0, 
0.9667,-348.0,747.6,-117.3,1215.3,1060.5,-1014.3,67.2,262.5,-1704.3,-297.6,-252.0,208.2,-3164.7,259.2,366.6,310.5,-6.9,-6.0,1067.1,1326.6,-0.3,-188.7,-2070.0,-3556.5,0,1740,0,227,0, 
0.9700,-337.8,752.1,-108.9,1225.8,1064.4,-1017.0,74.1,266.1,-2074.8,-284.7,-245.4,410.1,-3147.9,239.7,424.2,327.3,-6.9,-6.0,1082.1,2104.5,-0.9,-176.4,-2064.3,-3555.0,0,1746,0,228,0, 
0.9733,-424.5,748.5,-105.9,1219.5,638.7,-1016.4,73.2,269.1,-2519.4,-290.1,-245.4,-555.6,-3159.3,-278.1,-68.7,294.0,-6.9,-5.7,-213.6,51.3,-0.6,-188.4,-2062.2,-3551.1,0,1752,0,229,0, 
0.9767,-452.7,750.3,-109.5,1219.8,498.9,-1016.1,74.4,267.6,-2741.7,-287.1,-249.9,-1221.0,-3165.0,-348.0,-360.0,306.3,-6.3,-6.3,-1074.9,-1876.8,-0.6,-184.8,-2063.1,-3544.5,0,1758,0,230,0, 
0.9800,-383.4,750.6,-115.2,1218.3,731.1,-1017.9,73.5,260.7,-2148.9,-295.5,-249.6,-736.5,-3154.8,-84.6,-129.9,309.3,-6.9,-6.0,-350.1,-1064.1,-0.9,-189.6,-2067.3,-3551.4,0,1764,0,231,0, 
0.9833,-329.4,759.3,-116.1,1218.0,1064.7,-1018.8,71.4,260.7,-1630.2,-300.3,-254.1,252.6,-3149.1,252.9,394.8,301.5,-7.2,-5.7,922.8,1446.3,-0.6,-195.3,-2067.3,-3549.6,0,1770,0,232,0, 
0.9867,-325.2,765.0,-102.3,1221.3,952.2,-1017.9,81.6,270.3,-2000.7,-295.5,-242.7,473.1,-3142.8,159.3,408.0,294.6,-7.2,-6.0,1005.6,2133.3,-0.6,-184.2,-2064.0,-3539.4,0,1776,0,233,0, 
0.9900,-410.7,754.8,-101.4,1215.3,602.1,-1022.4,77.7,269.7,-2593.5,-300.6,-243.9,-421.8,-3160.8,-157.5,84.0,288.6,-7.2,-6.0,-279.9,336.9,-0.3,-187.5,-2060.1,-3537.9,0,1782,0,234,0, 
0.9933,-470.4,750.0,-104.7,1204.5,372.9,-1020.0,76.5,263.7,-2889.9,-299.7,-246.6,-1115.1,-3155.4,-284.1,-280.2,302.7,-6.9,-5.7,-1112.7,-1647.3,-0.6,-186.3,-2073.9,-3544.5,0,1788,0,235,0, 
0.9967,-394.8,758.4,-107.1,1212.0,636.0,-1014.0,74.1,267.9,-2074.8,-305.4,-247.5,-520.5,-3146.4,57.0,50.4,312.6,-6.6,-5.7,-222.6,-849.3,-0.6,-192.6,-2075.1,-3545.1,0,1794,0,236,0, 
1.0000,-353.4,750.0,-113.7,1219.5,915.9,-1017.3,69.3,261.6,-1852.5,-304.5,-255.3,341.4,-3153.6,223.5,421.5,309.6,-6.9,-5.7,1016.1,1404.3,-1.2,-195.0,-2079.0,-3548.7,0,1800,0,237,0, 
1.0033,-356.4,750.3,-111.9,1213.5,828.0,-1024.5,70.2,259.5,-1926.6,-301.5,-255.3,458.7,-3144.0,65.7,471.3,301.5,-6.9,-6.0,1071.3,2109.6,-0.6,-194.4,-2070.6,-3559.5,0,1806,0,238,0, 
1.0067,-411.3,750.0,-113.1,1204.5,488.4,-1023.6,69.0,259.5,-2667.6,-299.7,-253.5,-434.4,-3162.9,-257.7,23.4,281.4,-7.5,-6.3,-205.8,217.2,-0.9,-198.3,-2075.4,-3557.4,0,1812,0,239,0, 
1.0100,-450.6,758.7,-107.1,1209.3,447.6,-1023.3,72.3,264.9,-2815.8,-295.8,-245.7,-1169.4,-3149.7,-285.3,-225.0,299.4,-7.2,-5.7,-964.8,-1723.2,-0.9,-196.5,-2070.6,-3543.9,0,1818,0,240,0, 
1.0133,-419.1,763.5,-115.2,1211.1,706.5,-1020.6,70.2,259.8,-2148.9,-299.7,-255.3,-730.2,-3144.6,10.8,-15.6,302.7,-6.9,-5.7,-181.8,-1094.1,-0.6,-192.6,-2078.1,-3547.5,0,1824,0,241,0, 
1.0167,-337.2,760.5,-111.9,1209.9,960.0,-1019.7,71.7,258.0,-1704.3,-298.8,-249.9,255.6,-3130.2,301.8,448.8,308.1,-7.2,-6.0,1114.2,1272.6,-0.6,-193.5,-2073.3,-3555.6,0,1830,0,242,0, 
1.0200,-354.6,749.1,-116.1,1206.9,947.1,-1020.0,72.6,256.5,-2000.7,-301.8,-254.7,423.0,-3152.7,181.8,519.0,300.9,-7.2,-6.0,1135.8,2093.4,-0.9,-191.7,-2076.0,-3555.0,0,1836,0,243,0, 
1.0233,-434.1,748.8,-107.1,1208.1,579.9,-1023.3,75.6,259.2,-2593.5,-291.3,-250.2,-453.9,-3158.1,-196.2,45.3,287.1,-7.2,-6.0,-178.2,103.8,-0.9,-190.2,-2070.3,-3547.2,0,1842,0,244,0, 
1.0267,-440.7,753.3,-102.9,1211.4,402.0,-1017.3,81.6,263.1,-2815.8,-288.9,-246.6,-1249.8,-3163.2,-341.4,-279.6,297.3,-6.9,-5.7,-1020.3,-1932.6,-0.6,-180.0,-2064.3,-3536.1,0,1848,0,245,0, 
1.0300,-381.3,755.4,-107.7,1230.0,653.4,-1015.8,71.4,258.3,-2148.9,-292.8,-248.4,-713.4,-3155.7,-84.0,33.6,312.6,-7.2,-6.0,-246.6,-1066.5,-0.6,-185.1,-2076.9,-3547.8,0,1854,0,246,0, 
1.0333,-339.9,755.4,-108.6,1224.0,1056.6,-1012.2,78.3,258.3,-1630.2,-293.7,-250.8,284.7,-3159.9,258.3,459.3,316.2,-6.6,-5.7,1128.0,1260.3,-0.9,-181.8,-2070.9,-3540.0,0,1860,0,247,0, 
1.0367,-358.2,747.6,-109.8,1218.0,911.1,-1014.9,72.0,252.6,-2000.7,-296.7,-250.8,391.2,-3156.6,188.1,489.9,306.3,-7.2,-6.0,1168.5,1948.8,-0.9,-193.2,-2074.2,-3542.7,0,1866,0,248,0, 
1.0400,-427.2,751.5,-109.8,1210.5,571.8,-1015.8,70.2,247.8,-2741.7,-301.5,-250.8,-591.0,-3160.2,-181.5,-29.7,285.6,-6.6,-5.7,-123.0,-144.3,-0.9,-195.0,-2078.1,-3543.9,0,1872,0,249,0, 
1.0433,-463.8,751.2,-110.4,1222.5,415.2,-1018.5,66.9,247.2,-2815.8,-296.1,-252.9,-1310.1,-3161.1,-263.7,-298.2,284.7,-6.9,-6.0,-964.5,-2009.4,-0.9,-206.4,-2075.1,-3552.0,0,1878,0,250,0, 
1.0467,-394.8,746.7,-112.2,1221.0,777.0,-1024.8,63.6,245.1,-2297.1,-300.9,-255.0,-698.7,-3151.2,67.2,8.4,305.4,-7.2,-6.3,-131.4,-1237.5,-1.2,-208.8,-2078.1,-3557.1,0,1884,0,251,0, 
1.0500,-339.3,747.6,-111.6,1228.2,1035.6,-1019.7,66.9,241.2,-1704.3,-306.9,-254.4,184.8,-3155.4,385.5,461.4,310.5,-6.9,-6.0,1164.3,1151.7,-0.6,-201.9,-2069.7,-3551.7,0,1890,0,252,0, 
1.0533,-353.4,750.0,-109.5,1217.7,967.5,-1028.1,69.3,240.6,-2000.7,-298.8,-254.4,271.8,-3155.1,220.5,523.5,297.9,-6.9,-6.0,1197.3,1970.1,-0.6,-204.3,-2072.7,-3552.6,0,1896,0,253,0, 
1.0567,-422.1,741.0,-107.7,1217.4,599.1,-1020.6,67.8,237.0,-2741.7,-293.7,-251.1,-526.8,-3157.8,-117.3,64.8,275.4,-6.6,-6.0,-47.1,-23.1,-0.6,-201.0,-2073.0,-3544.2,0,1902,0,254,0, 
1.0600,-447.9,741.9,-108.3,1208.4,475.8,-1027.2,72.3,237.0,-2964.0,-290.4,-254.4,-1268.7,-3157.5,-313.8,-189.9,293.4,-7.8,-6.0,-922.8,-2023.5,-0.6,-205.5,-2070.6,-3544.2,0,1908,0,255,0, 
1.0633,-405.6,743.7,-112.5,1212.3,750.9,-1022.1,69.3,234.0,-2297.1,-299.4,-252.6,-851.4,-3147.0,22.2,95.4,304.8,-6.9,-6.0,-183.9,-1265.7,-1.2,-198.3,-2064.9,-3546.6,0,1914,0,0,0, 
1.0667,-330.0,750.0,-111.0,1218.9,1018.2,-1023.9,66.3,232.2,-1704.3,-297.3,-252.3,111.0,-3137.1,256.5,482.1,319.2,-7.2,-6.0,1053.6,1038.9,-0.9,-193.2,-2070.9,-3548.1,0,1920,0,1,0, 
1.0700,-367.8,748.5,-109.2,1216.8,956.4,-1023.6,68.1,228.3,-2000.7,-297.6,-254.1,375.3,-3147.9,165.9,539.1,297.3,-6.9,-6.3,1190.7,1882.2,-0.9,-193.2,-2067.9,-3545.1,0,1926,0,2,0, 
1.0733,-418.2,752.4,-103.8,1210.8,681.0,-1009.2,70.2,228.6,-2667.6,-290.4,-245.4,-516.6,-3147.9,-197.1,144.6,287.7,-6.9,-6.3,1.5,-10.8,-0.9,-182.1,-2066.4,-3534.0,0,1932,0,3,0, 
1.0767,-458.1,753.3,-99.9,1221.9,572.4,-1012.8,69.9,226.5,-2889.9,-294.3,-244.8,-1257.9,-3162.0,-340.2,-84.9,291.6,-7.2,-5.4,-854.4,-1966.5,-0.6,-187.2,-2062.8,-3534.0,0,1938,0,4,0, 
1.0800,-380.7,754.8,-108.0,1223.4,829.2,-1015.2,66.9,221.4,-2223.0,-292.5,-251.4,-813.3,-3154.2,-20.7,145.8,314.1,-6.9,-5.7,-91.5,-1125.9,-0.6,-190.8,-2070.0,-3538.5,0,1944,0,5,0, 
1.0833,-333.9,747.9,-110.7,1228.5,1109.7,-1017.6,68.1,217.5,-1704.3,-298.8,-250.2,181.8,-3165.3,283.8,519.9,305.7,-6.9,-6.0,1221.6,1223.4,-0.6,-196.8,-2061.3,-3546.3,0,1950,0,6,0, 
1.0867,-366.6,740.1,-111.3,1217.4,1010.7,-1022.4,66.9,211.2,-2000.7,-300.9,-250.8,298.2,-3160.2,218.1,460.8,279.3,-6.9,-5.7,1200.6,1916.1,-0.3,-196.2,-2067.3,-3542.1,0,1956,0,7,0, 
1.0900,-441.0,742.8,-102.0,1218.0,653.7,-1020.9,67.8,215.1,-2815.8,-290.4,-244.5,-462.3,-3164.4,-160.2,-3.3,285.0,-6.6,-6.0,-84.0,62.4,-0.9,-189.6,-2070.9,-3536.7,0,1962,0,8,0, 
1.0933,-469.2,750.3,-102.3,1221.6,446.1,-1014.6,71.7,215.1,-2815.8,-297.9,-244.8,-1262.4,-3165.9,-319.2,-340.5,281.1,-6.9,-5.7,-951.3,-1892.7,-0.3,-192.0,-2064.6,-3530.4,0,1968,0,9,0, 
1.0967,-389.1,752.1,-105.9,1221.6,765.9,-1011.9,68.4,216.3,-2297.1,-299.7,-247.5,-666.0,-3152.4,69.0,-53.7,302.4,-7.2,-6.0,-182.4,-1021.5,-0.6,-192.6,-2063.1,-3542.7,0,1974,0,10,0, 
1.1000,-332.1,743.7,-111.0,1218.3,1093.5,-1016.1,62.4,203.7,-1704.3,-300.9,-255.6,332.4,-3163.8,382.8,323.1,308.1,-6.9,-5.4,1149.0,1421.7,-0.3,-194.4,-2068.5,-3546.9,0,1980,0,11,0, 
1.1033,-357.0,744.0,-104.4,1228.2,1033.8,-1012.8,65.4,200.4,-2148.9,-291.9,-242.7,414.3,-3152.4,208.8,358.2,312.0,-6.6,-6.0,1189.8,2256.0,-0.6,-179.1,-2060.4,-3539.7,0,1986,0,12,0, 
1.1067,-430.2,750.6,-100.5,1222.2,706.5,-1009.8,69.9,197.7,-2593.5,-285.9,-238.5,-462.6,-3162.9,-96.6,-203.7,287.4,-7.5,-5.7,-104.1,253.5,-0.9,-187.8,-2058.3,-3533.4,0,1992,0,13,0, 
1.1100,-454.2,746.7,-105.6,1222.8,527.4,-1025.1,67.8,191.1,-2741.7,-293.7,-245.1,-1263.9,-3153.3,-315.6,-429.3,303.0,-6.6,-6.0,-1001.7,-1714.8,-0.6,-189.9,-2060.1,-3547.2,0,1998,0,14,0, 
1.1133,-396.3,750.3,-108.0,1231.2,806.4,-1020.6,66.3,188.4,-2223.0,-295.5,-245.1,-804.3,-3148.5,-2.1,-102.9,297.6,-7.2,-5.7,-189.9,-911.1,-0.9,-192.3,-2065.5,-3552.3,0,2004,0,15,0, 
1.1167,-330.6,750.9,-109.2,1228.5,1070.1,-1022.4,68.7,185.4,-1778.4,-300.0,-249.0,91.8,-3153.0,270.9,369.3,319.8,-6.9,-6.0,1086.3,1293.9,-0.6,-194.4,-2072.7,-3548.7,0,2010,0,16,0, 
1.1200,-342.0,756.3,-102.6,1240.2,985.2,-1019.7,75.0,188.1,-2074.8,-293.1,-238.8,358.2,-3155.4,106.2,366.6,308.7,-7.2,-5.7,1080.9,2002.5,-0.6,-190.2,-2063.1,-3539.7,0,2016,0,17,0, 
1.1233,-418.8,756.0,-98.7,1235.7,631.8,-1014.9,83.1,190.2,-2667.6,-289.2,-236.4,-594.6,-3159.6,-174.6,-99.0,290.1,-6.9,-6.0,-182.1,52.2,-0.9,-182.1,-2056.5,-3533.1,0,2022,0,18,0, 
1.1267,-429.0,760.2,-97.8,1239.6,450.6,-1017.0,84.0,187.8,-2815.8,-284.7,-232.5,-1298.1,-3150.0,-300.3,-413.7,287.4,-6.6,-5.7,-1047.3,-1921.8,-0.9,-184.2,-2061.3,-3538.5,0,2028,0,19,0, 
1.1300,-387.0,756.3,-100.5,1242.3,725.4,-1016.4,80.4,182.4,-2223.0,-291.3,-238.5,-829.5,-3143.1,-32.7,-95.1,302.4,-7.2,-6.0,-247.2,-1089.0,-0.9,-193.5,-2064.3,-3542.7,0,2034,0,20,0, 
1.1333,-332.4,759.6,-106.5,1236.0,1050.3,-1028.7,73.5,178.5,-1778.4,-294.3,-244.8,234.9,-3133.8,250.8,432.3,312.0,-6.9,-5.4,1098.0,1335.6,-0.6,-196.2,-2070.6,-3551.4,0,2040,0,21,0, 
1.1367,-374.4,759.9,-103.5,1227.9,1025.7,-1026.3,78.9,178.5,-2074.8,-299.4,-245.4,452.7,-3145.8,182.7,430.2,303.3,-7.2,-6.0,1121.7,2050.2,-0.9,-191.1,-2072.4,-3547.5,0,2046,0,22,0, 
1.1400,-449.1,754.2,-99.0,1230.0,694.8,-1017.3,81.6,181.8,-2741.7,-294.0,-243.6,-363.0,-3159.6,-255.0,10.5,287.7,-6.9,-6.0,-97.5,126.3,-0.9,-189.3,-2061.9,-3542.1,0,2052,0,23,0, 
1.1433,-479.7,749.7,-103.8,1219.5,584.1,-1023.9,75.9,173.7,-2964.0,-288.9,-244.5,-1173.6,-3158.1,-351.0,-333.3,287.1,-6.9,-6.0,-977.1,-1783.5,-0.9,-182.1,-2067.6,-3540.0,0,2058,0,24,0, 
1.1467,-409.5,757.5,-103.5,1232.4,779.4,-1015.5,80.1,177.9,-2297.1,-279.3,-236.4,-667.2,-3137.4,-84.6,-75.3,301.2,-6.9,-5.7,-242.7,-1033.5,-0.9,-175.2,-2064.0,-3542.1,0,2064,0,25,0, 
1.1500,-336.3,760.2,-99.6,1247.1,1113.6,-1008.9,84.0,178.8,-1704.3,-273.6,-237.6,427.8,-3121.2,252.9,461.1,330.6,-6.3,-6.0,1079.7,1473.9,-0.9,-171.6,-2058.0,-3536.1,0,2070,0,26,0, 
1.1533,-357.6,760.5,-100.2,1238.7,940.2,-1022.1,80.7,175.5,-2000.7,-276.6,-242.1,459.0,-3131.7,90.9,362.7,300.3,-7.5,-5.7,1165.8,2027.7,-0.6,-179.7,-2060.7,-3546.3,0,2076,0,27,0, 
1.1567,-431.4,760.2,-97.8,1246.5,653.1,-1017.9,84.9,171.3,-2815.8,-267.0,-239.4,-371.1,-3137.1,-241.5,-44.4,290.1,-6.9,-5.7,-50.1,208.8,-0.3,-160.8,-2061.3,-3533.7,0,2082,0,28,0, 
1.1600,-498.3,750.6,-102.9,1221.9,138.6,-1019.4,82.2,168.0,-2889.9,-274.5,-247.8,-1576.2,-3152.7,-753.0,-686.7,264.9,-7.2,-6.0,-1489.2,-2366.4,-0.6,-174.6,-2059.8,-3537.3,0,2088,0,29,0, 
1.1633,-402.6,753.3,-106.8,1225.5,381.3,-1016.4,81.0,171.3,-2223.0,-278.4,-251.4,-1133.1,-3129.0,-383.4,-293.1,297.6,-6.6,-6.3,-704.7,-1654.5,-0.6,-174.3,-2056.2,-3531.6,0,2094,0,30,0, 
1.1667,-357.0,749.7,-110.4,1230.3,717.3,-1021.2,81.0,166.2,-1778.4,-281.7,-254.1,-41.4,-3135.0,-71.4,201.6,308.7,-7.2,-5.1,605.4,752.7,-0.9,-181.2,-2055.0,-3529.5,0,2100,0,31,0, 
1.1700,-356.1,755.4,-107.7,1219.5,772.8,-1008.6,89.1,168.6,-2000.7,-275.4,-252.6,141.6,-3137.1,-25.5,279.6,309.3,-6.9,-5.7,799.5,1583.4,-0.6,-175.8,-2051.1,-3521.4,0,2106,0,32,0, 
1.1733,-456.3,751.2,-108.9,1199.1,391.2,-1022.4,81.0,160.2,-2741.7,-277.8,-253.8,-690.9,-3146.1,-401.4,-246.9,284.1,-7.2,-6.0,-457.2,-316.2,-0.9,-174.3,-2058.6,-3524.1,0,2112,0,33,0, 
1.1767,-470.1,749.1,-111.6,1208.4,293.1,-1022.4,81.9,158.1,-2889.9,-278.4,-256.2,-1417.5,-3148.5,-570.3,-553.5,305.4,-6.9,-6.3,-1346.1,-2195.4,-0.3,-177.9,-2045.7,-3526.8,0,2118,0,34,0, 
1.1800,-408.3,755.1,-107.4,1215.3,585.0,-1019.4,82.2,159.9,-2223.0,-280.5,-253.2,-1014.6,-3139.5,-186.3,-237.3,325.5,-7.2,-5.7,-561.3,-1338.6,-0.9,-175.5,-2042.1,-3520.5,0,2124,0,35,0, 
1.1833,-346.2,764.7,-101.7,1230.3,962.4,-1017.0,87.9,163.8,-1630.2,-276.0,-249.6,-0.3,-3121.8,196.2,275.4,331.5,-6.9,-6.3,866.1,1092.0,-0.6,-169.2,-2040.3,-3524.1,0,2130,0,36,0, 
1.1867,-363.3,764.1,-100.2,1227.6,864.0,-1011.9,85.2,158.4,-2074.8,-275.1,-246.9,175.5,-3127.2,96.0,264.9,315.9,-6.9,-5.7,944.4,1882.5,-1.2,-166.2,-2041.5,-3533.7,0,2136,0,37,0, 
1.1900,-437.1,760.5,-99.9,1218.6,580.8,-1018.5,87.3,157.2,-2815.8,-270.3,-245.4,-582.0,-3144.0,-192.6,-102.6,303.6,-6.9,-6.0,-295.2,175.5,-0.6,-166.8,-2040.9,-3528.3,0,2142,0,38,0, 
1.1933,-474.9,759.9,-105.6,1216.2,379.5,-1018.5,86.4,159.0,-2889.9,-273.3,-246.0,-1378.5,-3139.8,-307.5,-368.4,299.7,-6.9,-6.0,-1113.0,-1793.7,-0.6,-167.7,-2037.9,-3527.4,0,2148,0,39,0, 
1.1967,-396.9,770.4,-103.8,1230.6,699.3,-1017.6,83.7,153.9,-2223.0,-279.9,-251.4,-826.8,-3123.0,20.1,-96.9,322.5,-6.6,-6.0,-298.2,-1077.0,-0.9,-168.6,-2038.5,-3523.5,0,2154,0,40,0, 
1.2000,-355.5,760.8,-108.3,1231.2,1049.1,-1012.2,86.7,147.0,-1778.4,-283.2,-256.2,102.3,-3138.6,296.7,370.8,316.5,-6.9,-6.0,1075.5,1299.0,-0.9,-183.0,-2033.7,-3528.6,0,2160,0,41,0, 
1.2033,-372.9,752.7,-112.8,1224.6,962.1,-1023.9,80.7,144.6,-1852.5,-287.1,-263.1,164.1,-3129.9,194.4,325.5,319.5,-7.2,-5.7,1006.2,2026.8,-0.6,-176.7,-2048.7,-3538.8,0,2166,0,42,0, 
1.2067,-461.4,747.6,-111.0,1222.2,655.2,-1017.3,78.6,147.9,-2667.6,-287.4,-260.1,-654.6,-3142.8,-91.2,-60.0,285.9,-7.2,-5.4,-191.1,233.4,-0.6,-186.3,-2044.5,-3534.9,0,2172,0,43,0, 
1.2100,-493.2,748.8,-109.8,1223.1,529.8,-1011.9,77.1,144.6,-2667.6,-283.2,-257.7,-1442.1,-3143.7,-313.2,-331.5,288.6,-6.9,-6.0,-1162.2,-1821.6,-0.6,-188.1,-2038.5,-3528.9,0,2178,0,44,0, 
1.2133,-455.4,756.3,-114.9,1220.4,835.2,-1012.2,78.3,141.6,-2074.8,-287.1,-263.7,-1077.6,-3141.6,-10.5,-44.1,293.7,-6.6,-5.7,-442.8,-943.5,-0.9,-188.1,-2045.7,-3540.0,0,2184,0,45,0, 
1.2167,-379.5,748.5,-120.0,1220.7,1154.4,-1018.2,72.9,138.6,-1852.5,-295.8,-267.6,-68.4,-3149.1,299.1,409.2,309.6,-7.2,-6.0,829.5,1367.1,-0.6,-192.6,-2046.3,-3541.5,0,2190,0,46,0, 
1.2200,-389.1,743.7,-116.4,1220.4,1012.8,-1023.9,72.0,131.7,-1926.6,-287.1,-270.0,141.0,-3155.4,154.8,366.6,293.1,-7.2,-6.0,893.4,2017.8,-0.9,-192.9,-2053.2,-3549.3,0,2196,0,47,0, 
1.2233,-462.9,745.8,-109.8,1217.4,699.0,-1019.7,77.4,144.9,-2741.7,-285.9,-261.0,-874.5,-3152.1,-189.0,-40.8,289.8,-6.9,-5.7,-359.1,265.2,-0.9,-183.6,-2049.3,-3538.8,0,2202,0,48,0, 
1.2267,-476.1,751.5,-111.0,1219.8,582.6,-1024.2,83.1,142.2,-2889.9,-288.0,-264.9,-1483.5,-3148.5,-256.5,-280.8,288.6,-6.6,-5.7,-1159.5,-1660.2,-1.2,-188.4,-2045.4,-3542.4,0,2208,0,49,0, 
1.2300,-419.4,754.2,-113.1,1236.3,847.8,-1023.6,80.1,135.3,-2074.8,-292.2,-266.1,-919.8,-3150.0,0.0,19.8,311.7,-7.2,-6.0,-387.0,-823.2,-0.3,-194.1,-2049.0,-3540.0,0,2214,0,50,0, 
1.2333,-353.1,756.3,-114.3,1233.9,1160.7,-1023.3,79.8,138.0,-1704.3,-293.4,-262.2,30.6,-3138.6,284.7,395.7,309.0,-7.2,-6.0,945.9,1410.3,-0.6,-194.4,-2051.4,-3544.8,0,2220,0,51,0, 
1.2367,-361.2,753.0,-107.1,1230.9,1054.5,-1017.9,86.4,144.0,-1926.6,-287.7,-259.2,217.5,-3141.6,192.6,347.7,311.7,-6.6,-6.0,889.2,2204.7,-0.6,-185.1,-2042.1,-3536.4,0,2226,0,52,0, 
1.2400,-412.8,758.4,-100.2,1235.1,725.7,-1008.3,95.4,151.8,-2667.6,-281.4,-253.2,-676.2,-3145.2,-203.7,-111.6,294.9,-6.9,-5.4,-363.0,288.6,-0.6,-183.0,-2032.2,-3533.1,0,2232,0,53,0, 
1.2433,-450.9,752.4,-108.0,1230.9,552.9,-1017.3,92.4,145.8,-2889.9,-295.8,-263.1,-1497.6,-3151.2,-340.2,-367.2,310.8,-7.8,-6.0,-1230.9,-1686.3,-0.6,-187.2,-2037.0,-3532.5,0,2238,0,54,0, 
1.2467,-399.3,765.0,-104.7,1233.3,742.8,-1009.8,94.2,149.4,-2148.9,-293.1,-264.6,-1006.5,-3138.9,-13.2,-129.9,323.1,-6.9,-5.7,-427.5,-925.5,-0.6,-192.3,-2035.5,-3531.6,0,2244,0,55,0, 
1.2500,-323.1,759.9,-108.6,1236.6,1007.1,-1015.8,87.3,150.6,-1778.4,-297.9,-267.6,50.7,-3149.7,307.8,297.6,333.6,-7.2,-5.7,899.1,1580.1,-0.6,-193.2,-2034.0,-3537.3,0,2250,0,56,0, 
1.2533,-351.3,755.4,-99.9,1237.5,954.9,-1018.2,93.0,149.7,-2000.7,-294.6,-256.2,223.2,-3139.8,193.8,234.6,309.3,-6.9,-6.0,1031.1,2322.3,-0.3,-189.0,-2035.8,-3530.4,0,2256,0,57,0, 
1.2567,-430.2,765.6,-93.0,1233.6,517.8,-1015.5,90.6,156.0,-2741.7,-282.0,-251.1,-702.3,-3143.4,-244.5,-262.2,307.8,-7.2,-6.3,-223.5,357.6,-1.2,-186.3,-2038.8,-3524.1,0,2262,0,58,0, 
1.2600,-443.7,760.8,-93.0,1235.1,386.4,-1012.5,91.2,154.5,-2964.0,-286.8,-250.8,-1260.3,-3139.2,-307.5,-569.4,288.9,-7.2,-6.0,-1063.2,-1665.0,-0.9,-189.6,-2040.0,-3528.0,0,2268,0,59,0, 
1.2633,-383.1,757.8,-105.9,1232.4,632.4,-1010.1,87.9,152.1,-2297.1,-290.4,-264.3,-827.7,-3143.1,-2.4,-287.4,309.9,-6.9,-5.7,-234.3,-839.7,-0.9,-196.5,-2034.0,-3529.8,0,2274,0,60,0, 
1.2667,-310.5,766.2,-95.7,1244.1,950.4,-1004.1,94.8,162.0,-1778.4,-284.7,-255.0,117.9,-3119.1,331.8,143.1,327.0,-6.9,-6.6,1082.7,1531.5,-0.3,-187.5,-2025.3,-3518.7,0,2280,0,61,0, 
1.2700,-342.3,757.5,-100.5,1232.7,872.1,-1009.2,90.3,160.5,-2000.7,-291.6,-258.9,224.1,-3120.3,187.8,218.4,311.1,-7.2,-6.0,1151.7,2238.0,-0.9,-190.5,-2021.7,-3521.7,0,2286,0,62,0, 
1.2733,-441.3,743.1,-105.3,1224.6,481.5,-1020.9,82.2,154.2,-2741.7,-298.2,-266.7,-604.8,-3145.2,-267.0,-218.1,294.0,-6.9,-5.7,-155.1,205.2,-0.3,-196.8,-2034.9,-3523.2,0,2292,0,63,0, 
1.2767,-443.7,748.5,-100.5,1224.0,347.7,-1016.7,87.0,166.5,-2815.8,-292.8,-260.7,-1377.9,-3140.1,-343.2,-464.4,280.2,-7.5,-6.0,-950.4,-1761.9,-0.9,-187.5,-2034.3,-3522.9,0,2298,0,64,0, 
1.2800,-385.2,751.8,-109.2,1221.3,638.4,-1014.3,91.2,172.8,-2148.9,-300.9,-269.4,-861.3,-3132.0,-45.3,-163.5,313.8,-7.2,-5.7,-245.7,-928.8,-0.9,-197.1,-2036.7,-3524.1,0,2304,0,65,0, 
1.2833,-350.4,745.8,-107.1,1220.4,936.6,-1020.6,89.1,178.8,-1704.3,-301.8,-270.0,167.4,-3126.9,336.0,324.3,327.3,-6.9,-6.0,1026.9,1399.5,-1.2,-199.8,-2033.4,-3529.8,0,2310,0,66,0, 
1.2867,-356.4,746.7,-103.5,1221.6,768.6,-1018.5,87.9,190.2,-2000.7,-299.7,-264.3,175.2,-3129.6,48.6,177.3,300.3,-6.9,-6.0,963.3,2155.8,-0.9,-199.5,-2037.9,-3527.7,0,2316,0,67,0, 
1.2900,-444.9,749.1,-99.0,1217.1,538.5,-1017.0,90.3,194.7,-2815.8,-290.4,-264.0,-585.3,-3128.4,-298.2,-238.8,295.2,-7.5,-5.7,-188.1,256.2,-0.9,-194.7,-2031.6,-3526.2,0,2322,0,68,0, 
1.2933,-467.7,755.7,-95.7,1224.3,365.1,-1016.1,93.9,200.1,-2741.7,-292.8,-258.9,-1401.0,-3136.2,-344.7,-480.9,306.9,-6.6,-6.0,-1105.8,-1815.3,-0.9,-189.3,-2029.5,-3523.5,0,2328,0,69,0, 
1.2967,-425.4,755.1,-107.4,1220.7,625.2,-1023.0,88.5,194.4,-2223.0,-295.2,-271.2,-831.3,-3122.4,-124.8,-233.4,311.7,-7.2,-5.7,-291.3,-1022.7,-0.6,-201.3,-2034.0,-3530.7,0,2334,0,70,0, 
1.3000,-339.6,753.9,-115.2,1216.5,917.1,-1023.3,91.2,197.7,-1778.4,-303.9,-283.5,226.2,-3121.8,191.4,247.8,322.8,-6.6,-5.7,971.7,1424.7,-0.6,-209.1,-2043.0,-3537.3,0,2340,0,71,0, 
1.3033,-379.2,753.6,-106.5,1206.6,825.9,-1020.3,93.6,204.0,-2000.7,-289.2,-276.9,330.6,-3119.4,23.7,205.2,323.7,-6.9,-5.4,1002.3,2081.1,-0.3,-203.7,-2035.5,-3531.0,0,2346,0,72,0, 
1.3067,-439.5,757.2,-98.7,1212.3,456.9,-1016.1,96.0,208.5,-2519.4,-276.6,-256.5,-597.0,-3111.0,-301.5,-252.3,313.8,-7.2,-6.0,-298.8,152.4,-0.3,-193.8,-2040.9,-3530.4,0,2352,0,73,0, 
1.3100,-471.0,762.3,-97.2,1213.8,364.8,-1017.3,97.5,209.4,-2815.8,-269.1,-248.4,-1358.4,-3113.7,-308.4,-460.2,306.0,-7.5,-6.3,-1094.1,-1854.0,-0.6,-183.3,-2042.1,-3521.4,0,2358,0,74,0, 
1.3133,-379.2,768.3,-99.3,1220.1,653.4,-1008.3,91.5,210.9,-2148.9,-277.5,-248.1,-804.9,-3105.3,-10.2,-94.2,331.8,-6.9,-6.0,-285.6,-1092.3,-0.3,-184.8,-2042.4,-3523.5,0,2364,0,75,0, 
1.3167,-318.9,762.6,-98.7,1218.3,916.2,-1009.8,89.7,208.8,-1778.4,-280.8,-249.0,120.0,-3098.7,381.9,371.7,330.0,-6.6,-5.4,1005.9,1134.6,-0.9,-186.6,-2042.1,-3526.2,0,2370,0,76,0, 
1.3200,-351.6,763.2,-98.1,1211.7,929.1,-1010.1,90.0,218.4,-2074.8,-282.6,-254.1,351.6,-3109.2,243.9,369.3,321.9,-7.2,-6.0,1098.0,1860.3,-0.9,-195.3,-2043.9,-3530.1,0,2376,0,77,0, 
1.3233,-441.9,754.8,-100.5,1204.8,506.4,-1017.9,84.3,221.4,-2519.4,-285.3,-257.4,-715.2,-3127.8,-234.3,-58.5,307.8,-6.6,-5.7,-233.1,-218.1,-0.9,-189.0,-2044.5,-3523.8,0,2382,0,78,0, 
1.3267,-455.4,759.0,-98.4,1212.6,404.7,-1019.4,87.3,229.2,-2815.8,-277.8,-249.6,-1409.7,-3127.5,-336.9,-338.4,309.3,-7.2,-5.7,-1124.4,-2158.5,-0.6,-189.6,-2038.8,-3522.3,0,2388,0,79,0, 
1.3300,-395.7,765.9,-99.9,1210.5,604.2,-1013.1,90.3,232.8,-2223.0,-283.5,-255.0,-1021.5,-3122.1,-66.0,-74.4,323.1,-6.6,-5.4,-342.9,-1388.7,-0.9,-189.3,-2032.2,-3527.4,0,2394,0,80,0, 
1.3333,-313.5,761.4,-100.2,1217.7,925.2,-1020.9,90.9,230.7,-1704.3,-284.7,-256.2,47.7,-3121.2,298.5,469.8,317.7,-6.6,-6.0,945.6,1149.9,-0.6,-187.8,-2035.2,-3540.3,0,2400,0,81,0, 
1.3367,-329.7,760.5,-94.8,1215.6,849.3,-1011.9,88.8,237.9,-1926.6,-286.2,-250.8,246.3,-3121.8,237.3,439.8,312.0,-7.2,-5.7,1065.0,1997.4,-0.9,-183.6,-2041.8,-3525.9,0,2406,0,82,0, 
1.3400,-433.8,758.7,-92.7,1207.2,519.9,-1006.2,90.9,244.2,-2815.8,-275.4,-249.0,-675.3,-3126.3,-216.0,-105.6,296.4,-6.9,-6.0,-261.3,-10.8,-0.9,-187.2,-2036.1,-3528.6,0,2412,0,83,0, 
1.3433,-450.9,762.3,-90.0,1225.2,374.1,-1007.4,92.7,249.9,-2815.8,-269.7,-246.0,-1414.5,-3120.0,-383.7,-378.3,293.4,-6.9,-5.7,-1107.3,-2002.5,-0.9,-179.7,-2046.3,-3528.9,0,2418,0,84,0, 
1.3467,-392.7,768.9,-92.4,1216.2,663.9,-1013.7,94.2,253.8,-2074.8,-276.6,-246.6,-849.3,-3122.7,-4.2,-17.4,325.8,-7.2,-6.0,-268.8,-1060.5,-0.3,-182.4,-2040.9,-3533.1,0,2424,0,85,0, 
1.3500,-325.5,768.0,-93.6,1225.8,856.8,-1011.3,92.7,256.5,-1704.3,-280.5,-246.9,138.0,-3117.3,199.5,373.5,320.7,-6.9,-5.4,953.1,1184.7,-1.2,-189.6,-2044.5,-3530.4,0,2430,0,86,0, 
1.3533,-354.3,770.1,-93.9,1222.5,784.5,-1014.3,98.4,257.7,-2000.7,-276.0,-245.1,197.1,-3114.3,100.2,371.4,311.4,-6.6,-6.0,1032.9,1988.7,-0.9,-185.4,-2042.1,-3525.0,0,2436,0,87,0, 
1.3567,-438.3,763.2,-92.7,1225.2,409.8,-1018.2,99.9,257.4,-2741.7,-273.9,-243.6,-767.4,-3127.2,-320.4,-83.4,302.4,-7.2,-6.0,-319.2,1.8,-0.3,-176.4,-2040.3,-3517.5,0,2442,0,88,0, 
1.3600,-453.9,775.2,-87.9,1227.9,357.0,-1015.2,99.0,260.1,-2741.7,-273.3,-237.9,-1411.5,-3108.9,-300.9,-341.1,300.3,-7.2,-6.0,-1107.6,-1870.8,-0.9,-173.7,-2037.6,-3519.0,0,2448,0,89,0, 
1.3633,-393.3,770.7,-92.1,1231.5,580.5,-1006.5,101.1,267.6,-2297.1,-273.0,-244.5,-934.8,-3109.2,-100.8,-167.1,327.3,-7.5,-5.7,-369.9,-1217.4,-0.6,-181.5,-2034.3,-3520.2,0,2454,0,90,0, 
1.3667,-340.2,774.6,-95.1,1228.8,849.0,-1006.2,99.9,266.4,-1704.3,-275.4,-245.7,-5.4,-3103.8,270.0,282.6,342.6,-6.9,-5.4,923.1,1253.7,-0.9,-181.5,-2034.0,-3525.6,0,2460,0,91,0, 
1.3700,-366.9,772.5,-91.2,1229.4,709.5,-1006.8,100.5,263.1,-2074.8,-273.0,-245.4,187.5,-3106.8,183.6,314.7,327.9,-7.2,-6.0,1056.6,1984.8,-0.6,-182.4,-2032.2,-3523.2,0,2466,0,92,0, 
1.3733,-441.9,770.1,-96.9,1215.6,413.7,-1020.3,95.1,258.3,-2741.7,-278.7,-250.5,-585.3,-3114.3,-156.3,-145.8,305.1,-6.6,-6.0,-67.2,55.8,-0.9,-190.2,-2039.1,-3535.2,0,2472,0,93,0, 
1.3767,-468.0,765.3,-97.2,1214.4,293.1,-1020.6,95.7,264.3,-2964.0,-275.1,-251.1,-1346.7,-3117.9,-356.7,-459.6,310.2,-7.2,-5.7,-1025.7,-1922.4,-0.6,-186.3,-2034.3,-3533.7,0,2478,0,94,0, 
1.3800,-398.7,772.2,-96.9,1224.9,588.9,-1017.0,94.2,266.1,-2297.1,-274.2,-248.1,-862.2,-3100.2,-33.9,-108.3,329.1,-6.9,-6.0,-124.8,-988.8,-0.6,-184.5,-2032.8,-3529.5,0,2484,0,95,0, 
1.3833,-364.8,768.3,-103.2,1218.3,873.0,-1021.8,91.2,267.0,-1630.2,-278.1,-257.1,-38.4,-3112.5,237.9,351.0,315.0,-7.5,-5.7,1018.2,1342.8,-0.6,-181.8,-2035.5,-3531.3,0,2490,0,96,0, 
1.3867,-379.2,771.9,-105.3,1219.8,825.0,-1015.8,92.4,271.5,-2074.8,-279.3,-255.6,240.6,-3112.5,126.9,383.1,315.6,-6.6,-5.7,1156.2,2140.2,-0.9,-183.3,-2039.7,-3523.8,0,2496,0,97,0, 
1.3900,-447.3,767.7,-103.2,1212.3,465.3,-1021.8,92.7,272.7,-2667.6,-268.8,-251.4,-656.7,-3126.6,-257.7,-54.0,294.0,-6.6,-5.4,-225.6,21.3,-0.6,-172.8,-2039.1,-3523.8,0,2502,0,98,0, 
1.3933,-446.1,766.8,-99.9,1224.9,332.1,-1010.7,95.1,277.8,-2889.9,-271.5,-252.9,-1223.1,-3133.2,-335.7,-313.5,309.0,-6.9,-6.3,-1063.8,-1910.1,-0.9,-173.7,-2033.4,-3512.1,0,2508,0,99,0, 
1.3967,-393.9,762.6,-106.5,1220.7,578.1,-1010.4,90.9,273.3,-2297.1,-275.7,-257.7,-826.8,-3110.1,-26.1,15.3,321.9,-7.2,-5.7,-250.2,-1076.4,-0.9,-182.4,-2040.9,-3514.5,0,2514,0,100,0, 
1.4000,-327.3,759.6,-109.5,1224.0,822.0,-1008.9,88.5,270.0,-1852.5,-276.9,-258.0,121.8,-3106.5,249.9,336.9,337.8,-6.9,-6.0,1039.8,1281.6,-1.2,-183.0,-2038.5,-3509.4,0,2520,0,101,0, 
1.4033,-360.3,760.8,-104.1,1215.9,799.8,-1005.0,90.0,272.7,-2000.7,-269.7,-255.3,272.1,-3115.2,171.6,367.8,331.2,-7.5,-5.7,1139.4,2016.3,-0.3,-179.7,-2036.4,-3510.9,0,2526,0,102,0, 
1.4067,-436.5,759.6,-102.3,1213.5,410.1,-1010.4,94.2,274.2,-2667.6,-268.2,-252.0,-672.0,-3113.4,-285.6,-97.8,315.6,-7.2,-6.0,-161.1,82.8,-0.6,-180.6,-2037.0,-3511.5,0,2532,0,103,0, 
1.4100,-460.8,761.4,-99.9,1217.4,244.2,-1013.7,89.4,274.2,-2815.8,-270.0,-249.9,-1405.5,-3106.5,-400.2,-372.3,309.3,-6.6,-6.0,-1005.9,-1806.3,-0.6,-181.2,-2042.7,-3509.7,0,2538,0,104,0, 
1.4133,-405.9,767.4,-100.5,1226.1,540.9,-1008.6,88.5,280.2,-2297.1,-268.5,-249.6,-868.2,-3093.9,-33.3,7.5,314.7,-7.2,-6.3,-211.2,-961.5,-0.9,-177.9,-2035.5,-3507.0,0,2544,0,105,0, 
1.4167,-343.5,771.9,-98.7,1230.0,837.0,-1004.1,90.3,279.9,-1704.3,-269.1,-246.9,139.5,-3090.9,260.7,427.2,327.6,-7.2,-5.4,1137.9,1344.6,-0.9,-180.6,-2042.4,-3510.0,0,2550,0,106,0, 
1.4200,-355.8,763.8,-98.7,1238.1,828.9,-1005.9,88.8,279.6,-1926.6,-273.9,-247.5,384.0,-3096.9,195.0,462.3,318.0,-6.9,-5.7,1205.4,2118.0,-0.9,-165.6,-2043.9,-3508.2,0,2556,0,107,0, 
1.4233,-437.4,756.0,-93.9,1224.0,495.0,-1001.1,90.6,282.0,-2815.8,-271.2,-241.8,-515.4,-3117.3,-220.8,-69.3,289.2,-6.9,-5.7,-86.7,94.8,-0.6,-181.8,-2045.1,-3504.6,0,2562,0,108,0, 
1.4267,-455.4,760.8,-87.6,1227.0,355.5,-1005.9,91.8,286.2,-2815.8,-266.4,-243.9,-1186.5,-3110.4,-321.0,-391.8,310.2,-6.9,-6.0,-942.0,-1810.5,-0.6,-169.5,-2040.6,-3496.8,0,2568,0,109,0, 
1.4300,-410.1,765.3,-92.1,1227.3,633.9,-997.5,85.2,285.9,-2223.0,-274.5,-246.9,-776.7,-3106.5,15.0,-68.7,319.8,-6.9,-5.7,-78.3,-894.9,-0.6,-173.7,-2050.2,-3495.3,0,2574,0,110,0, 
1.4333,-328.2,766.5,-88.8,1237.8,969.6,-1004.4,89.7,283.8,-1778.4,-271.8,-243.3,229.2,-3101.4,287.4,386.7,324.9,-7.2,-5.4,1297.2,1443.3,-0.9,-176.1,-2053.2,-3501.9,0,2580,0,111,0, 
1.4367,-352.8,767.7,-87.0,1228.8,969.0,-1006.2,88.8,285.3,-1926.6,-270.3,-246.0,330.6,-3101.7,204.3,432.0,302.4,-6.9,-6.0,1260.6,2078.1,-0.6,-173.1,-2053.2,-3500.1,0,2586,0,112,0, 
1.4400,-433.2,760.5,-87.0,1230.0,555.3,-1010.4,88.5,285.3,-2741.7,-270.6,-237.0,-630.9,-3110.1,-202.8,-83.4,290.7,-6.9,-5.7,-78.6,51.0,-0.9,-169.8,-2065.5,-3510.3,0,2592,0,113,0, 
1.4433,-454.2,760.2,-84.9,1226.7,453.3,-1005.9,85.8,290.7,-2889.9,-261.3,-235.2,-1343.7,-3109.5,-340.5,-397.8,291.6,-6.9,-6.0,-968.7,-1936.2,-0.9,-176.4,-2061.0,-3499.8,0,2598,0,114,0, 
1.4467,-379.8,771.3,-81.6,1239.0,615.3,-991.2,90.6,296.7,-2223.0,-260.4,-230.1,-882.3,-3101.7,-53.4,-74.7,336.6,-6.9,-5.7,-233.7,-1226.1,-0.9,-174.6,-2058.6,-3490.8,0,2604,0,115,0, 
1.4500,-348.0,772.5,-91.2,1230.3,856.8,-995.1,85.8,291.9,-1852.5,-261.9,-238.2,132.3,-3099.9,286.8,378.3,344.1,-6.9,-6.0,1069.2,1200.0,-0.6,-174.0,-2064.0,-3498.9,0,2610,0,116,0, 
1.4533,-373.5,769.5,-92.1,1229.7,883.2,-998.4,85.8,288.6,-1926.6,-266.4,-238.2,357.3,-3110.4,178.2,445.8,330.0,-7.2,-5.7,1159.8,1994.7,-0.9,-171.6,-2069.7,-3498.6,0,2616,0,117,0, 
1.4567,-412.8,759.6,-94.2,1224.6,537.9,-1000.2,89.4,287.4,-2667.6,-267.0,-240.6,-585.3,-3126.3,-238.5,-55.5,313.2,-6.9,-5.7,-33.0,110.1,-0.6,-165.6,-2068.2,-3499.5,0,2622,0,118,0, 
1.4600,-444.3,769.2,-90.9,1219.2,391.5,-995.4,90.3,288.3,-2741.7,-269.4,-237.6,-1211.1,-3113.7,-279.9,-335.4,307.5,-7.2,-5.7,-924.0,-1821.3,-0.9,-171.0,-2075.4,-3496.5,0,2628,0,119,0, 
1.4633,-401.1,762.6,-98.1,1215.9,582.6,-1005.0,87.6,286.5,-2297.1,-272.7,-243.3,-806.7,-3111.6,33.9,-44.1,327.0,-7.2,-6.0,-141.0,-1030.5,-1.2,-170.1,-2074.2,-3506.1,0,2634,0,120,0, 
1.4667,-345.9,768.0,-96.6,1230.3,937.2,-993.3,89.1,286.8,-1630.2,-272.1,-240.6,209.7,-3097.8,385.8,490.5,334.8,-7.5,-6.3,1085.7,1326.6,-0.9,-174.9,-2070.6,-3505.5,0,2640,0,121,0, 
1.4700,-348.9,770.1,-99.3,1218.0,849.6,-999.3,89.4,282.6,-2074.8,-270.0,-243.6,194.7,-3116.7,186.3,453.9,310.5,-6.9,-5.7,1082.4,1946.4,-0.9,-177.6,-2060.7,-3508.5,0,2646,0,122,0, 
1.4733,-427.8,764.1,-93.3,1225.2,596.4,-1003.2,93.6,288.3,-2741.7,-264.9,-237.0,-783.6,-3106.8,-212.1,63.3,301.8,-7.2,-6.6,-117.9,60.6,-0.6,-168.9,-2076.9,-3506.4,0,2652,0,123,0, 
1.4767,-462.0,768.0,-93.9,1225.2,397.5,-1001.1,93.3,286.2,-2815.8,-262.5,-240.6,-1557.0,-3119.7,-341.4,-294.9,304.5,-7.2,-5.7,-906.6,-1892.1,-0.6,-171.6,-2075.7,-3505.8,0,2658,0,124,0, 
1.4800,-399.6,771.3,-98.1,1230.3,704.7,-1000.8,90.9,289.8,-2148.9,-263.1,-243.6,-997.8,-3104.1,11.1,23.7,320.4,-7.5,-5.7,-131.1,-956.4,-0.9,-174.6,-2073.3,-3500.1,0,2664,0,125,0, 
1.4833,-339.3,767.1,-106.2,1220.4,1062.6,-1003.2,83.1,283.5,-1778.4,-277.5,-252.0,-3.3,-3108.0,232.5,418.5,311.1,-6.9,-5.4,1119.3,1394.1,-1.2,-183.9,-2083.2,-3516.9,0,2670,0,126,0, 
1.4867,-379.8,753.0,-109.5,1204.8,957.9,-1011.9,79.2,279.9,-2074.8,-285.3,-264.0,199.5,-3113.4,201.6,490.5,298.2,-7.2,-6.0,1187.7,2157.9,-0.9,-196.5,-2085.9,-3523.2,0,2676,0,127,0, 
1.4900,-442.8,754.8,-111.6,1202.4,625.2,-1010.7,81.9,279.9,-2741.7,-292.8,-284.7,-668.1,-3138.0,-143.1,66.3,282.6,-7.2,-6.0,-113.1,307.8,-0.9,-204.9,-2091.3,-3528.3,0,2682,0,128,0, 
1.4933,-451.5,763.8,-96.9,1216.8,510.9,-1009.5,84.9,291.9,-2889.9,-274.5,-255.0,-1408.2,-3119.7,-251.1,-222.6,273.9,-7.2,-5.7,-1014.3,-1766.4,-1.2,-185.7,-2081.7,-3519.6,0,2688,0,129,0, 
1.4967,-413.7,779.1,-83.7,1239.3,809.4,-996.0,89.7,296.7,-2371.2,-262.8,-216.0,-832.5,-3089.4,106.5,47.1,283.8,-7.2,-6.0,-131.4,-1007.7,-0.6,-171.0,-2082.6,-3508.8,0,2694,0,130,0, 
1.5000,-348.0,776.7,-87.3,1239.3,1095.0,-997.5,93.0,296.4,-1630.2,-266.7,-216.6,194.1,-3093.0,464.1,575.1,300.6,-6.6,-6.0,1132.5,1366.2,-0.6,-168.6,-2081.7,-3507.6,0,2700,0,131,0, 
1.5033,-380.7,767.1,-91.2,1231.5,1008.0,-998.1,83.7,288.3,-2074.8,-271.8,-216.3,289.5,-3100.2,217.5,528.3,284.1,-7.2,-5.4,1131.9,2065.5,-0.3,-183.3,-2086.8,-3512.7,0,2706,0,132,0, 
1.5067,-455.1,768.6,-92.4,1225.8,631.2,-1006.8,86.1,288.0,-2667.6,-275.1,-219.3,-586.8,-3100.2,-125.1,-9.6,263.7,-6.9,-5.7,-132.3,8.1,-0.9,-181.2,-2085.3,-3509.7,0,2712,0,133,0, 
1.5100,-480.3,769.5,-84.9,1234.8,522.6,-994.2,87.3,291.9,-2815.8,-264.3,-198.3,-1248.9,-3082.2,-278.4,-187.2,279.9,-7.2,-6.0,-939.0,-1969.2,-0.9,-179.1,-2087.4,-3497.1,0,2718,0,134,0, 
1.5133,-400.8,771.6,-84.0,1240.2,784.8,-1003.2,88.5,291.6,-2074.8,-271.8,-194.4,-843.0,-3076.2,48.0,124.8,294.6,-7.2,-6.0,-145.2,-1161.6,-0.9,-182.4,-2086.8,-3510.3,0,2724,0,135,0, 
1.5167,-336.6,771.6,-85.2,1233.0,1083.6,-1002.6,84.9,293.1,-1704.3,-274.5,-198.3,225.6,-3098.1,362.4,557.1,304.2,-7.2,-5.7,1151.1,1379.7,-0.6,-185.4,-2087.1,-3511.5,0,2730,0,136,0, 
1.5200,-365.7,772.5,-78.3,1231.2,980.7,-1005.9,85.2,296.4,-1926.6,-262.2,-191.4,363.6,-3089.7,315.3,550.5,296.1,-7.2,-5.7,1280.4,2040.0,-0.9,-182.1,-2087.1,-3502.5,0,2736,0,137,0, 
1.5233,-424.2,772.8,-72.6,1241.7,658.5,-999.0,84.3,300.9,-2667.6,-265.8,-188.4,-556.2,-3096.0,-81.0,26.4,297.0,-7.2,-6.3,-12.6,60.9,-0.6,-178.2,-2092.8,-3503.4,0,2742,0,138,0, 
1.5267,-445.2,773.1,-72.0,1234.2,455.7,-996.0,86.4,296.1,-2667.6,-266.7,-189.3,-1332.3,-3090.9,-302.7,-304.2,275.4,-6.9,-6.0,-932.1,-1969.2,-0.9,-181.5,-2085.3,-3509.1,0,2748,0,139,0, 
1.5300,-361.5,776.7,-76.8,1240.5,754.2,-999.0,90.6,296.7,-2148.9,-273.9,-194.7,-774.6,-3087.6,-42.0,27.6,302.1,-6.9,-6.0,-169.8,-1170.9,-0.9,-180.6,-2082.9,-3501.9,0,2754,0,140,0, 
1.5333,-309.9,780.6,-74.4,1238.7,977.1,-996.9,89.4,299.1,-1630.2,-269.4,-192.3,242.4,-3087.9,340.2,469.5,315.0,-7.2,-6.0,1185.3,1298.1,-0.6,-179.1,-2085.9,-3506.4,0,2760,0,141,0, 
1.5367,-314.1,780.0,-70.5,1241.4,956.7,-993.6,94.5,302.1,-2074.8,-261.6,-190.2,430.8,-3088.8,193.5,510.6,313.5,-7.2,-5.7,1290.9,1928.7,-0.9,-175.5,-2085.6,-3500.1,0,2766,0,142,0, 
1.5400,-417.6,783.0,-67.5,1245.6,537.0,-994.2,96.6,304.5,-2445.3,-266.7,-186.3,-451.5,-3099.6,-126.0,38.4,285.3,-7.5,-6.0,-44.1,66.6,-0.6,-173.4,-2079.3,-3501.9,0,2772,0,143,0, 
1.5433,-460.5,783.6,-70.5,1243.8,426.9,-991.5,98.1,305.1,-2815.8,-264.0,-191.7,-1215.0,-3093.3,-312.3,-245.7,289.8,-7.2,-6.0,-876.0,-1895.1,-0.6,-169.8,-2078.7,-3493.8,0,2778,0,144,0, 
1.5467,-393.9,781.5,-72.9,1244.1,676.8,-994.8,93.6,300.6,-2148.9,-267.0,-195.0,-876.3,-3092.4,3.9,-3.9,306.3,-7.2,-6.0,-137.4,-1089.6,-0.6,-173.7,-2083.2,-3499.5,0,2784,0,145,0, 
1.5500,-318.6,780.0,-75.9,1239.6,1039.5,-988.8,90.6,293.7,-1778.4,-268.2,-199.5,223.8,-3088.8,457.5,505.2,315.6,-6.9,-5.7,1244.7,1426.8,-0.9,-185.4,-2084.4,-3505.5,0,2790,0,146,0, 
1.5533,-351.6,775.5,-76.5,1238.1,951.9,-998.4,88.8,291.9,-2000.7,-272.4,-199.2,242.1,-3091.8,290.4,483.6,309.3,-6.9,-6.3,1145.4,2115.3,-0.6,-184.2,-2090.4,-3511.5,0,2796,0,147,0, 
1.5567,-447.0,777.0,-73.5,1226.7,649.2,-1005.9,89.4,296.4,-2667.6,-266.1,-198.6,-642.6,-3094.5,-104.4,37.5,297.6,-6.9,-6.6,-131.4,176.7,-0.6,-175.8,-2085.6,-3505.8,0,2802,0,148,0, 
1.5600,-464.4,771.0,-77.1,1223.7,500.1,-999.6,91.8,295.2,-2815.8,-270.0,-200.4,-1365.9,-3100.5,-253.5,-295.8,293.4,-6.9,-5.7,-1073.7,-1833.3,-0.3,-180.9,-2083.2,-3504.6,0,2808,0,149,0, 
1.5633,-408.0,775.2,-78.6,1232.4,727.5,-996.6,85.8,295.2,-2148.9,-272.7,-204.9,-772.8,-3088.5,-7.8,-22.8,315.3,-6.9,-6.0,-171.3,-990.0,-0.9,-187.2,-2084.4,-3508.8,0,2814,0,150,0, 
1.5667,-333.9,768.6,-85.5,1227.0,1044.9,-994.2,85.2,283.2,-1630.2,-277.2,-213.9,197.4,-3087.6,287.4,434.7,312.9,-6.9,-6.0,1176.3,1297.2,-0.6,-183.9,-2090.7,-3514.8,0,2820,0,151,0, 
1.5700,-360.0,768.6,-84.3,1221.9,955.2,-1003.2,83.1,285.3,-2000.7,-268.5,-208.8,340.8,-3102.9,94.8,418.5,282.6,-7.2,-6.0,1095.9,1979.1,-0.9,-185.1,-2089.2,-3510.0,0,2826,0,152,0, 
1.5733,-445.5,768.3,-83.1,1210.2,518.1,-1005.6,84.3,285.9,-2667.6,-274.8,-209.4,-675.6,-3101.7,-345.3,-94.2,282.9,-6.9,-6.0,-216.0,2.1,-0.3,-189.3,-2091.9,-3501.9,0,2832,0,153,0, 
1.5767,-469.8,778.5,-79.2,1220.4,336.9,-999.6,91.8,294.0,-2815.8,-268.2,-202.8,-1376.1,-3097.2,-426.3,-397.8,288.3,-6.9,-6.0,-971.7,-1846.8,-0.9,-187.8,-2082.9,-3495.0,0,2838,0,154,0, 
1.5800,-399.0,777.6,-78.6,1231.8,653.7,-993.0,87.6,292.5,-2074.8,-273.6,-206.7,-811.2,-3085.5,-80.1,-48.3,302.4,-7.5,-6.0,-197.7,-867.6,-0.9,-186.6,-2094.6,-3504.9,0,2844,0,155,0, 
1.5833,-332.7,779.7,-87.0,1225.8,983.7,-1002.6,83.7,289.2,-1556.1,-280.5,-211.5,196.5,-3089.7,260.4,418.8,305.1,-7.2,-6.6,1139.4,1490.4,-0.6,-183.9,-2100.3,-3501.6,0,2850,0,156,0, 
1.5867,-360.0,771.6,-89.1,1221.6,914.1,-1003.5,87.3,288.9,-2074.8,-282.6,-216.3,390.6,-3097.2,159.9,401.7,282.3,-7.2,-6.3,1135.5,2188.8,-0.6,-192.0,-2093.4,-3506.4,0,2856,0,157,0, 
1.5900,-438.9,768.3,-88.2,1208.1,483.6,-1005.3,84.9,286.5,-2667.6,-280.5,-219.0,-603.9,-3114.6,-261.6,-74.7,262.2,-6.9,-5.7,-208.5,50.7,-0.6,-195.6,-2092.8,-3506.4,0,2862,0,158,0, 
1.5933,-459.0,761.1,-92.7,1209.6,391.5,-1012.8,81.0,285.9,-2815.8,-281.7,-222.3,-1308.3,-3101.1,-319.5,-265.2,284.4,-6.6,-5.7,-1035.3,-1882.2,-0.3,-194.7,-2099.7,-3506.4,0,2868,0,159,0, 
1.5967,-414.9,759.0,-99.9,1216.2,671.1,-1015.5,81.6,284.7,-2148.9,-293.4,-226.2,-792.9,-3112.8,49.2,82.8,295.2,-7.2,-6.0,-204.9,-1098.6,-0.6,-200.7,-2097.9,-3513.6,0,2874,0,160,0, 
1.6000,-328.2,762.6,-101.7,1216.2,983.4,-1009.2,83.7,284.7,-1778.4,-289.2,-230.1,128.4,-3108.3,274.5,482.4,308.4,-7.5,-5.7,1041.6,1223.4,-0.6,-202.8,-2097.6,-3512.1,0,2880,0,161,0, 
1.6033,-357.9,753.9,-102.3,1214.1,1029.9,-1011.9,80.4,276.6,-1926.6,-292.2,-227.4,323.4,-3107.1,186.9,549.0,280.8,-7.2,-6.0,1135.2,2028.3,-0.3,-199.8,-2097.0,-3517.8,0,2886,0,162,0, 
1.6067,-447.3,753.6,-100.2,1212.0,628.5,-1011.0,78.9,276.9,-2667.6,-290.1,-225.6,-565.2,-3129.3,-208.8,81.6,271.8,-7.2,-6.3,-191.1,-60.3,-0.9,-204.0,-2096.4,-3509.4,0,2892,0,163,0, 
1.6100,-482.7,759.9,-97.8,1218.9,603.9,-1014.9,77.7,281.7,-2815.8,-287.1,-222.3,-1200.0,-3129.0,-272.1,-196.2,286.5,-7.2,-6.0,-1072.8,-1866.6,-0.9,-202.2,-2095.5,-3507.3,0,2898,0,164,0, 
1.6133,-420.0,756.3,-98.7,1209.0,798.3,-1013.1,78.0,285.9,-2223.0,-284.7,-225.3,-700.5,-3119.7,31.8,127.8,303.3,-7.2,-6.0,-266.7,-1117.5,-0.9,-198.0,-2095.5,-3513.3,0,2904,0,165,0, 
1.6167,-359.7,757.5,-100.8,1216.2,1025.4,-1018.5,71.4,285.0,-1778.4,-290.1,-225.6,281.7,-3129.0,269.4,546.9,293.1,-6.9,-5.7,1079.1,1417.5,-0.9,-205.5,-2096.1,-3523.8,0,2910,0,166,0, 
1.6200,-345.3,762.3,-92.4,1224.3,979.8,-1013.1,82.2,292.2,-2000.7,-278.7,-215.1,426.0,-3117.0,151.8,522.0,299.4,-6.6,-5.7,1191.3,2222.4,-0.6,-189.3,-2089.2,-3506.7,0,2916,0,167,0, 
1.6233,-433.8,765.3,-90.0,1227.6,528.3,-1011.9,84.6,287.4,-2667.6,-284.7,-212.7,-508.5,-3123.0,-281.1,10.5,276.9,-7.5,-6.0,-86.4,243.0,-0.9,-190.2,-2088.3,-3499.8,0,2922,0,168,0, 
1.6267,-481.2,768.0,-89.1,1228.2,468.0,-1002.9,85.5,291.3,-2741.7,-276.9,-208.5,-1227.3,-3118.8,-403.5,-260.7,276.6,-6.6,-5.7,-898.2,-1655.1,-0.3,-186.3,-2086.8,-3496.2,0,2928,0,169,0, 
1.6300,-401.7,774.3,-88.5,1231.2,780.6,-1000.5,85.8,294.3,-2074.8,-288.6,-208.8,-720.3,-3124.5,-17.4,64.8,306.0,-7.2,-6.0,-60.6,-830.1,-0.6,-198.9,-2079.0,-3491.4,0,2934,0,170,0, 
1.6333,-365.1,767.7,-98.7,1229.7,1003.2,-1012.2,84.0,288.9,-1704.3,-289.2,-222.0,221.1,-3131.1,243.9,468.9,294.0,-6.6,-6.0,1209.0,1429.5,-0.6,-198.9,-2093.4,-3501.9,0,2940,0,171,0, 
1.6367,-370.2,762.0,-90.6,1228.5,896.4,-1016.1,78.0,287.4,-1926.6,-289.2,-220.8,352.8,-3133.5,113.4,399.0,295.5,-7.5,-6.3,1243.2,2196.3,-0.9,-203.4,-2093.7,-3505.8,0,2946,0,172,0, 
1.6400,-444.3,768.0,-88.2,1230.9,552.0,-1014.6,82.2,289.5,-2741.7,-284.7,-219.6,-519.9,-3136.2,-210.6,-34.5,270.6,-7.5,-5.7,-82.5,298.5,-0.9,-190.5,-2092.2,-3499.5,0,2952,0,173,0, 
1.6433,-491.7,783.9,-71.1,1245.3,428.1,-1008.9,83.7,299.7,-2815.8,-253.5,-190.8,-1234.5,-3118.5,-420.6,-281.1,293.4,-6.9,-6.3,-960.6,-1727.4,-1.2,-171.6,-2076.6,-3480.6,0,2958,0,174,0, 
1.6467,-435.0,778.8,-80.4,1240.5,677.4,-1014.9,79.2,294.6,-2000.7,-259.2,-201.6,-742.8,-3107.4,-139.8,15.3,293.7,-6.9,-5.4,-140.7,-932.7,-0.6,-174.3,-2081.1,-3489.0,0,2964,0,175,0, 
1.6500,-363.3,774.6,-84.6,1244.4,947.1,-1011.6,74.7,287.1,-1704.3,-273.9,-213.0,194.4,-3116.1,166.5,448.5,300.6,-7.2,-5.7,1141.5,1410.3,-1.2,-179.1,-2082.0,-3489.6,0,2970,0,176,0, 
1.6533,-387.0,776.7,-84.0,1231.5,880.2,-1008.9,82.2,287.1,-2000.7,-261.6,-210.0,470.1,-3116.7,96.9,504.3,297.0,-6.9,-6.0,1225.5,2149.5,-1.2,-169.5,-2080.5,-3492.6,0,2976,0,177,0, 
1.6567,-453.9,767.4,-90.3,1225.2,494.4,-1010.1,81.3,291.6,-2593.5,-262.8,-222.6,-487.5,-3129.3,-255.3,102.9,290.7,-6.3,-6.3,-126.0,215.4,-0.9,-175.2,-2077.5,-3487.8,0,2982,0,178,0, 
1.6600,-480.9,771.9,-93.3,1219.8,409.8,-1011.9,90.3,288.3,-2815.8,-262.2,-222.0,-1231.8,-3117.6,-432.9,-242.4,283.8,-7.2,-6.0,-1020.0,-1881.3,-0.9,-168.3,-2082.6,-3492.9,0,2988,0,179,0, 
1.6633,-405.9,774.9,-91.8,1219.8,636.6,-1008.6,87.3,288.6,-2297.1,-261.9,-219.3,-833.4,-3098.4,-70.8,29.7,305.1,-6.9,-5.7,-160.5,-1064.7,-0.6,-168.3,-2080.5,-3493.2,0,2994,0,180,0, 
1.6667,-344.7,771.0,-96.0,1225.8,908.4,-1004.7,84.6,287.4,-1704.3,-261.9,-230.4,188.4,-3106.5,272.4,449.7,315.9,-6.6,-6.0,1137.3,1240.8,-0.6,-172.2,-2078.7,-3490.5,0,3000,0,181,0, 
1.6700,-376.5,766.5,-99.0,1217.4,840.6,-1010.7,76.2,277.8,-2074.8,-269.4,-237.0,398.7,-3103.5,170.1,441.0,303.9,-6.9,-6.3,1199.1,1992.6,-0.6,-179.7,-2088.6,-3493.8,0,3006,0,182,0, 
1.6733,-441.3,771.0,-90.6,1223.4,577.8,-1006.8,82.2,282.9,-2741.7,-264.6,-226.8,-390.3,-3105.9,-124.8,78.3,301.2,-6.9,-6.0,-2.1,45.6,-0.6,-171.0,-2086.8,-3485.1,0,3012,0,183,0, 
1.6767,-458.7,774.0,-84.0,1231.2,403.5,-1010.4,78.0,287.4,-2741.7,-255.3,-220.8,-1162.2,-3098.7,-316.2,-237.9,293.1,-6.6,-6.0,-953.1,-1881.3,-0.3,-167.4,-2087.4,-3479.7,0,3018,0,184,0, 
1.6800,-418.5,777.3,-86.7,1233.9,702.9,-1002.0,81.0,285.6,-2223.0,-259.2,-227.1,-808.8,-3088.2,-13.2,3.0,307.2,-7.2,-6.0,-228.0,-1071.9,-0.9,-168.0,-2079.3,-3483.3,0,3024,0,185,0, 
1.6833,-361.5,775.8,-95.1,1237.8,954.9,-1007.4,80.4,282.0,-1630.2,-264.3,-230.7,153.3,-3091.5,236.7,472.8,307.8,-7.2,-5.7,1012.2,1366.8,-0.6,-174.9,-2085.0,-3484.8,0,3030,0,186,0, 
1.6867,-386.4,779.1,-87.9,1245.9,977.1,-992.4,87.3,285.0,-2000.7,-259.2,-222.6,450.3,-3090.0,201.0,435.0,309.3,-7.2,-6.3,1146.6,2087.7,-0.6,-173.4,-2088.6,-3475.2,0,3036,0,187,0, 
1.6900,-456.0,778.2,-84.0,1238.4,670.8,-993.0,93.6,287.7,-2741.7,-259.2,-217.8,-420.6,-3093.9,-144.3,-1.8,297.6,-6.9,-6.0,-5.7,170.7,-0.6,-168.6,-2081.1,-3471.3,0,3042,0,188,0, 
1.6933,-474.6,776.1,-82.2,1237.8,534.9,-997.5,90.9,283.8,-2815.8,-254.1,-219.6,-1188.3,-3095.7,-372.0,-281.7,308.1,-6.9,-5.7,-858.0,-1815.6,-1.2,-168.0,-2076.0,-3470.1,0,3048,0,189,0, 
1.6967,-418.5,789.9,-85.8,1237.8,749.7,-995.1,92.4,281.7,-2148.9,-255.9,-221.1,-823.2,-3100.2,-2.7,39.9,318.6,-7.2,-6.0,-119.7,-1035.9,-0.6,-166.8,-2079.6,-3468.9,0,3054,0,190,0, 
1.7000,-350.7,789.0,-86.4,1239.3,1090.5,-987.3,92.7,291.0,-1704.3,-258.3,-222.0,105.3,-3093.3,367.2,440.7,317.4,-7.2,-5.7,1193.4,1363.8,-0.9,-166.2,-2076.0,-3475.8,0,3060,0,191,0, 
1.7033,-384.6,776.7,-84.3,1245.3,993.0,-1003.8,87.0,277.8,-2074.8,-256.5,-222.3,329.1,-3103.5,250.2,453.0,305.7,-7.2,-6.3,1257.9,1995.9,-0.9,-166.8,-2090.1,-3474.9,0,3066,0,192,0, 
1.7067,-454.2,776.4,-84.9,1238.4,633.6,-999.0,93.3,278.7,-2741.7,-255.9,-219.0,-542.4,-3111.0,-159.9,13.8,277.5,-6.9,-6.0,-74.1,-13.2,-0.3,-167.7,-2073.9,-3471.0,0,3072,0,193,0, 
1.7100,-465.6,776.4,-79.5,1225.8,447.0,-993.3,91.8,281.7,-2741.7,-256.2,-220.2,-1368.3,-3113.1,-316.8,-328.5,289.2,-6.9,-6.3,-949.8,-1912.2,-0.9,-168.0,-2079.9,-3474.6,0,3078,0,194,0, 
1.7133,-377.4,778.8,-87.3,1237.8,865.8,-1002.6,81.0,280.8,-2148.9,-256.5,-222.9,-756.0,-3092.7,84.9,100.5,317.4,-7.2,-5.7,-66.3,-1049.7,-0.6,-171.3,-2087.1,-3479.4,0,3084,0,195,0, 
1.7167,-256.2,781.5,-84.3,1238.7,1634.4,-992.4,91.5,284.4,-1704.3,-262.2,-225.0,1032.9,-3074.4,944.1,1071.0,338.7,-6.9,-6.6,1918.2,2233.2,-0.9,-170.1,-2084.4,-3475.8,0,3090,0,196,0, 
1.7200,-321.6,775.8,-92.4,1232.7,1404.6,-999.9,84.3,275.1,-2000.7,-270.0,-229.5,1012.2,-3090.3,655.5,875.7,309.0,-6.9,-5.7,1846.8,2753.4,-0.6,-172.2,-2085.0,-3482.4,0,3096,0,197,0, 
1.7233,-423.3,769.5,-90.0,1232.7,948.9,-1003.5,89.1,275.7,-2815.8,-268.8,-229.2,31.5,-3105.0,175.2,356.7,286.5,-7.2,-5.7,415.2,661.8,-0.9,-170.7,-2084.7,-3475.5,0,3102,0,198,0, 
1.7267,-440.7,764.7,-93.6,1235.1,713.1,-1007.7,85.5,276.0,-2741.7,-269.4,-231.0,-832.8,-3107.7,-4.5,38.7,286.5,-6.9,-6.0,-561.6,-1539.0,-0.6,-180.3,-2091.6,-3479.7,0,3108,0,199,0, 
1.7300,-388.8,768.9,-87.3,1247.1,942.3,-1001.4,87.6,279.9,-2297.1,-265.8,-227.7,-376.2,-3099.3,288.0,271.2,304.2,-7.5,-5.7,175.5,-672.6,-0.9,-180.0,-2097.3,-3473.1,0,3114,0,200,0, 
1.7333,-332.4,768.6,-91.8,1236.9,1214.4,-1005.0,84.9,272.7,-1704.3,-268.2,-235.8,508.8,-3110.1,534.9,618.3,310.2,-6.6,-6.0,1448.7,1608.3,-0.6,-179.4,-2091.6,-3485.7,0,3120,0,201,0, 
1.7367,-357.6,767.4,-87.0,1230.3,1144.8,-1002.9,89.7,274.8,-1926.6,-268.2,-230.4,707.7,-3117.6,425.1,654.0,305.1,-7.2,-6.0,1545.3,2313.3,-1.2,-172.5,-2087.4,-3483.0,0,3126,0,202,0, 
1.7400,-459.9,768.6,-83.4,1225.8,787.5,-999.9,89.7,270.0,-2667.6,-264.6,-227.4,-296.1,-3124.8,-31.2,106.2,293.1,-6.9,-5.4,167.1,386.4,-0.3,-172.8,-2091.6,-3479.7,0,3132,0,203,0, 
1.7433,-466.5,765.3,-84.3,1233.3,625.2,-997.8,91.5,268.5,-2889.9,-261.9,-226.8,-1004.4,-3112.5,-159.6,-228.9,301.8,-7.5,-5.7,-757.8,-1618.2,-0.3,-172.5,-2086.2,-3480.6,0,3138,0,204,0, 
1.7467,-418.5,776.1,-89.4,1228.8,863.1,-1003.8,92.7,266.7,-2297.1,-266.4,-232.5,-538.2,-3093.3,69.0,31.5,310.8,-7.2,-6.0,-16.8,-939.9,-0.9,-169.2,-2082.0,-3483.3,0,3144,0,205,0, 
1.7500,-337.2,772.2,-88.2,1241.7,1196.4,-996.3,94.2,266.7,-1630.2,-258.0,-228.3,409.5,-3091.8,397.8,493.8,313.8,-7.2,-5.7,1257.3,1474.5,-0.9,-169.8,-2077.8,-3479.4,0,3150,0,206,0, 
1.7533,-343.8,769.2,-85.5,1231.2,1085.7,-996.9,96.9,264.3,-1852.5,-258.6,-229.5,616.5,-3098.7,265.5,510.6,293.4,-7.2,-6.0,1337.1,2242.5,-0.9,-181.5,-2081.4,-3479.1,0,3156,0,207,0, 
1.7567,-445.5,764.7,-78.9,1231.5,804.0,-1006.2,96.3,263.4,-2593.5,-252.0,-227.1,-295.2,-3099.6,-123.9,5.1,281.7,-7.2,-5.7,103.8,251.1,-0.9,-174.9,-2079.6,-3478.2,0,3162,0,208,0, 
1.7600,-440.1,762.3,-81.0,1227.0,585.6,-1005.6,99.0,262.5,-2889.9,-258.3,-231.3,-1105.5,-3102.3,-295.8,-321.9,289.2,-7.2,-5.7,-846.3,-1840.5,-0.6,-172.2,-2081.1,-3483.3,0,3168,0,209,0, 
1.7633,-382.8,767.4,-80.7,1233.6,791.4,-1002.9,96.0,256.2,-2000.7,-262.2,-228.6,-683.4,-3096.3,8.7,-8.1,301.5,-7.2,-6.0,-194.4,-1102.2,-0.6,-175.8,-2087.7,-3487.8,0,3174,0,210,0, 
1.7667,-322.2,764.7,-89.7,1227.9,1136.1,-1011.9,87.3,251.1,-1778.4,-265.2,-239.4,341.1,-3103.8,327.6,451.8,293.1,-7.2,-6.0,1114.2,1280.7,-0.6,-189.3,-2096.7,-3490.8,0,3180,0,211,0, 
1.7700,-348.6,761.1,-87.3,1227.3,1039.2,-1007.4,84.9,247.2,-2000.7,-268.2,-237.9,429.0,-3108.3,180.6,444.0,285.3,-6.6,-5.4,1234.8,1997.4,-0.9,-184.5,-2088.6,-3490.8,0,3186,0,212,0, 
1.7733,-425.7,762.9,-87.9,1220.4,700.8,-1005.0,85.8,249.9,-2593.5,-264.9,-234.6,-391.8,-3104.1,-199.2,60.6,278.1,-6.6,-5.4,-68.7,108.6,-0.9,-183.3,-2096.1,-3491.7,0,3192,0,213,0, 
1.7767,-450.0,759.6,-93.6,1212.3,540.9,-1016.4,85.5,242.1,-2815.8,-266.7,-239.7,-1142.7,-3113.1,-289.2,-276.6,288.6,-6.9,-5.4,-917.7,-1896.0,-0.9,-181.2,-2091.3,-3494.7,0,3198,0,214,0, 
1.7800,-388.8,770.4,-92.4,1224.9,788.1,-1007.4,91.2,247.5,-2297.1,-261.0,-234.3,-682.8,-3098.4,70.5,16.8,307.8,-6.6,-6.3,-155.7,-1058.4,-0.9,-181.8,-2088.3,-3493.8,0,3204,0,215,0, 
1.7833,-340.8,774.3,-97.5,1223.1,1049.4,-1014.3,88.8,243.0,-1630.2,-268.5,-239.1,255.3,-3081.0,312.3,439.2,298.5,-6.9,-5.7,1117.5,1363.8,-1.2,-182.7,-2089.5,-3493.8,0,3210,0,216,0, 
1.7867,-351.0,775.5,-93.3,1224.9,989.4,-1008.3,91.2,244.2,-2000.7,-267.3,-236.1,450.0,-3087.9,263.4,479.1,289.8,-7.2,-5.7,1180.2,2222.4,-0.9,-176.4,-2083.8,-3489.9,0,3216,0,217,0, 
1.7900,-434.7,771.6,-91.8,1218.3,623.4,-1004.1,91.8,244.2,-2593.5,-259.2,-229.8,-477.6,-3108.6,-129.3,-7.2,285.6,-6.9,-6.0,-127.2,165.9,-0.9,-172.8,-2080.8,-3489.9,0,3222,0,218,0, 
1.7933,-457.2,779.1,-89.1,1229.4,451.5,-1004.7,96.6,252.6,-2889.9,-254.7,-223.8,-1092.3,-3103.2,-225.3,-248.4,290.4,-6.9,-5.7,-923.1,-1694.4,-0.9,-168.9,-2077.5,-3480.9,0,3228,0,219,0, 
1.7967,-392.4,779.7,-87.0,1233.0,689.1,-1006.2,92.7,246.9,-2148.9,-259.2,-228.0,-742.5,-3090.0,-29.7,24.3,310.5,-6.6,-6.3,-229.2,-1062.3,-0.6,-165.3,-2076.6,-3480.9,0,3234,0,220,0, 
1.8000,-325.2,791.7,-82.8,1241.7,1020.3,-996.0,96.0,246.6,-1704.3,-256.8,-224.7,291.6,-3076.8,335.4,525.6,308.1,-6.9,-5.7,1059.3,1389.0,-1.2,-159.9,-2071.8,-3475.8,0,3240,0,221,0, 
1.8033,-339.6,788.7,-74.4,1251.6,943.2,-991.2,99.3,251.1,-2000.7,-257.4,-216.3,511.8,-3075.3,166.2,451.8,294.0,-7.2,-6.0,1135.2,2090.1,-0.6,-159.0,-2074.5,-3474.9,0,3246,0,222,0, 
1.8067,-444.6,783.9,-79.2,1231.2,630.3,-999.0,97.2,247.8,-2815.8,-252.9,-220.8,-391.2,-3093.6,-191.7,77.4,286.8,-6.6,-5.7,-104.4,157.2,-0.6,-162.6,-2077.8,-3475.2,0,3252,0,223,0, 
1.8100,-456.3,779.4,-78.3,1241.4,466.2,-994.5,93.6,243.9,-2889.9,-255.3,-219.3,-1265.1,-3092.1,-282.3,-199.2,292.2,-6.9,-6.3,-960.0,-1833.0,-0.6,-165.9,-2079.3,-3472.5,0,3258,0,224,0, 
1.8133,-388.8,791.1,-78.9,1243.2,706.5,-992.1,96.0,249.9,-2371.2,-255.6,-223.5,-875.4,-3077.4,21.9,8.4,320.1,-6.9,-5.7,-226.8,-1051.5,-0.6,-157.8,-2071.5,-3472.2,0,3264,0,225,0, 
1.8167,-328.5,783.9,-86.1,1248.0,1064.1,-994.5,92.1,238.2,-1704.3,-267.9,-226.8,252.9,-3093.3,332.4,477.6,308.7,-6.9,-6.3,1149.0,1303.2,-0.9,-162.9,-2075.1,-3473.4,0,3270,0,226,0, 
1.8200,-357.0,776.7,-88.2,1235.1,929.4,-1000.5,94.5,236.1,-2000.7,-259.2,-228.3,432.6,-3088.5,241.5,449.1,291.9,-6.9,-5.7,1215.9,2112.6,-0.6,-166.8,-2072.1,-3468.3,0,3276,0,227,0, 
1.8233,-415.2,780.0,-81.9,1236.0,630.6,-999.6,102.0,238.5,-2667.6,-256.5,-225.3,-391.5,-3105.9,-166.8,59.7,288.0,-6.9,-5.7,-35.4,215.7,-0.9,-159.9,-2063.4,-3464.7,0,3282,0,228,0, 
1.8267,-443.4,786.3,-72.0,1239.3,521.7,-995.4,98.7,237.9,-2964.0,-249.9,-215.1,-1206.0,-3091.5,-340.5,-255.9,306.0,-7.2,-5.4,-901.8,-1807.5,-0.6,-160.5,-2077.5,-3462.9,0,3288,0,229,0, 
1.8300,-385.8,788.7,-76.2,1239.6,822.3,-995.7,99.0,235.5,-2074.8,-251.7,-216.6,-775.8,-3069.9,-3.9,49.2,315.6,-7.2,-6.0,-175.2,-1069.2,-0.6,-156.9,-2072.1,-3462.9,0,3294,0,230,0, 
1.8333,-321.6,778.8,-85.2,1231.8,1151.1,-998.1,93.9,233.7,-1630.2,-261.3,-229.2,187.2,-3080.7,279.0,553.5,315.9,-7.2,-6.0,1149.6,1463.4,-0.6,-172.5,-2085.6,-3470.4,0,3300,0,231,0, 
1.8367,-357.3,777.6,-84.0,1236.9,1054.2,-1005.9,93.0,229.2,-1852.5,-261.6,-229.2,330.9,-3096.9,95.1,552.9,297.6,-6.9,-6.0,1136.1,2097.6,-0.6,-168.3,-2082.0,-3470.1,0,3306,0,232,0, 
1.8400,-422.7,787.8,-80.4,1220.1,681.9,-1002.9,96.9,228.6,-2741.7,-259.5,-227.7,-509.4,-3097.8,-278.7,95.4,292.2,-7.2,-5.7,-64.5,91.5,-0.6,-168.0,-2072.7,-3470.1,0,3312,0,233,0, 
1.8433,-458.4,780.6,-78.0,1235.7,533.4,-1000.8,102.0,233.7,-2889.9,-264.3,-226.8,-1267.8,-3096.0,-410.1,-229.2,281.1,-7.2,-6.0,-910.2,-1971.3,-0.6,-166.5,-2072.7,-3464.1,0,3318,0,234,0, 
1.8467,-397.8,785.4,-81.3,1247.1,750.3,-999.9,96.6,228.6,-2148.9,-266.1,-232.8,-770.1,-3091.8,-44.7,99.6,300.3,-6.9,-5.7,-150.9,-1098.3,-0.6,-171.0,-2081.1,-3474.0,0,3324,0,235,0, 
1.8500,-321.9,784.2,-81.0,1247.4,997.5,-1005.6,92.1,227.4,-1852.5,-268.8,-235.2,267.6,-3085.8,249.6,460.8,306.0,-6.9,-5.7,1119.3,1244.7,-0.3,-181.5,-2087.1,-3478.8,0,3330,0,236,0, 
1.8533,-331.5,781.2,-81.6,1243.2,954.9,-1012.2,90.9,227.1,-1852.5,-273.3,-235.2,449.4,-3091.8,148.8,462.9,297.6,-7.2,-5.4,1224.6,2030.1,-0.9,-176.4,-2088.3,-3480.9,0,3336,0,237,0, 
1.8567,-433.5,771.6,-77.4,1235.4,687.3,-1011.6,93.3,220.5,-2593.5,-272.7,-235.8,-362.1,-3108.0,-252.3,79.2,302.1,-6.9,-5.7,52.8,217.5,-0.6,-181.5,-2085.9,-3474.9,0,3342,0,238,0, 
1.8600,-466.5,770.4,-84.0,1225.8,453.9,-1018.2,91.2,216.3,-2815.8,-271.2,-243.0,-1258.2,-3109.8,-429.6,-314.4,284.1,-7.2,-6.0,-922.5,-1911.3,-0.9,-185.4,-2085.3,-3483.3,0,3348,0,239,0, 
1.8633,-405.9,767.1,-92.4,1229.4,673.2,-1015.5,89.1,210.3,-2148.9,-277.8,-249.6,-780.6,-3098.1,-114.6,-21.3,299.1,-6.9,-6.0,-121.8,-1189.8,-0.6,-193.5,-2101.2,-3498.0,0,3354,0,240,0, 
1.8667,-313.5,768.0,-96.9,1228.2,965.7,-1019.7,88.5,206.1,-1852.5,-287.1,-266.7,225.6,-3099.6,186.0,345.0,293.4,-7.2,-5.4,1149.3,1165.8,-0.9,-196.5,-2097.0,-3494.4,0,3360,0,241,0, 
1.8700,-363.3,769.8,-96.0,1220.7,875.4,-1021.8,86.7,208.8,-2000.7,-291.3,-271.8,414.0,-3109.2,103.2,423.3,274.8,-6.9,-6.3,1329.3,1886.4,-0.6,-201.6,-2097.3,-3491.4,0,3366,0,242,0, 
1.8733,-439.8,767.7,-88.5,1221.6,533.7,-1016.7,85.2,201.3,-2815.8,-273.3,-239.4,-519.9,-3108.3,-263.7,-5.7,273.3,-6.9,-6.0,-2.4,-99.0,-0.6,-195.3,-2094.3,-3490.8,0,3372,0,243,0, 
1.8767,-434.7,781.2,-80.4,1238.7,504.9,-1014.9,93.3,207.3,-2741.7,-260.4,-220.8,-1089.9,-3095.1,-332.1,-223.8,267.3,-6.9,-6.0,-861.6,-1897.8,-0.3,-181.5,-2094.0,-3478.2,0,3378,0,244,0, 
1.8800,-366.3,783.3,-79.5,1245.3,791.4,-1003.8,94.2,210.9,-2148.9,-265.2,-213.9,-592.2,-3090.6,-9.0,102.3,291.3,-6.9,-5.4,11.4,-1144.5,-1.2,-178.2,-2086.8,-3480.3,0,3384,0,245,0, 
1.8833,-329.4,782.7,-81.9,1245.9,1069.5,-1009.2,91.2,206.4,-1630.2,-274.2,-209.4,366.6,-3096.9,289.8,520.8,281.7,-7.2,-6.0,1203.6,1245.9,-0.9,-183.6,-2095.8,-3471.0,0,3390,0,246,0, 
1.8867,-358.8,785.4,-79.2,1242.3,1020.3,-1006.2,94.2,203.4,-1926.6,-271.5,-208.5,513.9,-3111.3,137.1,469.5,274.2,-6.9,-5.7,1235.4,1955.1,-1.2,-185.4,-2087.4,-3468.9,0,3396,0,247,0, 
1.8900,-430.2,787.5,-66.6,1255.8,629.7,-1002.0,99.6,203.4,-2667.6,-259.8,-178.2,-314.1,-3096.3,-224.1,61.8,274.2,-6.9,-5.7,-21.9,0.0,-0.6,-164.4,-2081.4,-3459.3,0,3402,0,248,0, 
1.8933,-449.7,784.8,-69.9,1248.6,424.2,-1001.4,99.9,200.1,-2741.7,-267.0,-174.6,-1175.1,-3101.7,-428.1,-238.2,285.6,-7.2,-5.7,-876.9,-2008.8,-1.2,-176.1,-2078.1,-3462.3,0,3408,0,249,0, 
1.8967,-372.3,783.3,-77.4,1250.7,719.1,-1009.5,96.0,192.6,-2148.9,-279.3,-183.0,-631.2,-3091.2,-26.1,73.2,304.5,-6.9,-6.0,-120.0,-975.6,-0.6,-183.6,-2082.0,-3468.6,0,3414,0,250,0, 
1.9000,-316.2,787.8,-67.2,1261.5,1065.3,-997.5,96.6,192.0,-1630.2,-268.5,-158.4,399.0,-3093.6,275.4,564.6,310.8,-6.9,-5.7,1233.3,1346.7,-0.9,-179.1,-2073.9,-3459.6,0,3420,0,251,0, 
1.9033,-356.1,782.7,-70.2,1246.5,947.4,-1002.3,90.6,184.8,-1852.5,-275.4,-162.9,499.5,-3095.7,153.6,550.8,289.8,-7.2,-6.0,1283.4,2121.0,-1.2,-180.6,-2076.0,-3467.4,0,3426,0,252,0, 
1.9067,-420.9,777.0,-67.2,1251.6,557.1,-1003.5,93.6,186.0,-2593.5,-268.8,-163.2,-546.0,-3111.6,-262.2,10.8,277.5,-6.9,-5.7,-79.2,37.8,-0.9,-170.4,-2069.7,-3461.4,0,3432,0,253,0, 
1.9100,-453.3,778.2,-64.2,1257.9,451.8,-1001.4,96.0,191.7,-2815.8,-265.2,-160.5,-1274.1,-3102.3,-361.5,-275.1,276.9,-6.9,-5.7,-884.4,-1812.0,-0.9,-166.8,-2070.6,-3459.9,0,3438,0,254,0, 
1.9133,-373.5,783.6,-64.2,1265.4,708.0,-1003.5,92.4,185.7,-2223.0,-278.4,-165.9,-701.7,-3103.2,-31.5,104.4,298.2,-7.2,-5.7,-144.0,-1087.5,-1.2,-178.5,-2070.9,-3467.7,0,3444,0,255,0, 
1.9167,-317.1,787.5,-67.2,1267.5,996.0,-1002.0,90.0,183.3,-1630.2,-275.1,-167.4,277.8,-3100.5,321.0,598.2,303.0,-6.9,-6.0,1105.5,1346.4,-0.9,-179.7,-2076.9,-3473.1,0,3450,0,0,0, 
1.9200,-320.1,787.2,-62.4,1268.1,936.3,-1003.2,93.9,181.5,-1926.6,-272.7,-165.9,398.4,-3100.8,210.0,539.7,292.2,-6.9,-5.7,1035.3,1992.9,-0.9,-181.2,-2076.9,-3472.2,0,3456,0,1,0, 
1.9233,-408.6,784.5,-66.6,1258.5,567.9,-1010.4,94.5,178.8,-2593.5,-269.7,-172.5,-403.2,-3117.3,-177.3,69.0,272.4,-6.9,-5.7,-195.6,20.1,-1.2,-180.0,-2078.1,-3476.4,0,3462,0,2,0, 
1.9267,-435.0,788.1,-63.9,1260.6,411.3,-1001.4,99.9,180.9,-2741.7,-273.9,-168.3,-1227.6,-3121.8,-274.2,-221.1,275.7,-7.2,-5.7,-1047.0,-1863.9,-0.3,-177.6,-2073.3,-3471.9,0,3468,0,3,0, 
1.9300,-374.7,792.0,-66.6,1262.1,716.4,-1004.1,96.6,177.3,-2297.1,-276.3,-169.2,-622.2,-3105.9,80.4,198.3,296.1,-7.2,-6.0,-192.3,-983.4,-0.9,-181.8,-2082.0,-3476.7,0,3474,0,4,0, 
1.9333,-308.4,785.1,-65.1,1260.3,946.5,-1000.8,96.9,174.0,-1630.2,-278.1,-170.1,291.9,-3104.1,360.9,552.0,307.5,-6.9,-5.4,962.4,1348.8,-0.9,-191.4,-2079.9,-3477.3,0,3480,0,5,0, 
1.9367,-331.5,790.5,-60.9,1262.4,944.7,-997.5,96.3,170.7,-2000.7,-269.1,-163.8,558.3,-3094.5,246.3,647.1,307.8,-6.9,-5.7,1118.4,2042.1,-0.9,-173.4,-2078.1,-3474.6,0,3486,0,6,0, 
1.9400,-381.3,792.3,-53.7,1264.8,611.7,-988.8,98.7,179.7,-2593.5,-263.4,-154.5,-292.8,-3088.8,-183.0,210.6,293.4,-6.9,-5.7,-117.0,171.6,-0.6,-171.9,-2064.3,-3465.9,0,3492,0,7,0, 
1.9433,-408.0,795.0,-50.1,1268.1,415.8,-996.0,100.8,181.8,-2815.8,-261.3,-149.1,-1215.0,-3093.0,-333.3,-117.6,300.0,-6.9,-5.7,-930.0,-1962.6,-0.3,-171.3,-2071.5,-3463.8,0,3498,0,8,0, 
1.9467,-349.2,805.2,-50.1,1272.9,792.9,-994.5,102.0,179.7,-2074.8,-265.5,-155.7,-684.6,-3091.8,50.1,232.5,319.5,-6.9,-5.4,-125.7,-1062.6,-0.6,-179.1,-2068.2,-3461.4,0,3504,0,9,0, 
1.9500,-305.7,793.5,-58.8,1269.3,1047.6,-1005.3,93.6,173.4,-1630.2,-269.7,-163.8,252.3,-3083.7,381.0,636.0,318.0,-6.9,-5.7,1088.7,1296.9,-0.6,-183.3,-2073.9,-3460.2,0,3510,0,10,0, 
1.9533,-311.1,791.1,-59.4,1269.3,922.2,-996.0,105.0,178.8,-1852.5,-275.4,-167.1,424.5,-3098.4,322.5,689.7,294.9,-6.6,-5.7,1201.2,2031.3,-0.9,-182.7,-2063.4,-3452.4,0,3516,0,11,0, 
1.9567,-374.1,783.6,-56.4,1267.8,557.1,-998.1,104.1,180.3,-2667.6,-268.2,-167.4,-546.0,-3112.2,-60.3,237.3,285.6,-6.9,-6.0,-111.0,108.9,-0.3,-181.2,-2074.2,-3449.1,0,3522,0,12,0, 
1.9600,-426.6,787.8,-52.5,1272.6,445.2,-990.3,108.0,183.6,-2741.7,-266.1,-161.4,-1279.8,-3110.4,-273.9,-77.7,298.5,-6.9,-6.0,-1060.8,-1794.9,-0.6,-171.9,-2062.8,-3451.5,0,3528,0,13,0, 
1.9633,-389.1,786.0,-65.4,1279.2,714.0,-1006.2,102.6,180.3,-2074.8,-274.5,-172.5,-923.4,-3103.5,-80.1,150.6,306.3,-7.5,-6.0,-317.7,-1031.7,-0.9,-184.8,-2072.4,-3464.7,0,3534,0,14,0, 
1.9667,-313.5,786.9,-72.3,1272.3,958.5,-1007.4,97.8,180.6,-1704.3,-284.4,-181.2,17.4,-3092.7,297.3,558.0,298.2,-6.6,-5.4,973.8,1342.5,-0.6,-191.7,-2077.8,-3466.2,0,3540,0,15,0, 
1.9700,-350.1,780.0,-78.6,1260.0,926.1,-1012.2,95.4,173.4,-1852.5,-285.6,-189.0,246.3,-3108.6,302.7,577.2,283.2,-6.9,-5.4,1081.8,2259.9,-0.9,-197.4,-2082.3,-3475.2,0,3546,0,16,0, 
1.9733,-413.4,790.8,-73.8,1249.2,546.9,-1005.0,97.5,176.4,-2667.6,-282.6,-183.9,-598.5,-3117.3,-25.8,97.8,264.9,-6.9,-6.3,-243.0,408.9,-0.9,-192.6,-2077.5,-3466.8,0,3552,0,17,0, 
1.9767,-452.7,784.8,-78.9,1255.2,362.1,-1008.3,95.7,176.1,-2815.8,-289.5,-186.9,-1263.0,-3123.3,-147.3,-186.9,263.1,-7.2,-6.3,-1170.0,-1663.8,-0.9,-200.4,-2078.7,-3468.3,0,3558,0,18,0, 
1.9800,-389.7,791.7,-75.9,1271.1,606.0,-999.6,96.3,181.2,-2223.0,-285.6,-182.1,-822.3,-3109.2,147.0,80.4,302.1,-6.9,-5.7,-423.6,-952.8,-0.3,-194.4,-2082.0,-3470.4,0,3564,0,19,0, 
1.9833,-333.9,786.3,-77.1,1262.7,910.2,-997.2,96.9,185.4,-1630.2,-285.9,-182.4,254.1,-3096.9,421.2,519.6,302.7,-6.9,-6.0,870.6,1358.4,-0.9,-194.1,-2083.5,-3470.4,0,3570,0,20,0, 
1.9867,-363.3,782.4,-74.4,1260.6,791.4,-996.6,99.0,197.4,-1852.5,-283.2,-184.2,325.8,-3094.2,207.3,372.6,290.1,-6.9,-6.0,870.0,1962.9,-1.2,-186.6,-2073.3,-3474.6,0,3576,0,21,0, 
1.9900,-434.4,788.4,-70.5,1262.1,507.6,-997.8,101.4,201.6,-2593.5,-276.3,-176.1,-602.1,-3102.9,-220.8,-21.3,267.6,-7.2,-5.7,-354.6,48.9,-0.9,-186.6,-2074.5,-3471.0,0,3582,0,22,0, 
1.9933,-438.0,780.0,-77.4,1257.0,319.5,-997.8,99.0,204.9,-2741.7,-285.9,-183.6,-1291.8,-3109.8,-334.8,-242.7,287.7,-7.2,-6.0,-1180.5,-1869.6,-0.9,-193.5,-2075.7,-3473.4,0,3588,0,23,0, 
1.9967,-379.2,777.9,-80.4,1260.9,619.2,-990.3,96.9,209.1,-2148.9,-284.4,-189.9,-786.9,-3114.6,-5.1,50.1,306.6,-6.9,-5.7,-379.2,-1060.2,-0.9,-202.8,-2079.3,-3472.8,0,3594,0,24,0, 
2.0000,-335.7,775.2,-83.7,1248.9,937.5,-988.5,101.4,210.0,-1630.2,-289.5,-188.7,171.6,-3100.2,254.4,484.5,307.8,-6.9,-5.7,955.2,1410.3,-0.6,-204.0,-2076.6,-3466.8,0,3600,0,25,0, 
2.0033,-317.4,782.4,-79.8,1257.3,931.2,-996.0,103.2,217.5,-2000.7,-283.2,-186.3,414.9,-3101.1,256.2,498.6,284.4,-7.2,-5.7,1077.0,2116.2,-0.6,-189.9,-2074.5,-3468.3,0,3606,0,26,0, 
2.0067,-396.3,777.9,-74.4,1258.2,543.9,-997.5,103.8,219.9,-2593.5,-279.0,-179.1,-514.5,-3102.6,-241.2,8.7,267.0,-6.9,-6.0,-272.7,163.8,-0.6,-192.9,-2070.9,-3466.8,0,3612,0,27,0, 
2.0100,-420.0,781.8,-77.1,1262.1,379.2,-996.0,103.8,223.8,-2815.8,-274.5,-180.3,-1287.0,-3104.7,-356.7,-265.2,276.0,-6.6,-5.7,-1126.2,-1864.8,-0.9,-193.2,-2071.8,-3466.2,0,3618,0,28,0, 
2.0133,-355.5,786.0,-82.8,1265.4,672.9,-993.9,103.2,222.3,-2074.8,-289.8,-182.1,-846.6,-3090.6,-12.0,70.8,296.4,-7.2,-6.0,-244.8,-922.5,-0.6,-200.4,-2076.0,-3473.4,0,3624,0,29,0, 
2.0167,-290.1,785.4,-85.2,1251.9,943.8,-1004.7,100.5,231.3,-1704.3,-286.2,-183.6,86.4,-3094.5,314.1,546.3,303.3,-7.2,-5.7,1110.3,1354.5,-0.9,-202.8,-2077.5,-3478.2,0,3630,0,30,0, 
2.0200,-354.3,778.2,-81.9,1244.4,843.9,-1003.2,100.2,232.8,-1852.5,-288.0,-185.1,177.0,-3097.2,182.1,516.0,298.5,-6.9,-6.0,1080.6,2004.9,-0.9,-204.3,-2076.3,-3479.1,0,3636,0,31,0, 
2.0233,-396.3,789.9,-72.6,1252.5,528.9,-992.7,111.0,252.6,-2741.7,-280.8,-178.2,-562.5,-3084.0,-201.6,85.8,280.5,-7.2,-5.7,-176.1,204.3,-0.9,-181.5,-2069.7,-3462.3,0,3642,0,32,0, 
2.0267,-432.6,786.3,-73.2,1251.9,331.2,-996.0,108.6,255.6,-2667.6,-282.0,-178.2,-1320.0,-3092.4,-316.8,-199.2,280.5,-6.6,-5.7,-1149.3,-1688.4,0.0,-186.0,-2071.8,-3465.6,0,3648,0,33,0, 
2.0300,-358.2,793.2,-75.6,1263.6,560.4,-990.9,106.2,263.1,-2074.8,-278.4,-174.0,-828.3,-3079.5,55.5,114.9,302.1,-7.2,-6.3,-316.5,-924.6,-0.9,-176.4,-2074.8,-3465.9,0,3654,0,34,0, 
2.0333,-288.6,793.2,-76.2,1275.0,930.0,-988.2,106.8,261.3,-1556.1,-278.1,-170.1,271.5,-3071.4,380.4,587.4,321.0,-7.2,-6.0,1042.2,1416.0,-0.6,-186.9,-2073.0,-3473.4,0,3660,0,35,0, 
2.0367,-329.4,786.6,-78.6,1263.6,886.8,-992.7,106.5,262.8,-2074.8,-271.8,-170.4,514.5,-3085.2,227.4,590.1,302.7,-7.5,-6.3,1072.2,2122.8,-0.9,-181.2,-2073.9,-3469.8,0,3666,0,36,0, 
2.0400,-418.8,780.9,-76.8,1256.1,517.2,-991.8,106.5,259.8,-2519.4,-277.2,-174.9,-373.5,-3095.1,-76.5,134.1,280.8,-6.9,-6.0,-240.9,134.1,-0.6,-181.8,-2064.0,-3473.4,0,3672,0,37,0, 
2.0433,-460.8,775.8,-78.3,1250.7,329.1,-994.8,106.2,263.4,-2889.9,-274.2,-176.7,-1156.2,-3090.0,-250.8,-199.2,299.1,-7.2,-6.0,-1132.8,-1961.4,-0.9,-183.9,-2068.2,-3470.7,0,3678,0,38,0, 
2.0467,-391.2,774.0,-77.7,1262.7,613.5,-990.3,105.9,268.2,-2074.8,-276.3,-175.8,-788.7,-3097.5,43.2,137.1,314.1,-6.6,-5.7,-270.9,-1137.9,-0.6,-182.4,-2072.1,-3472.8,0,3684,0,39,0, 
2.0500,-312.3,781.8,-78.3,1263.3,955.5,-990.0,116.1,275.7,-1778.4,-278.1,-182.4,173.1,-3083.1,356.1,525.9,312.6,-7.2,-6.3,1032.0,1252.2,-1.5,-179.4,-2068.5,-3466.2,0,3690,0,40,0, 
2.0533,-348.3,779.7,-79.2,1259.7,905.1,-990.3,108.6,276.6,-1778.4,-276.0,-182.4,365.7,-3102.9,223.2,604.5,306.9,-7.2,-5.7,1166.1,2046.0,-0.6,-181.5,-2067.3,-3467.7,0,3696,0,41,0, 
2.0567,-413.7,773.1,-79.5,1253.1,582.0,-989.1,105.3,279.0,-2593.5,-270.6,-180.0,-579.0,-3100.8,-93.6,93.6,289.2,-6.9,-6.0,-144.0,225.0,-0.9,-183.3,-2069.4,-3455.4,0,3702,0,42,0, 
2.0600,-444.0,765.0,-85.5,1245.6,413.1,-991.2,103.8,275.7,-2741.7,-279.9,-187.8,-1333.8,-3102.9,-267.9,-232.2,289.5,-7.2,-5.4,-1038.0,-1812.9,-0.6,-180.6,-2067.0,-3461.7,0,3708,0,43,0, 
2.0633,-375.3,773.4,-85.8,1251.3,684.9,-999.6,99.9,279.9,-2297.1,-285.3,-186.6,-936.9,-3096.0,54.0,86.7,313.2,-6.9,-6.0,-212.1,-986.4,-0.9,-191.1,-2067.9,-3471.9,0,3714,0,44,0, 
2.0667,-370.2,772.5,-88.5,1244.7,689.4,-1006.5,99.0,277.2,-1704.3,-285.9,-191.4,-375.9,-3115.8,-13.5,241.5,290.4,-6.6,-5.7,621.9,788.7,-0.9,-188.1,-2073.9,-3474.9,0,3720,0,45,0, 
2.0700,-367.5,774.6,-79.2,1252.8,580.2,-999.9,102.0,282.6,-2000.7,-278.4,-184.5,-273.0,-3098.7,-185.7,249.3,273.6,-7.2,-6.0,657.9,1518.9,-0.9,-172.5,-2072.4,-3475.2,0,3726,0,46,0, 
2.0733,-423.0,771.9,-85.2,1248.3,318.9,-1003.8,99.6,276.9,-2667.6,-284.1,-189.3,-1057.8,-3117.6,-489.0,-178.5,264.6,-7.2,-6.0,-530.1,-228.9,-0.9,-183.0,-2073.0,-3470.7,0,3732,0,47,0, 
2.0767,-461.7,770.7,-82.5,1249.8,187.5,-1000.5,100.2,282.9,-2741.7,-283.5,-183.0,-1756.5,-3099.3,-576.9,-430.8,277.8,-7.2,-6.0,-1365.0,-2256.0,-1.2,-184.2,-2062.5,-3465.0,0,3738,0,48,0, 
2.0800,-402.9,781.5,-82.8,1251.3,492.6,-997.8,103.2,284.1,-2148.9,-272.7,-183.6,-1148.1,-3090.6,-211.2,-93.6,298.8,-7.5,-6.3,-548.1,-1397.7,-0.9,-177.0,-2060.1,-3471.9,0,3744,0,49,0, 
2.0833,-328.5,791.4,-83.4,1251.9,849.3,-996.3,103.8,288.0,-1704.3,-283.2,-183.9,-66.3,-3091.5,91.8,396.6,300.3,-7.2,-6.0,840.9,1032.9,-0.6,-182.7,-2064.0,-3470.4,0,3750,0,50,0, 
2.0867,-354.3,786.0,-81.6,1251.9,765.3,-996.6,101.4,287.1,-1852.5,-275.7,-182.1,165.0,-3100.5,18.9,506.1,300.6,-6.9,-5.7,904.8,1896.0,-0.6,-181.5,-2063.4,-3471.6,0,3756,0,51,0, 
2.0900,-417.3,775.2,-79.5,1247.7,389.1,-995.4,108.9,282.3,-2741.7,-275.7,-181.8,-752.1,-3111.0,-352.2,87.0,269.7,-7.2,-6.3,-327.3,60.9,-1.2,-174.3,-2053.2,-3463.2,0,3762,0,52,0, 
2.0933,-462.6,774.6,-82.8,1238.7,289.2,-1000.8,107.1,281.4,-2667.6,-281.4,-185.4,-1352.1,-3102.0,-393.6,-201.0,279.6,-6.9,-5.7,-1098.3,-1810.8,-0.6,-180.9,-2075.1,-3473.4,0,3768,0,53,0, 
2.0967,-388.2,793.8,-81.6,1251.6,554.4,-985.8,109.2,291.9,-2148.9,-277.8,-182.4,-868.8,-3085.8,-142.2,-24.3,295.8,-6.6,-6.3,-308.4,-1104.6,-0.6,-183.0,-2068.8,-3466.5,0,3774,0,54,0, 
2.1000,-324.6,790.5,-85.2,1246.2,815.4,-990.3,99.9,288.9,-1556.1,-280.2,-185.7,155.1,-3088.5,156.3,386.1,305.1,-7.2,-5.7,958.2,1169.1,-0.6,-189.3,-2075.1,-3469.8,0,3780,0,55,0, 
2.1033,-330.3,792.3,-81.3,1251.0,719.7,-996.3,103.8,295.2,-2000.7,-273.0,-181.2,360.3,-3084.3,139.2,497.7,295.8,-6.6,-6.0,1050.6,2006.4,-0.9,-183.0,-2068.5,-3461.1,0,3786,0,56,0, 
2.1067,-410.1,783.6,-85.5,1237.2,378.3,-1002.6,105.6,293.1,-2667.6,-274.2,-186.6,-520.5,-3090.6,-287.1,14.7,278.7,-6.9,-5.4,-208.8,-93.0,-0.6,-189.9,-2070.6,-3456.6,0,3792,0,57,0, 
2.1100,-423.3,775.2,-81.6,1243.8,277.5,-993.0,106.5,298.5,-2889.9,-272.7,-182.1,-1178.7,-3078.3,-319.2,-272.1,285.3,-6.9,-5.7,-1079.1,-1944.6,-0.6,-183.6,-2066.4,-3459.9,0,3798,0,58,0, 
2.1133,-366.6,780.3,-90.6,1244.7,550.5,-1004.1,99.6,295.5,-2297.1,-282.9,-188.7,-804.3,-3087.9,-75.0,24.9,296.4,-6.9,-6.0,-301.8,-1104.6,-0.6,-188.7,-2070.9,-3470.4,0,3804,0,59,0, 
2.1167,-277.2,781.5,-86.1,1258.5,936.9,-997.5,99.9,293.7,-1778.4,-287.1,-187.2,192.0,-3083.4,306.9,463.2,293.1,-6.9,-5.7,1033.5,1321.2,-0.9,-195.9,-2068.5,-3474.9,0,3810,0,60,0, 
2.1200,-327.6,779.7,-87.9,1262.1,863.7,-1004.1,99.6,290.7,-1926.6,-280.8,-189.9,263.4,-3096.0,156.6,491.4,289.5,-7.2,-5.4,1070.7,1977.9,-0.9,-183.9,-2068.5,-3465.6,0,3816,0,61,0, 
2.1233,-386.7,772.8,-79.5,1248.3,580.2,-995.7,100.8,298.8,-2667.6,-282.3,-183.0,-620.4,-3109.5,-112.2,126.6,266.1,-6.9,-6.0,-162.0,85.2,-1.2,-182.4,-2068.2,-3457.2,0,3822,0,62,0, 
2.1267,-426.9,767.1,-87.0,1238.1,434.7,-1000.8,100.5,295.8,-2667.6,-283.8,-190.5,-1374.9,-3125.1,-256.2,-214.2,269.4,-6.9,-6.3,-963.6,-1911.0,-0.6,-194.1,-2067.0,-3470.1,0,3828,0,63,0, 
2.1300,-374.7,783.3,-87.0,1248.9,682.8,-995.4,104.4,296.4,-2223.0,-289.2,-191.1,-802.5,-3101.7,23.1,40.8,292.8,-6.6,-6.0,-225.6,-1162.8,-0.6,-190.8,-2065.8,-3459.0,0,3834,0,64,0, 
2.1333,-304.5,783.9,-89.4,1248.3,921.3,-995.4,100.5,295.8,-1556.1,-289.2,-190.2,207.9,-3102.0,259.2,506.4,283.8,-7.2,-5.7,1082.4,1275.9,-0.9,-195.0,-2064.9,-3461.4,0,3840,0,65,0, 
2.1367,-335.4,778.2,-86.7,1244.1,852.3,-998.7,105.6,294.9,-1926.6,-282.6,-185.1,386.4,-3105.3,161.4,539.7,280.8,-6.9,-6.0,1117.2,1980.3,-0.3,-183.9,-2061.6,-3459.3,0,3846,0,66,0, 
2.1400,-423.6,773.7,-83.7,1252.8,576.6,-991.5,103.2,292.2,-2741.7,-275.1,-181.8,-447.9,-3109.2,-105.3,138.9,266.7,-7.2,-5.7,-63.3,267.6,-0.9,-176.7,-2059.8,-3450.6,0,3852,0,67,0, 
2.1433,-446.1,767.7,-86.1,1250.4,387.6,-990.0,101.7,287.4,-2815.8,-284.7,-188.4,-1247.1,-3114.9,-315.3,-187.8,265.8,-7.2,-6.0,-977.1,-1851.0,-0.9,-185.1,-2062.8,-3448.5,0,3858,0,68,0, 
2.1467,-370.5,779.7,-87.6,1254.9,641.1,-994.2,101.1,294.0,-2000.7,-288.9,-190.5,-747.3,-3111.6,-45.9,36.6,273.9,-6.6,-5.7,-213.0,-1085.4,-0.6,-185.4,-2066.1,-3449.1,0,3864,0,69,0, 
2.1500,-310.2,781.5,-87.3,1249.2,935.1,-993.0,99.3,292.5,-1778.4,-287.1,-189.6,251.4,-3100.8,319.2,513.0,291.3,-7.2,-5.7,1118.7,1272.9,-0.6,-183.9,-2066.4,-3459.3,0,3870,0,70,0, 
2.1533,-310.5,782.7,-80.1,1258.5,818.1,-993.0,102.0,298.8,-1926.6,-280.5,-183.9,321.3,-3091.8,243.9,540.6,272.4,-6.9,-6.3,1140.3,2048.7,-0.9,-180.6,-2059.2,-3451.2,0,3876,0,71,0, 
2.1567,-393.3,784.8,-80.1,1245.9,505.2,-993.6,102.9,291.0,-2593.5,-283.2,-185.1,-558.3,-3103.2,-106.5,80.4,261.9,-7.2,-6.0,-51.9,80.4,-0.6,-188.1,-2062.5,-3451.2,0,3882,0,72,0, 
2.1600,-441.6,776.4,-82.5,1243.5,322.2,-998.4,97.2,290.7,-2741.7,-286.8,-185.7,-1408.5,-3121.2,-262.2,-231.9,277.5,-6.9,-6.3,-987.0,-1925.1,-0.6,-189.0,-2064.9,-3454.5,0,3888,0,73,0, 
2.1633,-374.1,775.2,-83.4,1241.7,655.5,-997.5,100.2,290.7,-2074.8,-283.2,-186.6,-840.0,-3103.8,85.2,120.9,295.8,-7.2,-5.7,-171.9,-1159.5,-0.3,-186.9,-2063.1,-3452.7,0,3894,0,74,0, 
2.1667,-320.4,775.8,-83.4,1241.4,992.7,-1000.8,94.2,292.2,-1556.1,-293.1,-187.2,167.4,-3102.6,406.2,567.3,289.5,-6.6,-5.7,1104.9,1104.6,-0.6,-193.5,-2069.4,-3460.8,0,3900,0,75,0, 
2.1700,-332.4,774.9,-81.3,1237.2,999.6,-995.1,99.3,291.0,-2074.8,-295.2,-189.0,453.0,-3099.0,322.5,529.2,290.1,-7.2,-6.0,1222.2,1914.0,-0.9,-190.5,-2070.9,-3459.6,0,3906,0,76,0, 
2.1733,-411.0,782.1,-74.4,1246.2,664.8,-997.8,108.9,298.8,-2593.5,-279.0,-179.1,-430.2,-3105.0,-78.9,94.8,272.7,-7.2,-5.7,-46.5,-99.0,-0.9,-180.0,-2062.5,-3450.9,0,3912,0,77,0, 
2.1767,-420.9,781.5,-78.6,1242.9,528.9,-1003.2,100.8,296.4,-2815.8,-284.7,-180.6,-1169.1,-3106.8,-168.3,-275.4,270.6,-7.5,-5.7,-896.1,-2032.2,-0.9,-182.7,-2062.8,-3453.3,0,3918,0,78,0, 
2.1800,-376.8,784.5,-84.9,1251.6,726.9,-997.2,100.5,296.7,-2223.0,-285.0,-185.1,-627.0,-3099.9,75.9,33.9,284.4,-6.9,-6.0,-111.0,-1228.2,-1.2,-188.1,-2062.8,-3453.9,0,3924,0,79,0, 
2.1833,-301.8,786.0,-81.0,1251.6,1029.6,-992.1,106.8,301.2,-1556.1,-278.4,-180.3,276.0,-3099.3,439.5,511.8,296.4,-6.9,-6.3,1212.9,1078.8,-0.9,-181.8,-2062.5,-3453.9,0,3930,0,80,0, 
2.1867,-313.2,788.7,-78.6,1249.2,987.9,-989.4,99.0,300.3,-1926.6,-281.7,-176.7,463.5,-3101.1,318.9,577.2,294.0,-7.2,-5.7,1254.0,1907.4,-0.9,-180.6,-2058.0,-3450.9,0,3936,0,81,0, 
2.1900,-411.9,788.4,-73.8,1252.8,660.9,-991.8,101.1,302.4,-2667.6,-276.6,-175.8,-512.7,-3109.2,-106.2,104.1,273.3,-6.9,-6.0,-63.0,-89.7,-0.9,-178.8,-2059.5,-3453.0,0,3942,0,82,0, 
2.1933,-426.0,787.8,-75.9,1257.0,505.8,-986.1,101.1,303.3,-2815.8,-275.7,-179.1,-1338.6,-3107.7,-271.5,-186.0,275.7,-7.2,-6.0,-960.9,-2089.8,-1.2,-180.9,-2052.0,-3450.6,0,3948,0,83,0, 
2.1967,-375.0,786.3,-79.5,1259.1,776.1,-988.2,101.1,301.5,-2223.0,-286.2,-182.1,-913.8,-3117.0,51.0,99.3,280.5,-6.9,-6.3,-168.6,-1415.1,-0.6,-186.6,-2061.0,-3447.3,0,3954,0,84,0, 
2.2000,-330.0,781.2,-75.3,1256.1,1077.6,-988.2,99.9,298.8,-1556.1,-283.5,-178.2,178.2,-3108.9,423.0,532.2,285.0,-7.2,-6.0,1185.9,1067.1,-0.9,-193.5,-2057.4,-3457.8,0,3960,0,85,0, 
