Time,P3,C3,F3,Fz,F4,C4,P4,Cz,CM,A1,Fp1,Fp2,T3,T5,O1,O2,X3,X2,F7,F8,X1,A2,T6,T4,Trigger,Time_Offset,ADC_Status,ADC_Sequence,Event,Comments
0.0033,-2031.9,-2064.0,-2119.8,-2012.1,-2145.9,-2218.8,-2112.6,-1974.3,-79064.7,-2131.5,-2142.3,-2128.5,-2110.8,-2597.1,-2348.7,-2389.8,-7.2,-5.7,-2595.0,-2134.2,-0.6,-1883.1,-2534.1,-2288.7,0,6,0,107,0, 
0.0067,-2027.4,-2085.3,-2133.0,-2018.1,-2152.5,-2225.7,-2116.2,-1980.3,-44534.1,-2136.9,-2157.9,-2134.2,-2120.4,-2601.0,-2356.2,-2397.6,-6.6,-6.0,-2610.3,-2143.5,-0.6,-1890.0,-2541.0,-2294.4,0,12,0,108,0, 
0.0100,-2129.1,-2113.2,-2137.8,-2015.7,-2147.4,-2215.8,-2105.4,-1975.8,-62169.9,-2104.5,-2127.9,-2106.6,-2097.3,-2595.0,-2322.6,-2376.9,-7.2,-5.7,-2593.5,-2126.7,-0.6,-1863.3,-2523.6,-2292.6,0,18,0,109,0, 
0.0133,-2162.1,-2013.0,-2068.8,-1989.6,-2126.4,-2206.2,-2091.6,-1943.7,-106778.1,-2099.1,-2116.5,-2090.7,-2139.0,-2575.5,-2318.1,-2371.5,-6.6,-6.0,-2598.6,-2110.5,-0.6,-1847.1,-2522.4,-2288.4,0,24,0,110,0, 
0.0167,-2128.5,-2060.1,-2066.7,-1988.7,-2126.1,-2204.7,-2097.9,-1950.0,-116707.5,-2106.6,-2094.9,-2090.1,-2106.0,-2591.4,-2331.0,-2384.1,-7.2,-6.3,-2545.2,-2116.8,-0.6,-1851.0,-2530.5,-2287.2,0,30,0,111,0, 
0.0200,-2043.9,-2087.1,-2089.2,-1998.9,-2138.1,-2215.8,-2109.9,-1968.0,-78546.0,-2126.7,-2118.6,-2111.1,-2083.2,-2599.2,-2350.5,-2395.8,-6.6,-5.7,-2594.7,-2138.4,-0.3,-1881.0,-2537.7,-2291.1,0,36,0,112,0, 
0.0233,-2025.3,-2114.1,-2183.7,-2032.8,-2158.8,-2229.9,-2121.6,-1989.9,-44311.8,-2131.5,-2145.0,-2139.3,-2108.7,-2583.9,-2349.9,-2391.3,-7.2,-6.0,-2607.0,-2151.9,-0.3,-1887.0,-2542.8,-2314.5,0,42,0,113,0, 
0.0267,-2123.7,-2084.4,-2105.1,-1996.8,-2133.9,-2212.2,-2104.2,-1963.2,-62095.8,-2091.6,-2087.1,-2082.0,-2082.6,-2589.3,-2329.5,-2375.1,-7.2,-6.0,-2555.1,-2115.9,-0.6,-1850.1,-2515.5,-2295.0,0,48,0,114,0, 
0.0300,-2179.8,-2048.1,-2028.0,-1961.1,-2104.5,-2193.0,-2094.3,-1937.1,-106555.8,-2074.2,-2018.4,-2019.9,-2052.9,-2579.7,-2322.0,-2374.5,-6.9,-6.0,-2478.9,-2081.7,-0.6,-1827.9,-2520.0,-2273.4,0,54,0,115,0, 
0.0333,-2120.1,-1986.3,-2022.0,-1957.5,-2107.8,-2196.3,-2106.6,-1929.9,-116559.3,-2100.3,-2055.0,-2056.5,-2100.0,-2580.6,-2343.0,-2398.5,-6.9,-5.7,-2541.3,-2112.0,-0.6,-1854.6,-2547.9,-2287.2,0,60,0,116,0, 
0.0367,-2047.2,-2106.0,-2163.9,-2006.4,-2133.6,-2210.4,-2116.2,-1971.9,-78397.8,-2118.6,-2085.3,-2094.3,-2097.3,-2591.1,-2359.2,-2386.8,-6.9,-5.7,-2559.0,-2130.0,-0.3,-1883.4,-2544.9,-2288.4,0,66,0,117,0, 
0.0400,-2036.1,-2093.7,-2085.3,-1992.3,-2141.1,-2220.9,-2126.1,-1973.1,-44311.8,-2140.5,-2075.4,-2096.7,-2096.4,-2588.1,-2355.9,-2394.0,-6.9,-5.7,-2547.3,-2145.0,-0.3,-1901.7,-2552.1,-2298.6,0,72,0,118,0, 
0.0433,-2128.2,-2105.1,-2130.3,-1999.5,-2135.1,-2213.7,-2114.7,-1967.4,-62169.9,-2102.1,-2067.9,-2067.0,-2097.9,-2577.0,-2318.1,-2384.7,-6.9,-5.7,-2548.8,-2128.8,-0.6,-1858.2,-2539.2,-2295.3,0,78,0,119,0, 
0.0467,-2184.6,-2019.9,-2067.9,-1961.1,-2100.0,-2187.6,-2099.1,-1933.8,-106926.3,-2073.0,-1997.1,-1998.3,-2073.6,-2587.8,-2341.2,-2394.0,-6.9,-6.3,-2473.5,-2075.4,-1.2,-1835.4,-2532.3,-2276.1,0,84,0,120,0, 
0.0500,-2139.0,-2072.4,-2074.2,-1980.6,-2120.7,-2201.1,-2098.5,-1949.7,-117078.0,-2103.0,-2027.1,-2047.5,-2084.1,-2580.9,-2332.2,-2367.0,-7.5,-5.7,-2490.9,-2119.8,-0.6,-1855.8,-2521.5,-2285.7,0,90,0,121,0, 
0.0533,-2039.7,-2075.4,-2093.1,-1990.8,-2136.0,-2214.0,-2116.8,-1966.5,-78546.0,-2127.3,-2063.7,-2077.8,-2108.7,-2601.0,-2371.8,-2398.5,-6.9,-5.7,-2534.7,-2140.8,-0.9,-1890.6,-2546.1,-2289.9,0,96,0,122,0, 
0.0567,-2025.0,-2079.9,-2133.0,-2010.0,-2149.5,-2222.7,-2121.0,-1979.1,-44534.1,-2124.0,-2071.2,-2083.2,-2107.5,-2588.1,-2365.2,-2400.0,-6.9,-6.0,-2551.2,-2145.3,-0.6,-1890.3,-2544.3,-2306.4,0,102,0,123,0, 
0.0600,-2108.7,-2058.9,-2076.9,-1984.5,-2125.5,-2206.2,-2108.4,-1955.1,-62614.5,-2091.9,-2031.9,-2044.5,-2088.3,-2580.0,-2341.8,-2393.1,-7.2,-5.7,-2511.3,-2114.1,-0.3,-1855.8,-2532.3,-2294.4,0,108,0,124,0, 
0.0633,-2170.2,-2046.6,-2079.0,-1977.0,-2113.2,-2193.0,-2095.2,-1939.2,-107370.9,-2063.7,-2008.8,-2022.6,-2080.8,-2569.5,-2330.1,-2387.4,-6.6,-5.7,-2477.1,-2093.7,-0.6,-1821.9,-2526.0,-2272.2,0,114,0,125,0, 
0.0667,-2115.0,-2021.7,-2036.7,-1969.5,-2115.9,-2189.4,-2093.1,-1935.3,-117596.7,-2089.2,-2031.3,-2054.7,-2081.4,-2581.2,-2341.8,-2391.6,-6.9,-6.0,-2503.5,-2112.6,-0.6,-1849.2,-2537.1,-2289.0,0,120,0,126,0, 
0.0700,-2040.6,-2113.2,-2154.6,-2017.5,-2147.1,-2207.7,-2109.3,-1970.1,-79212.9,-2102.1,-2088.0,-2102.4,-2055.9,-2588.4,-2352.6,-2389.8,-6.9,-6.3,-2565.9,-2154.3,-0.3,-1876.8,-2535.6,-2298.9,0,126,0,127,0, 
0.0733,-2021.7,-2078.1,-2114.7,-2010.6,-2147.4,-2215.2,-2115.0,-1969.5,-45349.2,-2127.3,-2087.4,-2103.0,-2108.1,-2595.3,-2356.2,-2391.6,-6.9,-5.7,-2555.4,-2157.0,-0.9,-1891.8,-2542.8,-2295.9,0,132,0,128,0, 
0.0767,-2106.9,-2048.4,-2107.5,-2006.7,-2151.9,-2214.6,-2102.4,-1963.8,-63355.5,-2105.4,-2070.9,-2078.1,-2111.1,-2580.0,-2328.3,-2367.6,-6.9,-6.3,-2540.4,-2136.0,-0.9,-1861.8,-2517.9,-2291.4,0,138,0,129,0, 
0.0800,-2166.9,-2031.6,-2063.1,-1972.2,-2115.0,-2188.2,-2094.6,-1934.4,-108556.5,-2060.4,-2028.3,-2032.2,-2055.0,-2575.8,-2339.4,-2401.2,-6.6,-6.0,-2500.2,-2107.2,-0.9,-1824.9,-2541.0,-2279.1,0,144,0,130,0, 
0.0833,-2122.5,-2061.6,-2093.4,-1988.7,-2126.7,-2193.9,-2101.5,-1950.6,-118189.5,-2080.5,-2040.6,-2052.9,-2069.1,-2575.2,-2331.9,-2389.5,-6.9,-6.0,-2522.7,-2119.5,-0.3,-1836.6,-2533.8,-2284.5,0,150,0,131,0, 
0.0867,-2025.3,-2076.6,-2096.1,-1996.5,-2138.4,-2206.8,-2110.8,-1965.3,-79583.4,-2123.4,-2066.7,-2087.4,-2076.9,-2582.4,-2359.8,-2398.8,-7.2,-5.7,-2526.6,-2139.3,-0.6,-1872.3,-2541.9,-2289.6,0,156,0,132,0, 
0.0900,-2019.6,-2080.2,-2112.9,-2007.6,-2154.6,-2216.7,-2114.1,-1977.3,-45571.5,-2124.6,-2093.7,-2108.7,-2096.4,-2585.7,-2345.7,-2379.0,-6.6,-6.0,-2558.4,-2160.6,-0.6,-1882.2,-2537.1,-2294.7,0,162,0,133,0, 
0.0933,-2110.5,-2079.0,-2088.9,-1986.9,-2129.7,-2199.9,-2103.0,-1956.0,-63429.6,-2079.0,-2044.8,-2066.1,-2081.4,-2578.5,-2332.8,-2391.0,-6.6,-5.7,-2504.1,-2118.9,-0.6,-1844.1,-2528.7,-2279.7,0,168,0,134,0, 
0.0967,-2154.6,-1980.3,-2052.3,-1973.7,-2116.8,-2191.8,-2099.1,-1934.4,-108260.1,-2076.9,-2034.3,-2056.5,-2113.2,-2558.1,-2319.9,-2390.1,-6.9,-6.3,-2515.5,-2115.9,-0.6,-1836.3,-2531.7,-2288.4,0,174,0,135,0, 
0.1000,-2121.0,-2052.9,-2089.8,-1983.6,-2116.2,-2193.6,-2097.0,-1942.5,-118337.7,-2082.9,-2064.6,-2074.2,-2055.9,-2570.7,-2324.1,-2384.1,-6.9,-6.0,-2538.6,-2122.8,-0.6,-1847.1,-2535.9,-2284.8,0,180,0,136,0, 
0.1033,-2038.5,-2085.6,-2094.9,-1992.9,-2135.1,-2209.8,-2106.0,-1964.7,-80028.0,-2128.5,-2079.9,-2108.1,-2088.0,-2591.4,-2355.3,-2384.4,-6.9,-6.0,-2528.7,-2155.5,-0.9,-1885.5,-2538.6,-2294.7,0,186,0,137,0, 
0.1067,-2026.5,-2105.1,-2124.9,-2003.7,-2139.9,-2216.1,-2117.7,-1974.3,-46164.3,-2118.0,-2096.4,-2107.8,-2082.3,-2596.2,-2367.3,-2409.0,-6.9,-6.3,-2577.3,-2153.4,-0.6,-1886.1,-2560.5,-2295.6,0,192,0,138,0, 
0.1100,-2107.5,-2075.1,-2090.7,-1991.1,-2127.9,-2207.4,-2103.0,-1958.7,-64392.9,-2086.2,-2057.7,-2072.7,-2085.3,-2587.5,-2337.9,-2398.8,-7.2,-5.7,-2505.0,-2136.0,-0.9,-1854.0,-2543.4,-2288.1,0,198,0,139,0, 
0.1133,-2164.2,-2026.5,-2040.3,-1974.9,-2109.9,-2196.9,-2094.3,-1937.1,-108704.7,-2076.9,-2054.4,-2076.0,-2076.3,-2586.0,-2335.8,-2395.2,-7.2,-5.7,-2541.6,-2127.6,-0.6,-1839.6,-2541.0,-2283.9,0,204,0,140,0, 
0.1167,-2115.6,-2051.4,-2083.8,-1988.1,-2121.3,-2204.7,-2098.5,-1948.8,-118708.2,-2095.8,-2063.4,-2088.0,-2087.4,-2585.7,-2341.5,-2394.6,-7.2,-6.0,-2527.2,-2145.9,-0.6,-1858.8,-2546.4,-2293.5,0,210,0,141,0, 
0.1200,-2027.4,-2091.6,-2141.7,-2016.3,-2145.6,-2229.6,-2118.6,-1974.3,-80917.2,-2130.0,-2115.0,-2121.6,-2137.2,-2601.0,-2364.6,-2400.9,-6.9,-6.0,-2581.8,-2171.1,-0.9,-1896.9,-2555.7,-2312.7,0,216,0,142,0, 
0.1233,-2033.7,-2094.0,-2133.0,-2020.8,-2159.7,-2234.4,-2125.5,-1982.4,-46831.2,-2138.4,-2115.0,-2133.0,-2113.5,-2611.8,-2367.3,-2403.0,-6.9,-6.0,-2560.8,-2187.9,-0.6,-1905.9,-2558.4,-2328.3,0,222,0,143,0, 
0.1267,-2120.1,-2070.3,-2073.3,-2001.6,-2151.3,-2226.9,-2120.4,-1965.0,-64837.5,-2128.8,-2085.6,-2111.4,-2114.1,-2607.6,-2358.3,-2401.5,-6.9,-6.3,-2532.0,-2169.9,-0.6,-1888.2,-2558.4,-2321.1,0,228,0,144,0, 
0.1300,-2183.1,-2086.8,-2109.9,-2001.3,-2136.9,-2214.3,-2105.1,-1953.6,-109816.2,-2084.4,-2067.9,-2085.9,-2078.1,-2600.4,-2340.9,-2394.0,-7.2,-6.0,-2538.3,-2156.1,-0.3,-1857.3,-2545.2,-2295.0,0,234,0,145,0, 
0.1333,-2123.4,-2047.5,-2101.5,-2003.1,-2140.8,-2217.6,-2107.2,-1955.4,-119671.5,-2120.4,-2093.7,-2113.2,-2102.4,-2599.2,-2349.0,-2392.2,-6.9,-5.4,-2542.5,-2164.2,-0.3,-1879.8,-2551.5,-2313.9,0,240,0,146,0, 
0.1367,-2042.7,-2117.7,-2135.7,-2026.5,-2161.2,-2234.1,-2120.1,-1983.0,-81435.9,-2150.1,-2127.3,-2144.4,-2103.0,-2618.4,-2371.5,-2405.1,-6.9,-6.0,-2580.3,-2193.3,-0.6,-1912.2,-2555.4,-2320.8,0,246,0,147,0, 
0.1400,-2032.2,-2106.0,-2135.1,-2021.1,-2167.5,-2241.9,-2126.7,-1989.3,-47127.6,-2159.4,-2121.3,-2142.0,-2115.6,-2620.8,-2372.1,-2408.4,-6.6,-6.0,-2582.7,-2192.7,-0.6,-1922.7,-2562.0,-2321.1,0,252,0,148,0, 
0.1433,-2113.2,-2063.1,-2100.6,-2009.4,-2153.4,-2229.0,-2110.2,-1969.2,-65356.2,-2122.5,-2109.6,-2125.5,-2112.0,-2609.4,-2352.3,-2396.1,-6.9,-6.0,-2575.8,-2174.7,-0.6,-1887.6,-2548.5,-2305.5,0,258,0,149,0, 
0.1467,-2168.7,-2031.9,-2097.3,-2000.7,-2134.8,-2214.6,-2096.4,-1955.4,-109890.3,-2089.2,-2088.6,-2102.4,-2087.7,-2596.8,-2335.2,-2384.4,-7.2,-5.4,-2561.7,-2155.2,-0.3,-1856.4,-2532.6,-2296.2,0,264,0,150,0, 
0.1500,-2126.1,-2097.3,-2076.0,-1996.2,-2133.6,-2208.9,-2095.5,-1957.8,-119893.8,-2106.0,-2091.6,-2109.3,-2076.0,-2597.4,-2343.6,-2391.6,-6.9,-6.0,-2569.5,-2166.3,-0.6,-1863.9,-2544.6,-2292.9,0,270,0,151,0, 
0.1533,-2030.7,-2100.3,-2151.0,-2021.4,-2155.2,-2223.6,-2115.6,-1979.1,-80991.3,-2128.2,-2127.0,-2149.2,-2092.2,-2599.8,-2364.3,-2397.0,-7.2,-6.0,-2578.5,-2196.6,-0.9,-1901.4,-2555.7,-2307.0,0,276,0,152,0, 
0.1567,-2016.3,-2064.0,-2116.2,-2016.3,-2162.4,-2237.1,-2118.0,-1977.0,-47201.7,-2162.7,-2135.7,-2148.3,-2117.7,-2600.7,-2370.3,-2405.7,-6.9,-6.0,-2590.8,-2196.6,-0.6,-1917.9,-2561.7,-2316.3,0,282,0,153,0, 
0.1600,-2123.4,-2111.1,-2081.1,-1998.3,-2136.9,-2215.8,-2101.5,-1961.1,-64837.5,-2091.9,-2089.8,-2107.2,-2097.3,-2599.5,-2343.3,-2382.6,-6.9,-6.6,-2543.1,-2158.5,-0.6,-1867.2,-2531.4,-2294.4,0,288,0,154,0, 
0.1633,-2163.0,-2030.4,-2054.1,-1979.4,-2119.5,-2200.2,-2091.3,-1936.5,-109297.5,-2093.7,-2061.6,-2085.3,-2074.2,-2586.0,-2336.1,-2394.9,-6.9,-6.0,-2503.2,-2142.3,-0.3,-1850.1,-2541.0,-2291.4,0,294,0,155,0, 
0.1667,-2119.8,-2088.3,-2139.3,-2006.1,-2129.1,-2200.2,-2091.3,-1952.4,-119152.8,-2081.4,-2097.9,-2101.8,-2072.4,-2586.3,-2334.3,-2381.1,-6.9,-5.7,-2575.8,-2152.2,-0.6,-1854.6,-2530.5,-2285.4,0,300,0,156,0, 
0.1700,-2013.3,-2076.6,-2133.6,-2008.2,-2146.8,-2220.0,-2103.9,-1966.8,-80176.2,-2147.4,-2111.1,-2145.0,-2129.7,-2591.1,-2361.6,-2391.9,-6.6,-5.7,-2559.9,-2184.3,-0.9,-1907.4,-2551.8,-2303.4,0,306,0,157,0, 
0.1733,-2019.3,-2080.5,-2115.3,-2006.7,-2142.3,-2219.7,-2108.1,-1969.2,-46534.8,-2127.3,-2122.5,-2137.2,-2080.8,-2595.9,-2361.0,-2394.6,-6.6,-5.7,-2581.8,-2173.5,-0.6,-1899.0,-2550.0,-2300.4,0,312,0,158,0, 
0.1767,-2090.4,-2049.3,-2070.3,-1981.5,-2122.5,-2204.1,-2095.2,-1947.6,-64689.3,-2097.9,-2080.8,-2093.7,-2115.3,-2580.3,-2342.1,-2394.0,-6.9,-6.3,-2542.8,-2146.2,-0.9,-1860.9,-2543.4,-2289.9,0,318,0,159,0, 
0.1800,-2151.0,-2015.4,-2038.8,-1959.0,-2100.6,-2186.4,-2079.3,-1925.1,-108927.0,-2082.9,-2042.7,-2059.8,-2058.3,-2573.1,-2330.7,-2383.5,-6.9,-6.0,-2492.1,-2126.4,-0.9,-1841.4,-2526.3,-2275.2,0,324,0,160,0, 
0.1833,-2110.8,-2016.9,-2090.1,-1975.8,-2112.0,-2196.6,-2083.8,-1935.3,-118263.6,-2085.9,-2080.2,-2086.5,-2062.2,-2577.0,-2333.7,-2381.4,-6.9,-5.7,-2544.3,-2149.2,0.0,-1848.3,-2526.6,-2286.3,0,330,0,161,0, 
0.1867,-2032.2,-2124.6,-2135.1,-2009.7,-2140.5,-2217.0,-2102.1,-1970.4,-79805.7,-2114.1,-2114.4,-2131.5,-2071.2,-2586.3,-2337.9,-2378.1,-6.9,-5.7,-2562.6,-2182.5,0.0,-1883.7,-2535.9,-2305.8,0,336,0,162,0, 
0.1900,-2012.7,-2064.6,-2121.9,-2007.6,-2146.8,-2223.3,-2109.3,-1970.7,-45645.6,-2135.7,-2111.1,-2136.6,-2094.3,-2586.9,-2350.2,-2388.6,-6.9,-6.0,-2538.0,-2184.9,-0.6,-1890.9,-2543.1,-2304.6,0,342,0,163,0, 
0.1933,-2099.4,-2088.9,-2094.9,-1989.0,-2124.9,-2205.6,-2093.1,-1950.6,-63651.9,-2101.5,-2073.3,-2103.0,-2070.9,-2581.5,-2333.1,-2378.1,-6.9,-5.7,-2547.6,-2154.0,-0.6,-1853.7,-2529.6,-2283.0,0,348,0,164,0, 
0.1967,-2154.0,-2002.2,-2037.3,-1962.0,-2108.1,-2195.7,-2082.6,-1926.0,-107815.5,-2061.9,-2061.6,-2080.2,-2056.2,-2571.9,-2319.0,-2377.5,-6.6,-6.0,-2528.1,-2135.1,-0.9,-1824.6,-2521.5,-2275.8,0,354,0,165,0, 
0.2000,-2110.2,-2053.5,-2078.7,-1976.1,-2110.5,-2198.1,-2084.4,-1934.1,-117152.1,-2077.8,-2070.3,-2094.6,-2051.7,-2571.9,-2328.3,-2378.4,-7.2,-5.7,-2520.3,-2143.2,-0.6,-1837.2,-2524.8,-2274.6,0,360,0,166,0, 
0.2033,-2023.8,-2071.8,-2078.1,-1989.6,-2132.1,-2218.8,-2102.1,-1956.3,-78620.1,-2112.9,-2108.4,-2127.6,-2075.4,-2587.8,-2348.1,-2387.4,-7.2,-6.0,-2561.1,-2177.4,-0.3,-1879.8,-2535.6,-2289.0,0,366,0,167,0, 
0.2067,-2014.2,-2065.2,-2093.7,-1996.5,-2145.6,-2229.6,-2117.1,-1963.5,-44682.3,-2131.5,-2113.2,-2131.5,-2099.4,-2589.6,-2349.0,-2396.4,-6.9,-6.0,-2563.2,-2171.4,-0.6,-1890.0,-2545.8,-2298.9,0,372,0,168,0, 
0.2100,-2107.8,-2074.8,-2110.5,-1993.8,-2134.2,-2215.5,-2100.3,-1953.9,-62910.9,-2082.6,-2079.9,-2101.5,-2073.0,-2580.6,-2328.6,-2385.3,-6.9,-5.4,-2528.1,-2152.2,-0.6,-1848.3,-2532.0,-2286.6,0,378,0,169,0, 
0.2133,-2161.2,-2047.8,-2072.7,-1973.4,-2119.2,-2200.2,-2087.1,-1934.7,-107074.5,-2061.0,-2050.2,-2079.0,-2060.1,-2576.1,-2327.4,-2386.8,-6.9,-6.0,-2491.5,-2139.9,-0.9,-1822.8,-2521.2,-2278.5,0,384,0,170,0, 
0.2167,-2115.9,-2039.1,-2039.1,-1970.7,-2120.1,-2199.6,-2089.8,-1934.4,-117003.9,-2088.0,-2074.2,-2102.1,-2072.4,-2584.2,-2322.3,-2381.4,-6.9,-6.0,-2538.0,-2151.0,-0.6,-1845.0,-2527.5,-2286.3,0,390,0,171,0, 
0.2200,-2018.4,-2067.0,-2105.4,-1998.0,-2138.7,-2219.4,-2108.1,-1959.6,-78175.5,-2131.5,-2109.0,-2130.9,-2070.6,-2585.7,-2352.9,-2392.8,-6.6,-6.0,-2544.0,-2178.0,-0.6,-1882.5,-2546.1,-2292.9,0,396,0,172,0, 
0.2233,-2009.7,-2084.4,-2098.8,-1993.2,-2135.4,-2215.2,-2110.2,-1964.1,-43793.1,-2108.1,-2085.3,-2123.7,-2104.8,-2588.1,-2349.9,-2399.4,-6.9,-6.0,-2515.2,-2168.7,-0.6,-1877.7,-2547.6,-2290.2,0,402,0,173,0, 
0.2267,-2082.9,-2012.4,-2017.2,-1968.9,-2120.1,-2208.0,-2099.4,-1938.0,-61799.4,-2117.7,-2060.4,-2097.0,-2125.2,-2578.5,-2339.4,-2383.8,-6.9,-6.0,-2497.5,-2150.7,-0.3,-1863.6,-2532.6,-2291.7,0,408,0,174,0, 
0.2300,-2169.9,-2047.2,-2110.5,-1976.1,-2102.4,-2187.6,-2077.5,-1928.1,-106185.3,-2042.4,-2067.9,-2079.6,-2035.5,-2598.6,-2322.9,-2361.9,-6.6,-6.0,-2540.4,-2118.9,-0.3,-1820.7,-2507.7,-2266.2,0,414,0,175,0, 
0.2333,-2102.4,-1993.8,-2035.2,-1953.6,-2097.3,-2190.9,-2086.8,-1920.9,-115670.1,-2088.6,-2054.1,-2080.2,-2069.7,-2583.3,-2331.3,-2384.1,-7.2,-5.7,-2493.9,-2130.9,-0.3,-1844.1,-2528.7,-2273.1,0,420,0,176,0, 
0.2367,-2020.2,-2112.6,-2115.6,-1990.5,-2122.5,-2211.3,-2102.1,-1956.6,-77212.2,-2108.7,-2098.2,-2112.9,-2055.9,-2592.3,-2339.4,-2376.3,-7.5,-6.3,-2560.2,-2159.4,-0.3,-1870.5,-2543.4,-2286.0,0,426,0,177,0, 
0.2400,-2007.6,-2042.4,-2046.9,-1971.6,-2128.5,-2215.2,-2110.5,-1951.5,-43052.1,-2125.8,-2084.4,-2118.0,-2097.6,-2595.0,-2349.0,-2393.7,-7.2,-6.0,-2526.3,-2162.1,-0.3,-1891.5,-2554.2,-2289.0,0,432,0,178,0, 
0.2433,-2104.8,-2086.2,-2096.4,-1972.5,-2109.9,-2196.3,-2100.0,-1943.7,-61354.8,-2079.3,-2048.4,-2083.8,-2061.6,-2585.1,-2337.0,-2392.2,-6.9,-5.7,-2496.3,-2127.9,-0.9,-1841.4,-2542.2,-2275.5,0,438,0,179,0, 
0.2467,-2159.1,-2023.8,-2051.1,-1952.4,-2088.0,-2176.2,-2085.6,-1918.8,-106185.3,-2058.3,-2040.9,-2067.3,-2056.2,-2571.0,-2310.6,-2387.1,-6.6,-5.7,-2515.2,-2114.4,-0.6,-1817.4,-2532.3,-2265.6,0,444,0,180,0, 
0.2500,-2118.3,-2047.2,-2058.9,-1960.5,-2099.4,-2184.6,-2091.0,-1929.6,-115447.8,-2092.2,-2051.4,-2086.2,-2070.0,-2588.1,-2324.4,-2373.9,-6.9,-5.7,-2485.8,-2129.4,-0.3,-1845.9,-2524.5,-2270.4,0,450,0,181,0, 
0.2533,-2023.8,-2062.8,-2076.9,-1974.3,-2116.5,-2202.0,-2102.7,-1947.3,-76323.0,-2101.8,-2086.2,-2108.4,-2085.9,-2583.0,-2343.3,-2393.7,-6.9,-6.0,-2540.1,-2147.4,-0.3,-1875.3,-2543.7,-2277.6,0,456,0,182,0, 
0.2567,-2016.9,-2071.8,-2107.2,-1986.6,-2124.3,-2207.1,-2106.9,-1956.9,-42607.5,-2114.1,-2092.2,-2111.1,-2082.3,-2592.3,-2352.0,-2392.8,-6.9,-6.0,-2542.8,-2148.6,-0.9,-1877.1,-2543.7,-2280.3,0,462,0,183,0, 
0.2600,-2107.2,-2045.1,-2049.3,-1961.4,-2103.0,-2190.3,-2092.2,-1938.0,-60836.1,-2072.1,-2060.1,-2076.0,-2063.7,-2586.3,-2333.7,-2379.3,-6.6,-5.1,-2499.9,-2121.3,-0.9,-1841.4,-2522.4,-2279.7,0,468,0,184,0, 
0.2633,-2170.8,-2034.6,-2054.1,-1957.2,-2088.9,-2180.4,-2083.8,-1924.8,-105370.2,-2062.2,-2034.9,-2055.0,-2062.2,-2586.9,-2331.3,-2382.0,-7.2,-5.7,-2488.2,-2108.1,-0.6,-1819.8,-2524.5,-2269.5,0,474,0,185,0, 
0.2667,-2116.8,-2021.7,-2059.5,-1957.2,-2093.7,-2184.9,-2086.2,-1928.1,-114855.0,-2081.7,-2061.0,-2074.2,-2073.3,-2585.7,-2337.3,-2385.0,-6.9,-6.0,-2516.1,-2119.8,-0.6,-1848.3,-2532.0,-2262.9,0,480,0,186,0, 
0.2700,-2015.7,-2049.0,-2065.5,-1969.5,-2109.9,-2205.0,-2100.3,-1944.6,-76471.2,-2121.9,-2080.2,-2107.8,-2133.0,-2586.0,-2363.4,-2393.7,-7.2,-6.0,-2524.2,-2150.1,-0.6,-1879.8,-2544.3,-2270.7,0,486,0,187,0, 
0.2733,-2010.9,-2023.8,-2112.3,-1981.2,-2121.0,-2212.5,-2107.8,-1948.2,-42755.7,-2120.1,-2100.6,-2127.3,-2085.0,-2600.4,-2367.0,-2401.8,-6.9,-6.0,-2549.1,-2150.1,-0.6,-1883.1,-2545.5,-2275.8,0,492,0,188,0, 
0.2767,-2106.0,-2052.9,-2060.1,-1962.9,-2104.5,-2199.9,-2090.4,-1936.5,-61206.6,-2089.5,-2059.2,-2083.5,-2048.7,-2591.1,-2347.2,-2385.9,-6.9,-6.0,-2500.8,-2124.3,-0.6,-1846.5,-2529.3,-2267.1,0,498,0,189,0, 
0.2800,-2156.7,-2039.7,-2034.9,-1949.4,-2092.8,-2187.9,-2079.6,-1920.0,-105740.7,-2060.4,-2032.8,-2067.9,-2048.4,-2584.8,-2332.2,-2380.8,-6.9,-5.7,-2487.3,-2108.4,-1.2,-1828.2,-2524.2,-2265.0,0,504,0,190,0, 
0.2833,-2102.1,-2070.0,-2099.1,-1973.1,-2106.3,-2194.5,-2080.5,-1935.6,-114632.7,-2079.0,-2059.5,-2095.2,-2053.2,-2576.7,-2340.0,-2376.0,-6.9,-6.0,-2516.7,-2136.3,-0.6,-1846.2,-2525.1,-2269.8,0,510,0,191,0, 
0.2867,-2016.3,-2072.1,-2082.0,-1970.7,-2113.5,-2206.2,-2096.7,-1950.3,-75952.5,-2106.3,-2079.0,-2106.0,-2070.0,-2595.6,-2361.6,-2393.1,-6.9,-6.0,-2496.0,-2136.0,-0.6,-1876.8,-2539.5,-2271.9,0,516,0,192,0, 
0.2900,-1998.6,-2031.0,-2040.3,-1968.3,-2124.6,-2215.2,-2105.4,-1951.5,-42237.0,-2137.5,-2098.2,-2119.5,-2102.4,-2580.9,-2356.2,-2389.2,-6.9,-5.7,-2531.1,-2153.7,-0.6,-1886.4,-2546.1,-2280.9,0,522,0,193,0, 
0.2933,-2101.8,-2072.7,-2074.2,-1966.5,-2110.5,-2202.9,-2092.2,-1942.8,-60762.0,-2084.7,-2066.4,-2085.6,-2061.0,-2588.7,-2334.0,-2367.0,-6.6,-6.0,-2557.5,-2123.7,-0.9,-1848.6,-2521.2,-2266.5,0,528,0,194,0, 
0.2967,-2146.5,-1985.7,-2049.6,-1951.5,-2099.7,-2190.0,-2083.8,-1919.4,-104851.5,-2078.4,-2047.2,-2070.6,-2070.0,-2570.1,-2331.6,-2385.9,-7.2,-5.7,-2504.4,-2116.8,-0.9,-1841.4,-2530.2,-2271.0,0,534,0,195,0, 
0.3000,-2116.8,-2069.7,-2059.5,-1956.6,-2095.8,-2185.5,-2088.3,-1926.6,-114039.9,-2078.1,-2060.4,-2084.7,-2048.1,-2589.9,-2337.3,-2376.9,-6.9,-5.7,-2531.1,-2123.4,-0.9,-1845.0,-2532.9,-2266.2,0,540,0,196,0, 
0.3033,-2013.6,-2039.7,-2089.2,-1977.0,-2116.8,-2203.5,-2100.9,-1944.3,-75137.4,-2122.8,-2105.7,-2136.3,-2085.6,-2592.6,-2357.1,-2387.4,-6.9,-5.7,-2547.6,-2162.7,-0.6,-1888.5,-2554.5,-2284.8,0,546,0,197,0, 
0.3067,-2016.6,-2094.0,-2099.4,-1980.9,-2127.6,-2214.0,-2106.9,-1956.3,-41051.4,-2127.6,-2085.9,-2119.5,-2097.9,-2597.1,-2363.4,-2385.6,-6.9,-5.4,-2519.4,-2147.1,-0.6,-1883.7,-2543.4,-2282.7,0,552,0,198,0, 
0.3100,-2104.8,-2031.0,-2059.5,-1964.7,-2114.7,-2200.2,-2093.1,-1932.6,-59428.2,-2100.0,-2076.0,-2102.7,-2088.9,-2601.3,-2349.0,-2376.9,-6.6,-5.4,-2541.6,-2135.4,-0.9,-1857.3,-2535.3,-2284.2,0,558,0,199,0, 
0.3133,-2154.6,-2046.6,-2063.1,-1955.1,-2095.5,-2184.9,-2082.0,-1920.6,-104110.5,-2059.5,-2036.7,-2069.7,-2053.2,-2581.5,-2323.8,-2369.1,-6.9,-5.7,-2471.4,-2108.7,-0.9,-1827.3,-2532.0,-2273.4,0,564,0,200,0, 
0.3167,-2106.6,-2038.8,-2085.6,-1966.2,-2103.6,-2185.8,-2082.6,-1929.3,-112706.1,-2079.6,-2064.9,-2098.5,-2058.9,-2586.3,-2337.6,-2372.1,-6.9,-6.0,-2530.2,-2129.7,-0.6,-1849.2,-2535.9,-2272.5,0,570,0,201,0, 
0.3200,-2018.1,-2076.0,-2081.7,-1976.7,-2121.6,-2201.7,-2097.6,-1947.6,-74025.9,-2123.7,-2100.3,-2124.0,-2108.4,-2588.1,-2357.7,-2375.4,-6.6,-6.0,-2546.1,-2154.6,-0.6,-1888.5,-2545.8,-2277.0,0,576,0,202,0, 
0.3233,-2007.3,-2062.5,-2124.6,-1987.5,-2127.9,-2208.0,-2092.5,-1959.6,-40384.5,-2122.5,-2106.0,-2125.2,-2088.9,-2585.1,-2351.7,-2370.0,-6.9,-6.0,-2558.1,-2165.4,-0.9,-1883.7,-2532.0,-2293.2,0,582,0,203,0, 
0.3267,-2106.6,-2068.8,-2082.9,-1964.7,-2103.6,-2196.6,-2090.1,-1942.8,-58983.6,-2072.7,-2052.0,-2071.5,-2050.5,-2585.4,-2338.5,-2367.3,-6.9,-5.7,-2494.8,-2116.5,-0.9,-1837.8,-2525.4,-2261.7,0,588,0,204,0, 
0.3300,-2145.9,-1952.1,-2047.5,-1946.4,-2091.6,-2183.7,-2075.1,-1916.4,-103591.8,-2072.7,-2035.5,-2066.4,-2076.0,-2573.7,-2324.1,-2359.5,-7.2,-6.0,-2487.3,-2110.8,-0.9,-1825.8,-2517.9,-2257.2,0,594,0,205,0, 
0.3333,-2097.9,-2038.2,-2025.9,-1939.5,-2085.3,-2183.7,-2079.9,-1920.0,-113224.8,-2081.4,-2038.5,-2077.5,-2059.8,-2569.5,-2334.9,-2373.6,-6.9,-6.0,-2481.0,-2117.7,-0.6,-1834.2,-2522.4,-2257.5,0,600,0,206,0, 
0.3367,-2005.5,-2013.3,-2047.8,-1955.4,-2106.9,-2199.9,-2094.6,-1936.8,-74470.5,-2129.4,-2081.1,-2109.0,-2066.1,-2575.2,-2351.1,-2380.2,-6.9,-5.4,-2529.9,-2145.3,-0.6,-1873.2,-2536.8,-2268.9,0,606,0,207,0, 
0.3400,-2017.2,-2124.3,-2138.1,-1981.8,-2120.1,-2209.5,-2095.8,-1962.3,-40680.9,-2093.4,-2078.4,-2111.1,-2080.8,-2576.1,-2341.8,-2363.7,-6.6,-6.0,-2501.1,-2143.2,0.0,-1859.4,-2523.6,-2262.0,0,612,0,208,0, 
0.3433,-2091.9,-2037.6,-2075.1,-1962.3,-2103.3,-2194.8,-2083.8,-1935.9,-58835.4,-2078.1,-2067.3,-2085.0,-2052.6,-2564.7,-2313.6,-2358.9,-6.6,-6.0,-2545.5,-2119.5,-0.9,-1839.3,-2520.0,-2261.1,0,618,0,209,0, 
0.3467,-2152.5,-2041.2,-2067.0,-1946.4,-2084.7,-2175.6,-2069.7,-1918.5,-103591.8,-2045.4,-2029.2,-2056.5,-2045.4,-2571.0,-2325.3,-2349.9,-6.9,-6.0,-2468.4,-2103.3,-0.9,-1810.2,-2500.8,-2250.9,0,624,0,210,0, 
0.3500,-2093.4,-2015.4,-2054.1,-1944.6,-2084.1,-2179.2,-2072.1,-1917.9,-112632.0,-2063.7,-2048.1,-2067.6,-2071.5,-2563.8,-2329.2,-2356.5,-6.9,-6.0,-2511.3,-2110.8,-0.9,-1825.5,-2519.1,-2253.6,0,630,0,211,0, 
0.3533,-1998.0,-2013.0,-2020.8,-1951.5,-2100.3,-2199.0,-2090.1,-1932.0,-73951.8,-2123.7,-2079.9,-2106.6,-2080.2,-2575.2,-2340.9,-2364.9,-6.6,-5.7,-2529.3,-2139.9,-0.6,-1870.2,-2532.9,-2269.5,0,636,0,212,0, 
0.3567,-2001.6,-2042.7,-2051.1,-1958.7,-2105.4,-2196.3,-2098.2,-1939.8,-40162.2,-2108.7,-2091.0,-2113.8,-2077.2,-2585.1,-2354.7,-2378.1,-6.9,-6.0,-2540.1,-2139.6,-0.6,-1866.0,-2542.5,-2279.4,0,642,0,213,0, 
0.3600,-2098.8,-2074.5,-2078.1,-1956.6,-2096.1,-2189.7,-2091.9,-1936.2,-58909.5,-2071.5,-2048.4,-2079.3,-2066.1,-2576.4,-2333.1,-2378.7,-7.2,-5.7,-2506.2,-2120.7,-0.6,-1830.0,-2532.6,-2266.8,0,648,0,214,0, 
0.3633,-2154.9,-2024.7,-2067.6,-1945.5,-2082.3,-2175.6,-2077.5,-1915.2,-103369.5,-2036.4,-2033.1,-2047.5,-2040.9,-2565.0,-2320.5,-2367.3,-6.9,-6.0,-2481.3,-2099.1,-0.6,-1814.4,-2521.5,-2252.7,0,654,0,215,0, 
0.3667,-2105.7,-2028.3,-2056.8,-1945.5,-2085.6,-2181.3,-2079.6,-1922.4,-113002.5,-2070.3,-2041.5,-2074.5,-2074.8,-2571.6,-2322.9,-2359.5,-6.9,-5.7,-2487.9,-2116.5,-0.9,-1837.5,-2523.9,-2259.3,0,660,0,216,0, 
0.3700,-2000.7,-1963.2,-2082.3,-1974.6,-2126.1,-2217.3,-2102.7,-1944.0,-73803.6,-2130.6,-2102.4,-2132.4,-2133.3,-2579.7,-2355.9,-2375.4,-7.2,-6.0,-2559.9,-2163.6,-0.6,-1884.9,-2540.4,-2286.3,0,666,0,217,0, 
0.3733,-2014.2,-2084.7,-2049.9,-1968.6,-2124.6,-2219.1,-2099.4,-1952.7,-40532.7,-2112.6,-2086.5,-2116.5,-2075.4,-2585.1,-2340.0,-2364.0,-6.6,-5.7,-2534.1,-2149.8,-0.9,-1871.1,-2523.0,-2274.6,0,672,0,218,0, 
0.3767,-2097.0,-2054.4,-2079.3,-1969.8,-2118.3,-2212.5,-2095.5,-1942.2,-59354.1,-2080.5,-2055.9,-2085.9,-2058.9,-2557.8,-2320.2,-2373.3,-6.9,-6.0,-2486.4,-2132.4,-0.9,-1847.7,-2539.2,-2278.8,0,678,0,219,0, 
0.3800,-2165.7,-2059.2,-2053.8,-1945.5,-2090.4,-2186.1,-2072.4,-1917.0,-104184.6,-2035.2,-2022.6,-2061.0,-2027.1,-2572.8,-2316.3,-2352.0,-7.5,-5.7,-2480.4,-2110.2,-0.6,-1800.3,-2508.0,-2253.6,0,684,0,220,0, 
0.3833,-2099.1,-2022.3,-2065.5,-1953.0,-2099.7,-2192.4,-2083.8,-1926.0,-113002.5,-2067.0,-2038.8,-2082.0,-2043.9,-2566.2,-2332.2,-2379.3,-7.2,-6.0,-2461.8,-2119.2,-0.6,-1833.6,-2530.5,-2264.1,0,690,0,221,0, 
0.3867,-2008.8,-2055.9,-2078.1,-1968.0,-2119.2,-2208.6,-2094.3,-1943.1,-74618.7,-2100.0,-2079.0,-2117.7,-2070.0,-2577.6,-2341.5,-2374.5,-6.9,-6.0,-2522.1,-2148.3,-0.9,-1865.7,-2533.2,-2270.4,0,696,0,222,0, 
0.3900,-2014.8,-2053.5,-2082.3,-1980.0,-2133.9,-2219.7,-2103.6,-1955.4,-41421.9,-2114.1,-2086.5,-2125.8,-2080.8,-2589.0,-2347.8,-2373.9,-6.9,-5.7,-2518.8,-2151.3,-0.6,-1874.7,-2541.6,-2278.5,0,702,0,223,0, 
0.3933,-2103.0,-2062.8,-2080.8,-1967.7,-2113.5,-2202.9,-2085.9,-1940.7,-60539.7,-2073.9,-2045.1,-2074.2,-2074.2,-2570.4,-2319.9,-2358.9,-6.9,-6.0,-2499.0,-2113.2,-0.9,-1833.0,-2523.6,-2257.8,0,708,0,224,0, 
0.3967,-2148.6,-1987.2,-2006.1,-1940.1,-2089.8,-2182.2,-2070.9,-1905.9,-105592.5,-2056.5,-2036.1,-2056.5,-2070.0,-2563.5,-2315.4,-2356.8,-7.2,-5.7,-2497.2,-2097.0,-0.6,-1813.8,-2512.2,-2253.9,0,714,0,225,0, 
0.4000,-2104.5,-2044.2,-2071.5,-1958.7,-2100.3,-2188.5,-2074.2,-1923.3,-115299.6,-2073.3,-2058.3,-2085.6,-2062.2,-2564.4,-2321.4,-2356.8,-6.6,-6.0,-2511.6,-2123.4,-0.6,-1833.9,-2513.7,-2254.8,0,720,0,226,0, 
0.4033,-2015.1,-2058.9,-2088.3,-1977.0,-2126.7,-2207.1,-2094.3,-1939.8,-76619.4,-2117.1,-2102.1,-2136.6,-2078.4,-2568.9,-2332.5,-2370.6,-6.6,-5.4,-2533.5,-2162.1,-0.3,-1873.5,-2532.6,-2269.8,0,726,0,227,0, 
0.4067,-2004.9,-2052.0,-2097.9,-1986.0,-2134.8,-2218.2,-2104.2,-1951.2,-44015.4,-2112.6,-2096.1,-2146.8,-2081.7,-2571.0,-2343.0,-2381.1,-6.9,-6.0,-2526.9,-2169.0,-0.6,-1878.3,-2548.8,-2278.5,0,732,0,228,0, 
0.4100,-2087.1,-2010.3,-2065.8,-1973.7,-2123.7,-2206.8,-2097.0,-1939.2,-63429.6,-2079.0,-2055.3,-2097.9,-2082.6,-2550.9,-2306.4,-2355.3,-6.9,-5.4,-2501.1,-2135.1,-0.9,-1853.1,-2530.2,-2278.5,0,738,0,229,0, 
0.4133,-2168.7,-2065.2,-2070.0,-1960.8,-2100.9,-2190.0,-2075.7,-1926.3,-108556.5,-2043.3,-2009.4,-2061.3,-2032.2,-2566.5,-2301.6,-2327.7,-6.6,-5.7,-2441.1,-2106.6,-0.6,-1817.7,-2507.4,-2261.1,0,744,0,230,0, 
0.4167,-2100.6,-2011.2,-2003.1,-1940.1,-2094.9,-2185.2,-2079.9,-1912.8,-118263.6,-2058.9,-2033.7,-2083.8,-2043.3,-2553.6,-2323.8,-2370.9,-6.9,-5.7,-2470.8,-2121.9,-0.9,-1831.2,-2527.8,-2257.2,0,750,0,231,0, 
0.4200,-2016.3,-2025.6,-2097.3,-1969.5,-2114.7,-2204.4,-2095.5,-1941.6,-79953.9,-2097.0,-2064.6,-2117.4,-2054.4,-2566.5,-2329.5,-2376.6,-6.6,-6.3,-2512.2,-2149.2,-0.3,-1863.9,-2536.8,-2268.6,0,756,0,232,0, 
0.4233,-2000.7,-2021.4,-2060.4,-1964.7,-2120.1,-2204.1,-2097.6,-1938.6,-47498.1,-2095.2,-2066.1,-2124.3,-2089.8,-2567.4,-2344.8,-2366.7,-6.9,-6.0,-2476.2,-2149.8,-0.6,-1870.8,-2524.2,-2266.2,0,762,0,233,0, 
0.4267,-2085.0,-1997.4,-2028.3,-1953.0,-2106.0,-2195.7,-2085.3,-1926.6,-67431.0,-2078.7,-2044.2,-2083.2,-2056.8,-2559.0,-2319.9,-2362.2,-6.9,-6.0,-2496.0,-2127.0,-0.3,-1834.8,-2521.5,-2262.0,0,768,0,234,0, 
0.4300,-2164.8,-2045.4,-2019.9,-1948.2,-2089.2,-2173.8,-2072.7,-1913.7,-112187.4,-2031.3,-2015.4,-2062.2,-2023.2,-2555.1,-2306.1,-2358.0,-7.2,-6.0,-2449.8,-2111.7,-1.2,-1802.1,-2518.8,-2246.4,0,774,0,235,0, 
0.4333,-2091.6,-2035.2,-2122.8,-1977.0,-2104.8,-2185.5,-2079.6,-1926.0,-122190.9,-2050.8,-2050.2,-2081.4,-2071.2,-2533.8,-2307.6,-2363.4,-6.9,-5.7,-2498.7,-2117.4,-0.6,-1825.2,-2525.7,-2255.7,0,780,0,236,0, 
0.4367,-2020.8,-2063.4,-2078.4,-1972.5,-2112.9,-2199.0,-2087.4,-1943.4,-83807.1,-2081.7,-2059.2,-2108.7,-2001.6,-2572.2,-2336.1,-2369.7,-6.9,-5.7,-2471.4,-2142.9,0.0,-1852.8,-2527.5,-2268.3,0,786,0,237,0, 
0.4400,-2013.3,-2046.9,-2060.4,-1972.5,-2118.6,-2202.6,-2091.6,-1948.2,-51351.3,-2094.6,-2078.4,-2113.5,-2052.9,-2578.8,-2346.3,-2366.1,-6.9,-5.7,-2520.6,-2145.9,-0.3,-1858.2,-2530.8,-2266.8,0,792,0,238,0, 
0.4433,-2104.2,-2047.5,-2076.0,-1972.8,-2114.7,-2195.1,-2084.7,-1938.6,-71061.9,-2055.3,-2049.3,-2095.8,-2040.3,-2567.4,-2320.8,-2364.6,-6.6,-5.4,-2485.8,-2132.4,-0.6,-1833.0,-2518.2,-2253.6,0,798,0,239,0, 
0.4467,-2158.2,-2007.3,-2042.1,-1956.6,-2093.1,-2181.3,-2071.2,-1917.3,-115447.8,-2044.8,-2025.0,-2066.4,-2042.7,-2556.6,-2302.5,-2365.2,-7.5,-6.3,-2451.6,-2102.7,-0.6,-1807.5,-2511.6,-2250.0,0,804,0,240,0, 
0.4500,-2097.9,-2012.4,-2044.5,-1954.8,-2093.1,-2184.0,-2075.7,-1920.6,-124191.6,-2057.7,-2045.7,-2084.4,-2047.8,-2553.0,-2305.5,-2361.0,-7.2,-6.3,-2473.2,-2124.0,-0.6,-1826.1,-2528.4,-2256.3,0,810,0,241,0, 
0.4533,-2005.5,-2037.3,-2103.9,-1983.9,-2118.3,-2202.3,-2082.9,-1945.8,-85881.9,-2087.7,-2092.8,-2121.9,-2065.5,-2558.4,-2323.8,-2357.1,-6.9,-6.0,-2528.1,-2146.8,-0.9,-1854.6,-2523.6,-2260.2,0,816,0,242,0, 
0.4567,-2011.5,-2082.9,-2078.7,-1971.6,-2115.6,-2200.2,-2087.1,-1946.7,-52536.9,-2086.5,-2068.2,-2113.5,-2049.3,-2573.7,-2337.9,-2358.6,-6.6,-6.0,-2488.2,-2142.9,-0.3,-1854.3,-2523.6,-2255.1,0,822,0,243,0, 
0.4600,-2083.5,-1978.8,-2027.4,-1950.3,-2097.6,-2184.3,-2071.2,-1917.9,-71284.2,-2062.5,-2046.3,-2085.6,-2065.2,-2559.6,-2314.8,-2350.2,-6.9,-6.0,-2489.1,-2120.1,-0.9,-1824.3,-2511.3,-2247.3,0,828,0,244,0, 
0.4633,-2139.0,-1998.6,-2014.5,-1930.5,-2072.7,-2162.1,-2055.9,-1898.1,-115447.8,-2019.9,-2014.5,-2049.3,-2028.0,-2546.1,-2307.3,-2355.0,-6.9,-6.3,-2464.2,-2089.8,-0.6,-1790.1,-2506.2,-2234.4,0,834,0,245,0, 
0.4667,-2099.1,-2051.4,-2079.3,-1951.2,-2079.0,-2166.0,-2057.4,-1911.9,-123672.9,-2032.5,-2027.7,-2072.1,-2020.8,-2549.4,-2309.7,-2348.1,-6.6,-5.7,-2456.7,-2108.4,-0.6,-1809.0,-2504.4,-2236.5,0,840,0,246,0, 
0.4700,-1998.0,-2017.8,-2059.5,-1959.0,-2099.7,-2185.8,-2072.4,-1926.9,-84177.6,-2091.6,-2073.0,-2106.0,-2079.9,-2558.7,-2333.1,-2359.2,-6.6,-5.4,-2498.1,-2142.9,-0.6,-1858.2,-2520.9,-2252.7,0,846,0,247,0, 
0.4733,-1993.5,-2047.8,-2065.8,-1968.0,-2107.8,-2190.0,-2076.9,-1937.4,-50536.2,-2099.7,-2065.2,-2108.4,-2082.9,-2567.1,-2332.8,-2352.0,-6.9,-6.3,-2490.0,-2144.1,-1.2,-1859.4,-2517.6,-2256.0,0,852,0,248,0, 
0.4767,-2073.9,-1956.9,-2027.1,-1944.3,-2091.0,-2179.8,-2067.0,-1910.7,-68764.8,-2073.3,-2040.3,-2073.0,-2056.5,-2562.0,-2320.2,-2363.4,-6.9,-6.0,-2496.3,-2117.7,-0.6,-1833.3,-2518.8,-2256.3,0,858,0,249,0, 
0.4800,-2145.3,-2059.2,-2042.7,-1947.6,-2077.5,-2163.6,-2057.4,-1912.5,-112187.4,-2024.7,-2012.7,-2063.1,-2030.1,-2552.1,-2300.1,-2350.2,-6.3,-6.0,-2465.7,-2108.7,-1.2,-1801.8,-2502.6,-2242.8,0,864,0,250,0, 
0.4833,-2075.4,-1998.3,-2028.6,-1951.2,-2094.9,-2183.4,-2065.5,-1915.2,-119449.2,-2072.7,-2039.4,-2085.6,-2030.1,-2554.5,-2314.8,-2353.8,-6.9,-5.7,-2478.3,-2134.8,-0.9,-1835.7,-2522.7,-2259.9,0,870,0,251,0, 
0.4867,-2006.4,-2077.8,-2113.2,-1980.0,-2109.6,-2193.9,-2076.9,-1943.7,-79212.9,-2075.1,-2080.2,-2120.4,-2037.6,-2575.5,-2330.4,-2358.0,-6.9,-6.0,-2515.8,-2144.7,-1.2,-1857.6,-2522.4,-2259.6,0,876,0,252,0, 
0.4900,-1980.0,-1989.6,-2060.7,-1969.8,-2117.1,-2202.3,-2085.3,-1936.8,-45126.9,-2115.3,-2081.4,-2132.4,-2092.5,-2563.5,-2336.1,-2368.8,-7.2,-5.4,-2488.8,-2165.4,-0.6,-1870.8,-2533.5,-2275.5,0,882,0,253,0, 
0.4933,-2089.8,-2074.5,-2075.1,-1961.4,-2094.0,-2184.9,-2067.0,-1928.7,-63207.3,-2042.4,-2040.3,-2083.2,-2045.7,-2569.5,-2312.4,-2349.6,-6.6,-6.0,-2489.1,-2124.6,-1.2,-1818.9,-2504.4,-2253.9,0,888,0,254,0, 
0.4967,-2136.3,-2006.1,-2022.6,-1941.9,-2082.9,-2173.5,-2060.1,-1908.0,-106037.1,-2047.2,-2016.3,-2061.0,-2025.6,-2562.0,-2304.6,-2346.3,-7.2,-6.0,-2442.0,-2109.9,-0.9,-1808.4,-2507.1,-2254.2,0,894,0,255,0, 
0.5000,-2088.6,-2030.4,-2014.5,-1942.8,-2084.1,-2172.6,-2067.6,-1911.3,-112113.3,-2065.2,-2039.7,-2084.4,-2059.2,-2564.7,-2317.5,-2358.6,-6.6,-6.0,-2462.4,-2127.6,-0.6,-1828.5,-2514.3,-2255.1,0,900,0,0,0, 
0.5033,-1990.5,-2031.9,-2081.1,-1971.3,-2110.2,-2193.0,-2080.5,-1935.0,-71580.6,-2104.5,-2084.7,-2127.9,-2053.2,-2571.0,-2333.7,-2357.7,-7.2,-6.3,-2527.2,-2154.6,0.0,-1863.6,-2515.5,-2262.6,0,906,0,1,0, 
0.5067,-1993.5,-2060.4,-2083.2,-1971.0,-2113.8,-2199.9,-2085.9,-1946.4,-36160.8,-2094.3,-2078.7,-2119.2,-2062.2,-2571.6,-2335.5,-2368.2,-7.2,-5.7,-2503.8,-2152.5,-0.3,-1866.3,-2525.4,-2267.1,0,912,0,2,0, 
0.5100,-2064.0,-1978.8,-2031.6,-1946.1,-2092.5,-2180.1,-2070.0,-1915.8,-53500.2,-2067.3,-2045.1,-2076.6,-2058.9,-2563.5,-2322.9,-2360.4,-6.9,-6.3,-2487.3,-2119.8,-0.6,-1824.0,-2510.1,-2252.7,0,918,0,3,0, 
0.5133,-2127.3,-2047.2,-2041.5,-1933.5,-2073.9,-2161.5,-2052.6,-1910.4,-96033.6,-2031.9,-2007.6,-2050.8,-2029.2,-2555.1,-2304.9,-2343.3,-6.9,-5.7,-2464.5,-2093.1,-0.3,-1793.7,-2488.5,-2236.8,0,924,0,4,0, 
0.5167,-2072.1,-2006.4,-2020.8,-1931.4,-2079.3,-2164.5,-2061.6,-1908.0,-101591.1,-2052.0,-2015.4,-2071.5,-2038.5,-2552.4,-2312.4,-2354.1,-6.9,-5.7,-2443.2,-2111.4,-0.6,-1818.0,-2505.0,-2251.2,0,930,0,5,0, 
0.5200,-1978.8,-2047.5,-2042.1,-1953.9,-2104.5,-2182.5,-2071.8,-1932.9,-60465.6,-2087.4,-2063.4,-2108.1,-2044.8,-2555.7,-2314.2,-2332.8,-7.2,-5.7,-2495.7,-2141.4,-0.6,-1858.8,-2496.9,-2261.1,0,936,0,6,0, 
0.5233,-1972.8,-2015.7,-2100.9,-1964.7,-2106.9,-2189.1,-2077.8,-1937.4,-25490.4,-2077.8,-2073.3,-2103.9,-2045.1,-2558.1,-2329.5,-2359.5,-6.9,-6.0,-2516.7,-2137.5,-0.6,-1850.1,-2517.3,-2250.9,0,942,0,7,0, 
0.5267,-2066.1,-2044.2,-2039.7,-1943.1,-2090.4,-2180.7,-2070.0,-1925.4,-42533.4,-2060.7,-2025.9,-2067.9,-2038.2,-2551.8,-2295.9,-2340.3,-6.9,-5.4,-2455.2,-2113.8,-0.6,-1824.6,-2506.8,-2248.8,0,948,0,8,0, 
0.5300,-2110.8,-1980.9,-2004.6,-1919.4,-2063.1,-2154.9,-2053.2,-1889.1,-84474.0,-2033.4,-1995.3,-2039.4,-2020.5,-2548.5,-2310.0,-2347.8,-6.6,-6.0,-2450.1,-2085.0,-0.6,-1794.3,-2493.0,-2233.2,0,954,0,9,0, 
0.5333,-2064.9,-2028.3,-2043.9,-1932.3,-2071.5,-2159.1,-2052.3,-1902.6,-89957.4,-2023.5,-2015.7,-2056.8,-2010.3,-2553.0,-2317.2,-2345.7,-6.9,-5.7,-2451.3,-2094.3,-0.3,-1800.0,-2496.3,-2232.9,0,960,0,10,0, 
0.5367,-1964.4,-2008.8,-2051.4,-1949.7,-2093.1,-2175.9,-2069.7,-1922.1,-48609.6,-2084.1,-2061.3,-2106.0,-2064.6,-2550.6,-2326.2,-2348.7,-6.6,-6.3,-2496.3,-2140.8,-0.6,-1846.5,-2515.5,-2260.8,0,966,0,11,0, 
0.5400,-1977.6,-2043.6,-2063.7,-1952.1,-2098.5,-2187.0,-2077.5,-1931.4,-13634.4,-2093.1,-2050.2,-2109.6,-2055.3,-2573.7,-2335.2,-2353.2,-6.9,-5.7,-2466.3,-2134.2,-0.9,-1854.6,-2509.5,-2263.2,0,972,0,12,0, 
0.5433,-2076.9,-2019.0,-2039.7,-1941.9,-2083.5,-2178.9,-2066.4,-1914.0,-31418.4,-2052.3,-2029.2,-2068.2,-2017.2,-2566.8,-2322.6,-2354.4,-6.9,-5.7,-2466.0,-2109.9,-0.3,-1822.8,-2510.1,-2252.1,0,978,0,13,0, 
0.5467,-2126.4,-2005.2,-2004.0,-1928.1,-2073.0,-2163.3,-2056.5,-1901.1,-73284.9,-2023.8,-2017.2,-2047.8,-2020.2,-2553.6,-2304.0,-2338.2,-6.9,-6.3,-2466.0,-2101.5,-0.6,-1792.8,-2498.4,-2242.5,0,984,0,14,0, 
0.5500,-2060.1,-1992.9,-2023.8,-1931.7,-2076.9,-2163.6,-2061.6,-1905.6,-78916.5,-2049.3,-2027.1,-2058.0,-2045.7,-2538.9,-2299.2,-2358.0,-6.9,-6.0,-2460.6,-2108.1,-0.3,-1818.0,-2512.5,-2252.1,0,990,0,15,0, 
0.5533,-1972.8,-2009.7,-2026.2,-1946.4,-2101.8,-2182.8,-2082.6,-1927.8,-37420.5,-2096.1,-2065.2,-2111.4,-2064.0,-2552.7,-2320.8,-2369.7,-6.9,-5.7,-2519.1,-2145.0,-0.6,-1857.6,-2524.8,-2265.9,0,996,0,16,0, 
0.5567,-1981.8,-2051.1,-2067.9,-1951.8,-2094.6,-2180.4,-2074.8,-1927.2,-3779.1,-2065.2,-2049.6,-2097.3,-2031.9,-2570.4,-2351.7,-2367.3,-7.2,-6.0,-2492.4,-2131.2,-0.9,-1843.2,-2513.4,-2251.8,0,1002,0,17,0, 
0.5600,-2067.0,-1983.3,-2049.6,-1943.4,-2086.2,-2175.0,-2072.1,-1917.6,-22378.2,-2052.0,-2034.6,-2067.6,-2037.0,-2559.9,-2321.4,-2361.6,-6.9,-5.7,-2467.8,-2116.2,-0.9,-1825.5,-2512.5,-2253.3,0,1008,0,18,0, 
0.5633,-2130.0,-2035.5,-2028.0,-1928.1,-2064.9,-2159.1,-2059.8,-1899.9,-65578.5,-2019.3,-2004.3,-2030.4,-2005.5,-2549.7,-2307.3,-2363.4,-6.9,-6.0,-2459.1,-2088.3,-0.6,-1799.1,-2507.1,-2244.3,0,1014,0,19,0, 
0.5667,-2063.7,-1965.9,-1997.7,-1926.6,-2073.6,-2162.7,-2066.1,-1899.3,-72173.4,-2065.2,-2027.1,-2071.2,-2047.2,-2548.8,-2313.3,-2363.4,-6.9,-5.7,-2472.9,-2121.6,-0.9,-1825.2,-2517.6,-2255.7,0,1020,0,20,0, 
0.5700,-1970.4,-1991.4,-1964.4,-1928.7,-2088.3,-2177.7,-2076.0,-1911.6,-32011.2,-2101.5,-2057.4,-2103.3,-2059.8,-2563.8,-2336.7,-2367.0,-6.6,-6.0,-2493.6,-2142.0,-0.3,-1859.4,-2525.4,-2261.1,0,1026,0,21,0, 
0.5733,-1970.7,-2066.4,-2108.4,-1967.1,-2100.3,-2180.7,-2081.4,-1936.2,370.5,-2070.0,-2057.7,-2102.1,-2030.4,-2557.2,-2332.2,-2367.9,-7.5,-6.0,-2507.1,-2134.8,-1.2,-1849.5,-2524.2,-2258.1,0,1032,0,22,0, 
0.5767,-2062.2,-2025.0,-2049.6,-1936.5,-2081.7,-2168.7,-2065.2,-1913.7,-20673.9,-2052.3,-2020.5,-2066.4,-2033.7,-2556.9,-2313.3,-2357.4,-6.6,-5.7,-2443.8,-2109.6,-0.9,-1826.4,-2514.9,-2247.9,0,1038,0,23,0, 
0.5800,-2115.6,-1971.0,-2013.6,-1922.7,-2067.3,-2157.6,-2055.0,-1892.1,-64837.5,-2041.5,-2011.8,-2056.8,-2030.4,-2552.7,-2295.3,-2353.2,-7.2,-5.4,-2443.5,-2098.8,-0.6,-1807.2,-2507.7,-2246.7,0,1044,0,24,0, 
0.5833,-2065.2,-2021.4,-2051.4,-1934.4,-2071.8,-2162.7,-2055.0,-1900.8,-72321.6,-2044.8,-2033.1,-2071.5,-2028.0,-2548.5,-2305.5,-2358.3,-6.6,-6.0,-2479.5,-2108.7,-0.6,-1813.2,-2508.0,-2245.2,0,1050,0,25,0, 
0.5867,-1968.3,-2030.7,-2048.4,-1937.7,-2084.4,-2166.0,-2067.3,-1910.7,-33715.5,-2081.4,-2043.3,-2092.8,-2058.3,-2554.2,-2331.3,-2365.2,-6.9,-6.0,-2475.3,-2125.8,-0.6,-1850.4,-2521.2,-2249.7,0,1056,0,26,0, 
0.5900,-1961.4,-2012.1,-2044.2,-1942.8,-2099.4,-2181.9,-2074.2,-1920.9,-2445.3,-2088.3,-2057.7,-2103.0,-2060.1,-2545.5,-2325.0,-2367.3,-6.9,-5.7,-2491.8,-2140.5,-0.9,-1856.1,-2521.5,-2262.0,0,1062,0,27,0, 
0.5933,-2072.7,-2006.7,-2027.7,-1921.5,-2073.0,-2159.1,-2058.9,-1900.2,-23489.7,-2045.4,-2007.0,-2050.2,-2004.0,-2559.9,-2320.2,-2364.6,-6.9,-5.7,-2449.5,-2095.8,-0.9,-1807.2,-2509.2,-2240.1,0,1068,0,28,0, 
0.5967,-2119.2,-1974.3,-1983.9,-1902.3,-2055.9,-2144.4,-2046.3,-1880.4,-69283.5,-2027.7,-1988.7,-2034.6,-2025.3,-2538.3,-2295.0,-2358.3,-6.9,-5.4,-2431.2,-2088.0,-0.6,-1788.9,-2498.7,-2225.1,0,1074,0,29,0, 
0.6000,-2072.7,-1997.4,-2011.5,-1914.3,-2063.1,-2148.0,-2048.1,-1890.0,-77508.6,-2048.4,-2007.3,-2054.4,-2012.1,-2558.4,-2310.0,-2355.6,-6.9,-6.0,-2436.6,-2103.0,-0.9,-1809.9,-2496.9,-2232.9,0,1080,0,30,0, 
0.6033,-1975.2,-2004.3,-1987.5,-1918.5,-2075.7,-2162.7,-2058.6,-1901.4,-38828.4,-2078.1,-2045.4,-2091.9,-2076.6,-2547.0,-2320.2,-2360.7,-6.9,-6.0,-2472.9,-2119.8,-0.6,-1838.1,-2508.0,-2239.8,0,1086,0,31,0, 
0.6067,-1968.6,-1965.3,-2030.7,-1932.6,-2086.2,-2171.7,-2064.6,-1911.6,-8225.1,-2088.9,-2041.5,-2091.0,-2063.7,-2563.5,-2328.9,-2359.2,-7.2,-6.0,-2476.2,-2117.4,-0.6,-1844.1,-2508.9,-2242.8,0,1092,0,32,0, 
0.6100,-2074.5,-2051.7,-2078.4,-1941.3,-2079.3,-2161.2,-2052.3,-1909.8,-30010.5,-2024.4,-2029.5,-2054.1,-2024.4,-2546.4,-2300.1,-2350.8,-7.5,-6.0,-2493.6,-2093.1,-1.2,-1799.1,-2497.5,-2229.9,0,1098,0,33,0, 
0.6133,-2127.3,-1984.2,-1993.2,-1908.6,-2051.1,-2145.9,-2040.6,-1881.6,-75507.9,-2022.3,-1993.2,-2028.9,-2020.2,-2547.9,-2295.6,-2344.2,-7.2,-6.0,-2446.8,-2073.6,-0.9,-1783.2,-2490.9,-2221.2,0,1104,0,34,0, 
0.6167,-2078.1,-2023.2,-2052.6,-1928.1,-2058.9,-2148.9,-2043.0,-1896.9,-83510.7,-2023.5,-2013.9,-2043.3,-2004.6,-2541.6,-2300.7,-2337.3,-6.9,-5.7,-2454.0,-2089.2,-0.9,-1794.9,-2488.2,-2222.4,0,1110,0,35,0, 
0.6200,-1992.9,-2024.4,-2049.6,-1942.5,-2083.8,-2168.1,-2056.8,-1916.1,-44608.2,-2067.6,-2046.0,-2083.5,-2035.8,-2556.0,-2317.5,-2343.6,-6.9,-6.0,-2488.5,-2117.7,-0.6,-1829.1,-2502.9,-2236.2,0,1116,0,36,0, 
0.6233,-1991.1,-2031.6,-2059.8,-1951.2,-2093.1,-2181.0,-2066.7,-1927.8,-13115.7,-2072.4,-2044.5,-2090.7,-2073.6,-2560.2,-2321.1,-2344.2,-6.9,-6.0,-2495.7,-2122.5,-0.9,-1830.9,-2509.8,-2242.8,0,1122,0,37,0, 
0.6267,-2072.4,-1986.9,-2020.5,-1926.6,-2070.9,-2162.1,-2051.4,-1901.4,-35049.3,-2038.8,-2023.5,-2059.8,-2056.5,-2556.3,-2307.0,-2335.2,-7.2,-5.7,-2476.5,-2094.0,-0.9,-1796.1,-2496.0,-2232.6,0,1128,0,38,0, 
0.6300,-2130.0,-1980.6,-1991.7,-1911.0,-2051.4,-2142.6,-2035.5,-1884.3,-80546.7,-2017.8,-1987.5,-2031.3,-2010.3,-2557.2,-2300.1,-2329.8,-6.6,-5.7,-2427.3,-2074.8,-0.6,-1774.5,-2478.6,-2220.6,0,1134,0,39,0, 
0.6333,-2067.3,-1992.6,-2001.9,-1909.2,-2043.6,-2141.1,-2040.3,-1886.1,-88179.0,-2026.5,-1990.2,-2030.1,-2011.2,-2542.8,-2304.0,-2345.7,-6.9,-6.0,-2448.0,-2076.0,-0.6,-1786.2,-2495.4,-2218.8,0,1140,0,40,0, 
0.6367,-1965.9,-2028.9,-2032.8,-1937.1,-2078.1,-2165.4,-2057.4,-1912.5,-48831.9,-2066.1,-2034.0,-2073.0,-2057.1,-2540.7,-2318.1,-2354.1,-7.2,-5.7,-2472.6,-2108.7,-0.9,-1831.5,-2511.6,-2236.2,0,1146,0,41,0, 
0.6400,-1986.3,-2040.3,-2070.6,-1952.1,-2085.3,-2172.6,-2061.0,-1921.5,-17413.5,-2057.4,-2051.1,-2081.1,-2024.7,-2557.5,-2308.2,-2343.6,-6.9,-5.4,-2498.7,-2114.4,-0.9,-1826.7,-2512.8,-2239.2,0,1152,0,42,0, 
0.6433,-2075.7,-2014.8,-2028.3,-1927.8,-2066.4,-2160.3,-2050.5,-1903.8,-39273.0,-2026.5,-2003.4,-2042.4,-2034.9,-2551.2,-2305.5,-2343.9,-6.6,-5.7,-2445.6,-2076.3,-0.9,-1786.2,-2501.7,-2232.0,0,1158,0,43,0, 
0.6467,-2124.6,-1982.7,-1979.7,-1911.6,-2048.7,-2145.0,-2038.8,-1881.0,-84251.7,-2006.1,-1983.0,-2020.5,-2008.8,-2546.4,-2290.2,-2326.2,-7.2,-6.0,-2441.1,-2062.5,-0.3,-1768.2,-2486.7,-2226.0,0,1164,0,44,0, 
0.6500,-2063.7,-1990.8,-2034.0,-1918.5,-2049.3,-2137.5,-2038.2,-1888.8,-91068.9,-2017.8,-1986.0,-2027.7,-2011.8,-2552.4,-2313.6,-2339.1,-6.9,-6.0,-2411.7,-2072.4,-0.9,-1779.0,-2488.8,-2218.8,0,1170,0,45,0, 
0.6533,-1968.0,-1993.2,-1974.0,-1922.1,-2069.1,-2162.1,-2058.0,-1898.7,-51351.3,-2063.7,-2026.8,-2072.1,-2043.6,-2558.7,-2322.6,-2359.5,-6.9,-6.0,-2499.3,-2104.2,-0.9,-1814.4,-2513.1,-2232.9,0,1176,0,46,0, 
0.6567,-1970.1,-1991.1,-2062.2,-1948.5,-2087.7,-2176.8,-2064.0,-1914.3,-19636.5,-2057.1,-2046.0,-2076.9,-2046.0,-2556.6,-2322.3,-2350.2,-6.6,-6.0,-2482.5,-2109.6,-0.9,-1821.3,-2517.6,-2237.7,0,1182,0,47,0, 
0.6600,-2068.8,-2049.6,-2019.9,-1930.5,-2063.4,-2159.4,-2050.2,-1901.4,-41421.9,-2026.8,-1994.7,-2043.0,-2025.9,-2550.6,-2294.7,-2338.5,-6.9,-6.0,-2419.8,-2079.6,-0.3,-1786.8,-2502.6,-2228.7,0,1188,0,48,0, 
0.6633,-2113.5,-1952.7,-1967.7,-1903.8,-2048.4,-2145.6,-2038.2,-1875.0,-85733.7,-2024.1,-1979.7,-2029.2,-2034.3,-2540.7,-2291.4,-2342.7,-6.6,-6.3,-2442.6,-2075.4,-0.9,-1774.2,-2493.9,-2225.4,0,1194,0,49,0, 
0.6667,-2069.7,-2030.1,-2061.3,-1933.5,-2061.6,-2154.0,-2041.5,-1896.6,-92106.3,-2007.9,-2008.2,-2046.0,-2004.9,-2539.2,-2296.8,-2344.5,-6.9,-6.0,-2454.9,-2079.9,-0.3,-1785.0,-2501.7,-2227.2,0,1200,0,50,0, 
0.6700,-1978.5,-2033.7,-2040.9,-1938.3,-2085.6,-2180.1,-2059.8,-1911.9,-51129.0,-2068.2,-2043.3,-2085.0,-2034.0,-2557.2,-2324.1,-2350.5,-6.9,-6.3,-2476.8,-2120.1,-0.6,-1831.5,-2518.8,-2244.0,0,1206,0,51,0, 
0.6733,-1979.7,-2041.2,-2087.7,-1958.4,-2095.8,-2185.5,-2061.0,-1926.9,-19784.7,-2059.2,-2065.5,-2083.5,-2051.4,-2554.8,-2318.1,-2344.2,-6.9,-6.0,-2529.0,-2117.7,-0.6,-1829.4,-2508.9,-2242.2,0,1212,0,52,0, 
0.6767,-2074.5,-2018.7,-2024.1,-1932.3,-2076.6,-2167.2,-2052.6,-1907.7,-41940.6,-2038.5,-2012.1,-2052.6,-2030.7,-2547.3,-2300.1,-2340.0,-6.9,-5.7,-2462.4,-2100.3,0.0,-1803.3,-2496.3,-2235.9,0,1218,0,53,0, 
0.6800,-2109.0,-1955.4,-1997.1,-1916.7,-2064.9,-2154.3,-2042.4,-1885.8,-87289.8,-2019.0,-2013.0,-2041.5,-2037.6,-2522.7,-2273.7,-2349.3,-6.9,-6.3,-2478.9,-2087.1,-0.6,-1782.3,-2501.4,-2233.5,0,1224,0,54,0, 
0.6833,-2060.4,-2025.0,-2019.6,-1923.0,-2066.1,-2154.9,-2043.6,-1899.3,-93143.7,-2039.4,-1996.2,-2056.8,-2011.8,-2531.7,-2282.1,-2339.1,-6.9,-6.3,-2420.7,-2098.2,-0.9,-1799.1,-2503.8,-2234.1,0,1230,0,55,0, 
0.6867,-1964.1,-2023.8,-2052.3,-1943.7,-2086.5,-2171.1,-2057.1,-1914.9,-51573.6,-2064.3,-2049.3,-2093.1,-2049.6,-2541.0,-2313.6,-2347.8,-7.2,-6.0,-2503.8,-2120.7,-0.6,-1831.2,-2519.1,-2246.1,0,1236,0,56,0, 
0.6900,-1971.9,-2040.3,-2062.8,-1946.1,-2091.6,-2170.5,-2058.0,-1919.1,-20229.3,-2055.6,-2037.6,-2087.4,-2054.7,-2561.1,-2327.4,-2343.3,-6.6,-6.0,-2477.7,-2116.8,-0.9,-1827.0,-2505.3,-2238.3,0,1242,0,57,0, 
0.6933,-2064.0,-2000.1,-2015.4,-1927.5,-2079.0,-2161.5,-2048.4,-1903.5,-44237.7,-2034.3,-2014.8,-2060.4,-2039.7,-2544.9,-2302.2,-2346.0,-6.9,-5.4,-2467.5,-2099.4,-0.9,-1799.7,-2505.6,-2236.8,0,1248,0,58,0, 
0.6967,-2121.3,-1970.1,-1969.2,-1906.5,-2057.1,-2145.0,-2039.7,-1884.6,-90698.4,-2022.9,-1970.7,-2027.7,-2031.6,-2542.2,-2282.4,-2342.4,-6.9,-6.0,-2411.1,-2086.8,-1.2,-1777.8,-2499.3,-2232.6,0,1254,0,59,0, 
0.7000,-2047.2,-1958.7,-1990.8,-1925.7,-2074.5,-2158.2,-2050.5,-1896.9,-96552.3,-2045.1,-2025.0,-2072.1,-2061.0,-2540.7,-2277.9,-2342.7,-6.9,-6.0,-2485.2,-2118.3,-0.9,-1812.3,-2508.0,-2260.8,0,1260,0,60,0, 
0.7033,-1956.3,-1998.9,-2040.3,-1945.5,-2094.9,-2171.1,-2064.9,-1917.0,-53796.6,-2080.8,-2071.5,-2103.6,-2074.5,-2548.2,-2322.6,-2354.4,-6.6,-6.0,-2502.9,-2147.7,-0.6,-1845.9,-2515.5,-2263.5,0,1266,0,61,0, 
0.7067,-1967.1,-2064.6,-2061.3,-1947.3,-2089.8,-2169.0,-2063.7,-1924.2,-23341.5,-2060.1,-2054.7,-2088.6,-1984.2,-2560.2,-2328.0,-2361.0,-6.9,-5.7,-2507.4,-2126.7,-0.6,-1829.1,-2518.2,-2242.2,0,1272,0,62,0, 
0.7100,-2068.8,-2023.8,-2032.2,-1927.2,-2069.1,-2154.0,-2047.8,-1899.3,-50980.8,-2016.3,-1995.6,-2056.2,-2001.0,-2547.6,-2298.3,-2346.6,-6.9,-6.3,-2430.3,-2096.4,-0.9,-1790.1,-2504.7,-2229.6,0,1278,0,63,0, 
0.7133,-2120.1,-1987.8,-2001.9,-1909.5,-2047.5,-2138.7,-2037.6,-1880.1,-100479.6,-1991.4,-1950.3,-2013.0,-1976.1,-2543.7,-2292.9,-2343.9,-6.6,-5.7,-2379.9,-2070.3,-0.9,-1767.9,-2495.7,-2222.7,0,1284,0,64,0, 
0.7167,-2047.2,-1975.8,-1990.8,-1912.2,-2053.8,-2146.5,-2040.6,-1880.7,-104110.5,-2028.3,-1987.5,-2040.9,-2011.2,-2544.0,-2304.3,-2343.0,-6.6,-6.0,-2419.5,-2094.0,-0.6,-1801.8,-2504.4,-2228.1,0,1290,0,65,0, 
0.7200,-1949.4,-2005.2,-2020.2,-1933.8,-2079.3,-2166.6,-2058.6,-1906.8,-57649.8,-2071.8,-2046.0,-2097.0,-2030.7,-2553.6,-2319.9,-2348.4,-6.6,-5.7,-2489.7,-2129.4,-0.6,-1842.0,-2514.9,-2244.6,0,1296,0,66,0, 
0.7233,-1943.4,-1981.5,-2009.4,-1926.9,-2079.9,-2169.9,-2061.3,-1905.3,-24823.5,-2077.5,-2028.3,-2086.5,-2049.6,-2537.4,-2304.9,-2352.6,-6.6,-6.0,-2474.7,-2133.3,-0.9,-1844.4,-2519.7,-2249.4,0,1302,0,67,0, 
0.7267,-2055.0,-2030.4,-2016.3,-1917.3,-2059.2,-2143.5,-2038.8,-1894.5,-51203.1,-2011.2,-1992.0,-2043.0,-1986.0,-2537.1,-2284.5,-2335.5,-6.6,-6.3,-2439.6,-2088.0,-0.3,-1786.8,-2492.4,-2225.1,0,1308,0,68,0, 
0.7300,-2099.1,-1967.4,-1989.6,-1898.1,-2041.8,-2130.6,-2029.2,-1871.1,-97886.1,-1994.7,-1968.9,-2019.6,-1993.8,-2532.6,-2277.6,-2326.8,-6.6,-5.7,-2395.5,-2071.5,-0.6,-1769.7,-2490.0,-2217.6,0,1314,0,69,0, 
0.7333,-2036.1,-1989.3,-2018.7,-1911.6,-2049.0,-2130.0,-2031.3,-1880.1,-100998.3,-2012.7,-1994.4,-2042.7,-2015.1,-2538.9,-2297.1,-2337.6,-6.9,-6.0,-2438.1,-2090.1,-0.6,-1790.4,-2495.7,-2219.7,0,1320,0,70,0, 
0.7367,-1931.1,-1980.0,-2040.6,-1931.7,-2076.0,-2158.2,-2048.7,-1902.3,-54315.3,-2069.7,-2043.3,-2093.7,-2062.8,-2541.0,-2323.2,-2348.4,-7.2,-5.7,-2486.1,-2124.9,-0.3,-1841.1,-2507.1,-2239.5,0,1326,0,71,0, 
0.7400,-1961.7,-2048.1,-2018.1,-1923.3,-2069.1,-2151.6,-2044.2,-1905.3,-21637.2,-2050.5,-2022.6,-2074.8,-1986.9,-2557.8,-2328.0,-2339.7,-6.9,-6.0,-2454.3,-2111.7,-0.6,-1818.9,-2496.6,-2225.7,0,1332,0,72,0, 
0.7433,-2059.2,-1995.0,-2013.0,-1911.3,-2049.0,-2139.0,-2034.6,-1884.6,-47646.3,-2014.8,-1982.7,-2042.7,-1985.4,-2542.5,-2300.4,-2334.6,-6.9,-5.4,-2420.4,-2093.1,-0.6,-1787.4,-2488.2,-2220.3,0,1338,0,73,0, 
0.7467,-2105.7,-1953.6,-1966.5,-1891.5,-2030.7,-2122.5,-2021.7,-1863.0,-95737.2,-2007.9,-1972.5,-2021.4,-2009.7,-2537.7,-2289.3,-2328.3,-6.9,-6.0,-2419.8,-2079.0,-1.2,-1768.8,-2476.5,-2215.5,0,1344,0,74,0, 
0.7500,-2032.8,-1953.3,-1971.0,-1894.8,-2039.1,-2135.1,-2038.2,-1866.9,-99145.8,-2040.0,-2004.0,-2058.0,-1998.0,-2538.6,-2300.1,-2338.8,-6.9,-6.0,-2443.5,-2112.6,-0.9,-1808.7,-2500.8,-2227.2,0,1350,0,75,0, 
0.7533,-1944.6,-2023.8,-1996.2,-1907.1,-2052.3,-2142.6,-2049.0,-1890.9,-53277.9,-2075.1,-2034.0,-2085.0,-2019.9,-2551.8,-2323.5,-2351.7,-6.9,-5.7,-2466.0,-2124.0,-0.6,-1838.7,-2511.6,-2232.9,0,1356,0,76,0, 
0.7567,-1960.8,-2039.1,-2067.0,-1929.3,-2062.2,-2145.6,-2050.5,-1902.3,-20748.0,-2062.5,-2031.9,-2087.7,-2057.1,-2559.0,-2324.4,-2347.2,-6.9,-6.3,-2444.7,-2127.9,-0.3,-1830.9,-2500.8,-2228.4,0,1362,0,77,0, 
0.7600,-2044.8,-1963.2,-1929.0,-1884.6,-2044.5,-2136.3,-2039.1,-1865.7,-47942.7,-2051.4,-1995.9,-2052.9,-2027.1,-2539.2,-2302.5,-2347.5,-7.2,-5.7,-2441.1,-2100.0,-0.9,-1803.6,-2495.4,-2227.8,0,1368,0,78,0, 
0.7633,-2109.0,-1974.9,-2001.6,-1893.3,-2028.9,-2118.6,-2024.4,-1859.7,-96700.5,-2005.5,-1979.7,-2030.4,-1995.6,-2545.8,-2289.6,-2336.4,-6.9,-6.0,-2420.4,-2078.1,-0.9,-1775.7,-2484.0,-2215.5,0,1374,0,79,0, 
0.7667,-2038.8,-1994.4,-1997.1,-1897.2,-2034.3,-2124.0,-2029.8,-1866.9,-99738.6,-2021.7,-2001.6,-2049.9,-1986.0,-2534.1,-2295.3,-2339.7,-6.6,-5.7,-2428.2,-2100.3,-0.9,-1802.4,-2495.4,-2222.7,0,1380,0,80,0, 
0.7700,-1935.6,-1998.3,-2033.7,-1920.6,-2059.8,-2142.0,-2044.2,-1888.8,-52759.2,-2070.0,-2050.5,-2097.6,-2035.5,-2534.7,-2309.4,-2341.2,-6.9,-5.4,-2481.3,-2132.4,-0.6,-1835.1,-2500.2,-2235.0,0,1386,0,81,0, 
0.7733,-1945.5,-2010.6,-1993.2,-1910.7,-2060.7,-2144.4,-2049.3,-1890.6,-19117.8,-2071.8,-2037.9,-2091.3,-2013.0,-2538.3,-2300.4,-2346.9,-6.9,-5.4,-2475.0,-2131.2,-0.6,-1841.1,-2508.9,-2234.4,0,1392,0,82,0, 
0.7767,-2047.2,-1991.4,-2026.5,-1909.8,-2042.1,-2128.8,-2036.7,-1877.1,-45497.4,-2031.0,-2004.0,-2053.5,-2037.9,-2537.7,-2309.4,-2344.2,-6.9,-5.7,-2450.7,-2098.2,-0.9,-1798.8,-2494.8,-2218.5,0,1398,0,83,0, 
0.7800,-2105.1,-1999.2,-1999.5,-1896.6,-2029.2,-2115.6,-2024.4,-1861.5,-93069.6,-1999.5,-1978.5,-2034.3,-1972.8,-2530.5,-2291.1,-2333.7,-7.2,-5.1,-2406.6,-2086.2,-0.3,-1778.7,-2484.0,-2213.1,0,1404,0,84,0, 
0.7833,-2020.2,-1956.3,-1972.8,-1899.3,-2042.1,-2128.5,-2029.8,-1866.6,-95218.5,-2048.7,-2016.6,-2076.9,-2038.8,-2529.0,-2313.0,-2339.4,-6.9,-6.0,-2445.6,-2120.4,-0.9,-1816.2,-2492.7,-2224.2,0,1410,0,85,0, 
0.7867,-1939.8,-2020.5,-2025.3,-1926.0,-2064.9,-2142.9,-2043.6,-1894.5,-47720.4,-2062.5,-2057.7,-2109.3,-2022.3,-2543.7,-2333.7,-2345.1,-6.9,-6.0,-2506.8,-2142.3,-0.9,-1842.6,-2502.6,-2227.5,0,1416,0,86,0, 
0.7900,-1960.2,-2009.4,-2046.9,-1931.4,-2076.6,-2149.2,-2049.9,-1901.4,-13930.8,-2076.6,-2048.7,-2111.1,-2013.3,-2558.4,-2329.5,-2345.4,-6.9,-5.7,-2454.9,-2151.0,-0.9,-1846.5,-2500.5,-2229.3,0,1422,0,87,0, 
0.7933,-2041.2,-1937.4,-1959.9,-1902.6,-2054.4,-2130.9,-2038.5,-1868.4,-40458.6,-2053.2,-2010.3,-2076.9,-2019.3,-2535.6,-2303.4,-2356.5,-7.2,-6.0,-2445.3,-2124.9,-0.9,-1814.7,-2498.4,-2221.8,0,1428,0,88,0, 
0.7967,-2113.2,-2048.7,-2042.4,-1912.5,-2041.5,-2113.5,-2017.8,-1868.4,-88253.1,-2002.8,-2000.1,-2052.3,-1977.0,-2529.3,-2286.9,-2317.5,-6.9,-6.3,-2444.1,-2103.9,-0.9,-1780.8,-2480.1,-2221.2,0,1434,0,89,0, 
0.8000,-2024.1,-1984.2,-2024.1,-1911.3,-2044.2,-2118.6,-2022.3,-1866.0,-90550.2,-2023.8,-2029.8,-2074.5,-2007.9,-2525.7,-2301.0,-2334.6,-7.2,-6.0,-2468.4,-2119.5,-0.9,-1807.5,-2481.6,-2226.6,0,1440,0,90,0, 
0.8033,-1936.8,-2039.4,-2037.3,-1922.1,-2062.8,-2143.8,-2043.6,-1893.0,-42311.1,-2069.4,-2049.0,-2100.9,-2018.4,-2526.6,-2310.0,-2365.5,-7.2,-5.7,-2463.9,-2151.6,-1.2,-1847.1,-2504.4,-2226.3,0,1446,0,91,0, 
0.8067,-1937.4,-1998.6,-2015.1,-1922.1,-2067.3,-2142.0,-2043.0,-1892.1,-9336.6,-2076.0,-2053.5,-2112.0,-2018.1,-2538.9,-2324.1,-2352.0,-6.6,-6.0,-2488.5,-2142.9,-0.6,-1847.1,-2498.7,-2221.8,0,1452,0,92,0, 
0.8100,-2046.3,-2007.0,-2009.1,-1911.9,-2052.3,-2124.3,-2027.1,-1875.3,-35197.5,-2027.4,-2010.3,-2071.5,-1999.8,-2532.3,-2298.0,-2342.1,-7.5,-5.7,-2439.0,-2121.0,-0.6,-1797.9,-2481.6,-2211.3,0,1458,0,93,0, 
0.8133,-2096.1,-1977.3,-1977.6,-1895.4,-2032.5,-2109.9,-2016.6,-1858.5,-82028.7,-2015.4,-1991.7,-2049.0,-1992.3,-2525.7,-2287.5,-2333.7,-6.6,-6.0,-2420.1,-2106.3,-1.2,-1787.1,-2479.5,-2205.0,0,1464,0,94,0, 
0.8167,-2024.4,-1939.8,-1962.3,-1893.3,-2039.1,-2120.4,-2021.4,-1860.3,-84622.2,-2045.7,-2006.7,-2068.2,-2022.3,-2531.4,-2307.9,-2340.6,-7.2,-6.0,-2437.5,-2121.0,-0.6,-1812.9,-2485.2,-2206.2,0,1470,0,95,0, 
0.8200,-1923.3,-1966.2,-1991.4,-1918.8,-2064.6,-2139.3,-2037.3,-1880.4,-38309.7,-2071.2,-2064.6,-2115.3,-2019.3,-2536.2,-2327.1,-2352.9,-7.2,-6.0,-2524.2,-2149.8,-0.6,-1846.8,-2504.4,-2218.8,0,1476,0,96,0, 
0.8233,-1953.0,-2096.7,-2116.5,-1947.3,-2073.0,-2145.3,-2039.7,-1911.3,-6372.6,-2049.0,-2037.3,-2105.1,-1987.8,-2531.1,-2313.0,-2346.0,-6.9,-5.7,-2449.8,-2141.1,-0.6,-1830.3,-2495.1,-2214.6,0,1482,0,97,0, 
0.8267,-2052.3,-1980.3,-2002.2,-1911.3,-2050.2,-2124.6,-2024.7,-1872.9,-36012.6,-2017.5,-2013.3,-2064.0,-1999.2,-2526.3,-2296.5,-2335.5,-7.2,-5.7,-2463.6,-2112.0,-0.9,-1796.4,-2481.9,-2206.8,0,1488,0,98,0, 
0.8300,-2110.2,-1983.0,-2010.6,-1907.7,-2040.0,-2118.0,-2016.3,-1864.5,-86771.1,-2000.4,-1995.9,-2049.3,-1984.5,-2521.5,-2285.1,-2337.9,-6.6,-6.0,-2432.7,-2103.6,-0.9,-1782.9,-2477.1,-2207.4,0,1494,0,99,0, 
0.8333,-2040.9,-1993.5,-2017.2,-1912.2,-2050.5,-2126.7,-2019.9,-1870.2,-90994.8,-2019.3,-2016.9,-2073.0,-1987.2,-2524.8,-2302.8,-2350.5,-6.6,-5.7,-2448.3,-2117.1,-0.6,-1807.5,-2489.7,-2214.3,0,1500,0,100,0, 
0.8367,-1941.0,-1979.1,-1996.5,-1923.3,-2070.0,-2147.7,-2034.9,-1887.6,-45719.7,-2082.6,-2056.8,-2105.4,-2032.5,-2541.3,-2328.3,-2354.1,-6.9,-5.7,-2494.5,-2152.2,-0.6,-1849.2,-2503.5,-2228.7,0,1506,0,101,0, 
0.8400,-1941.9,-1972.8,-2017.2,-1928.7,-2077.8,-2151.9,-2043.9,-1891.2,-14597.7,-2067.9,-2056.2,-2107.2,-2019.9,-2535.6,-2325.6,-2360.1,-6.9,-5.7,-2477.7,-2148.9,-0.3,-1842.9,-2502.9,-2227.5,0,1512,0,102,0, 
0.8433,-2064.0,-2042.7,-2043.3,-1925.4,-2061.3,-2137.2,-2027.1,-1886.1,-41866.5,-2000.7,-2012.1,-2061.3,-1975.2,-2527.5,-2291.4,-2333.4,-6.9,-5.7,-2446.5,-2112.3,-0.6,-1796.1,-2486.7,-2210.7,0,1518,0,103,0, 
0.8467,-2095.8,-1964.1,-1983.9,-1903.2,-2043.3,-2126.7,-2016.9,-1857.0,-90179.7,-2001.6,-1993.8,-2047.5,-1978.5,-2517.0,-2286.6,-2335.5,-7.5,-5.7,-2434.2,-2101.2,-1.2,-1781.1,-2481.9,-2210.7,0,1524,0,104,0, 
0.8500,-2032.2,-1995.3,-2012.1,-1911.0,-2050.5,-2128.5,-2018.4,-1869.9,-93736.5,-2021.1,-2017.2,-2057.7,-1987.8,-2526.9,-2299.2,-2339.1,-6.9,-6.3,-2448.9,-2112.3,-0.3,-1797.6,-2483.1,-2212.2,0,1530,0,105,0, 
0.8533,-1940.1,-2001.0,-1998.3,-1918.8,-2068.5,-2150.1,-2039.1,-1889.7,-49276.5,-2074.5,-2038.5,-2091.3,-2029.5,-2538.6,-2322.0,-2343.0,-6.9,-5.7,-2461.2,-2139.0,-0.6,-1842.9,-2502.0,-2226.6,0,1536,0,106,0, 
0.8567,-1940.7,-1990.2,-2019.3,-1936.8,-2080.2,-2158.2,-2046.0,-1896.6,-18302.7,-2077.2,-2051.1,-2110.2,-2050.8,-2536.2,-2319.3,-2343.3,-6.9,-5.7,-2472.9,-2151.6,-0.3,-1847.1,-2500.8,-2229.6,0,1542,0,107,0, 
0.8600,-2052.6,-1997.1,-1999.5,-1914.6,-2054.4,-2137.2,-2026.8,-1872.3,-45571.5,-2021.4,-2009.4,-2060.1,-1991.4,-2533.8,-2295.6,-2336.1,-6.9,-5.7,-2462.4,-2108.7,-0.6,-1802.4,-2477.1,-2218.2,0,1548,0,108,0, 
0.8633,-2095.5,-1980.9,-2006.1,-1908.3,-2040.3,-2126.7,-2015.1,-1859.7,-93514.2,-1989.9,-1987.5,-2036.1,-2001.3,-2519.1,-2272.8,-2326.5,-7.2,-5.7,-2431.2,-2093.1,-0.6,-1779.0,-2480.7,-2211.3,0,1554,0,109,0, 
0.8667,-2033.7,-1995.6,-2005.2,-1921.5,-2057.7,-2143.5,-2026.2,-1876.5,-98108.4,-2036.7,-2018.1,-2075.1,-1989.6,-2518.5,-2266.8,-2305.2,-6.9,-6.3,-2446.5,-2123.1,-0.9,-1815.6,-2474.1,-2228.7,0,1560,0,110,0, 
0.8700,-1939.8,-1957.8,-1992.9,-1920.0,-2068.8,-2155.5,-2044.2,-1882.8,-55278.6,-2081.4,-2045.7,-2104.8,-2034.6,-2540.1,-2315.1,-2346.3,-7.2,-6.0,-2467.5,-2148.0,-0.3,-1845.3,-2507.4,-2247.0,0,1566,0,111,0, 
0.8733,-1943.1,-1987.8,-2041.2,-1935.0,-2073.0,-2155.8,-2044.8,-1889.4,-25416.3,-2064.0,-2043.3,-2100.3,-2011.8,-2528.7,-2315.7,-2341.8,-6.6,-6.3,-2474.7,-2139.9,0.0,-1832.7,-2494.2,-2239.5,0,1572,0,112,0, 
0.8767,-2054.7,-2024.7,-1998.0,-1912.8,-2051.4,-2146.2,-2028.9,-1880.1,-52611.0,-2024.7,-1997.1,-2050.8,-1982.7,-2532.0,-2285.4,-2316.6,-6.9,-6.0,-2433.0,-2100.6,-0.6,-1799.4,-2480.7,-2219.4,0,1578,0,113,0, 
0.8800,-2101.5,-1986.6,-2005.5,-1911.6,-2037.6,-2126.7,-2021.7,-1861.2,-100183.2,-2000.4,-1989.3,-2040.3,-1978.5,-2516.4,-2283.6,-2327.7,-6.9,-6.3,-2443.2,-2100.3,-0.3,-1775.1,-2481.0,-2212.5,0,1584,0,114,0, 
0.8833,-2045.7,-2008.5,-2019.6,-1923.6,-2052.6,-2138.7,-2020.8,-1875.0,-105073.8,-2018.7,-2020.5,-2058.3,-1988.1,-2535.3,-2286.9,-2298.6,-6.6,-6.3,-2449.5,-2113.5,-0.6,-1795.8,-2458.2,-2214.6,0,1590,0,115,0, 
0.8867,-1937.1,-2012.1,-2020.8,-1919.7,-2055.3,-2148.0,-2040.9,-1884.9,-62095.8,-2042.7,-2025.3,-2086.5,-1999.8,-2533.8,-2334.6,-2369.1,-7.2,-6.0,-2434.8,-2131.2,-0.3,-1827.3,-2507.7,-2219.7,0,1596,0,116,0, 
0.8900,-1947.3,-1977.3,-2010.6,-1929.0,-2072.7,-2158.8,-2041.5,-1895.1,-32159.4,-2061.0,-2052.6,-2101.2,-2013.9,-2544.9,-2313.9,-2330.1,-6.6,-6.0,-2505.0,-2145.0,-0.9,-1835.1,-2496.9,-2231.1,0,1602,0,117,0, 
0.8933,-2047.5,-2020.2,-1974.3,-1912.5,-2055.9,-2142.3,-2028.0,-1879.2,-57723.9,-2031.3,-2000.1,-2055.3,-2024.7,-2531.1,-2286.9,-2317.5,-6.9,-6.0,-2454.0,-2120.4,-0.6,-1806.6,-2490.3,-2225.7,0,1608,0,118,0, 
0.8967,-2088.0,-1938.0,-1995.0,-1904.4,-2047.2,-2130.6,-2023.5,-1858.2,-103962.3,-2008.8,-1995.0,-2055.3,-1996.2,-2509.8,-2270.1,-2336.1,-6.6,-6.0,-2431.8,-2109.0,-0.9,-1784.1,-2488.8,-2223.0,0,1614,0,119,0, 
0.9000,-2032.5,-2005.5,-1994.4,-1906.5,-2043.0,-2127.0,-2022.6,-1868.7,-108408.3,-2027.1,-1996.8,-2056.5,-2019.9,-2524.2,-2298.6,-2334.6,-6.9,-5.7,-2439.9,-2110.8,-0.3,-1794.9,-2481.9,-2216.4,0,1620,0,120,0, 
0.9033,-1942.8,-2001.0,-2033.7,-1920.3,-2057.7,-2141.7,-2034.6,-1886.7,-66467.7,-2048.1,-2031.6,-2073.0,-2001.0,-2538.6,-2313.9,-2349.3,-6.6,-5.7,-2465.1,-2125.8,-1.2,-1826.1,-2495.4,-2222.7,0,1626,0,121,0, 
0.9067,-1941.9,-2016.0,-2021.1,-1911.6,-2054.7,-2140.5,-2036.1,-1885.2,-36086.7,-2027.1,-2010.0,-2071.5,-2005.2,-2538.6,-2316.6,-2358.0,-6.6,-6.0,-2430.9,-2121.0,-0.6,-1808.4,-2493.3,-2214.9,0,1632,0,122,0, 
0.9100,-2034.9,-1984.5,-1986.3,-1896.0,-2037.6,-2123.1,-2016.9,-1861.5,-60762.0,-1989.6,-1991.4,-2040.3,-1965.6,-2528.7,-2309.4,-2343.3,-6.9,-6.0,-2409.9,-2093.1,-0.6,-1771.2,-2469.0,-2199.6,0,1638,0,123,0, 
0.9133,-2086.5,-1951.2,-1965.0,-1882.5,-2028.3,-2113.8,-2007.9,-1848.9,-106555.8,-1994.1,-1961.7,-2022.0,-1994.7,-2521.5,-2284.8,-2318.1,-6.9,-5.7,-2406.3,-2086.2,-0.6,-1770.6,-2462.7,-2203.2,0,1644,0,124,0, 
0.9167,-2023.2,-1961.7,-1954.2,-1882.5,-2030.4,-2122.2,-2012.7,-1855.5,-111594.6,-2020.5,-1979.7,-2040.6,-1988.4,-2519.7,-2298.6,-2331.6,-7.2,-6.0,-2409.3,-2103.0,-0.9,-1791.0,-2470.2,-2206.5,0,1650,0,125,0, 
0.9200,-1929.9,-1985.1,-2019.3,-1911.0,-2052.9,-2139.3,-2031.3,-1884.9,-69505.8,-2048.7,-2019.9,-2080.8,-2002.8,-2531.4,-2301.6,-2342.7,-6.6,-6.0,-2469.3,-2131.5,-0.6,-1824.6,-2493.6,-2217.3,0,1656,0,126,0, 
0.9233,-1927.2,-1983.9,-1996.8,-1912.8,-2063.1,-2148.3,-2037.9,-1891.8,-38235.6,-2057.1,-2034.3,-2087.4,-2019.6,-2525.1,-2302.2,-2343.9,-6.9,-5.4,-2476.2,-2136.6,-0.6,-1833.6,-2496.6,-2223.3,0,1662,0,127,0, 
0.9267,-2037.0,-1951.8,-1988.1,-1896.6,-2041.5,-2127.9,-2021.4,-1867.5,-62169.9,-1998.3,-1993.5,-2055.9,-1995.6,-2545.5,-2294.4,-2333.7,-6.9,-6.0,-2435.7,-2098.5,-1.2,-1786.5,-2475.9,-2205.3,0,1668,0,128,0, 
0.9300,-2093.1,-2004.0,-1997.4,-1899.6,-2033.1,-2119.5,-2012.4,-1864.5,-107519.1,-1992.6,-1988.7,-2039.1,-1972.8,-2518.8,-2283.9,-2328.3,-7.5,-6.3,-2441.1,-2092.8,-0.6,-1771.2,-2466.3,-2204.7,0,1674,0,129,0, 
0.9333,-2034.9,-1940.1,-1985.1,-1891.8,-2034.9,-2121.0,-2015.7,-1862.7,-112335.6,-2017.5,-1988.1,-2046.0,-1999.8,-2539.8,-2308.8,-2343.9,-6.9,-5.7,-2394.6,-2104.2,-0.6,-1797.0,-2479.5,-2207.7,0,1680,0,130,0, 
0.9367,-1935.6,-2002.2,-1997.7,-1912.2,-2063.7,-2148.6,-2031.0,-1884.0,-70098.6,-2063.1,-2033.7,-2094.6,-2043.3,-2538.3,-2324.4,-2348.4,-7.2,-5.7,-2470.8,-2143.2,-0.6,-1835.4,-2490.3,-2229.0,0,1686,0,131,0, 
0.9400,-1947.0,-2011.2,-2037.6,-1924.5,-2069.4,-2151.3,-2031.6,-1891.8,-39939.9,-2046.6,-2043.9,-2090.4,-2015.4,-2542.2,-2316.3,-2346.0,-6.9,-6.0,-2500.5,-2139.6,-0.6,-1826.1,-2487.0,-2231.1,0,1692,0,132,0, 
0.9433,-2059.2,-2023.8,-2021.4,-1916.1,-2057.1,-2141.1,-2027.1,-1889.7,-63651.9,-2008.8,-2003.4,-2054.4,-1969.2,-2541.6,-2294.1,-2337.9,-6.9,-5.7,-2442.6,-2110.5,-0.6,-1789.5,-2473.2,-2214.3,0,1698,0,133,0, 
0.9467,-2099.1,-1976.4,-2001.0,-1904.7,-2045.1,-2130.3,-2010.0,-1870.5,-110038.5,-2002.2,-1975.8,-2035.2,-1983.6,-2522.1,-2275.5,-2323.2,-6.9,-5.7,-2411.1,-2106.9,-0.6,-1778.4,-2469.3,-2201.1,0,1704,0,134,0, 
0.9500,-2035.2,-1981.2,-1979.7,-1909.5,-2056.2,-2141.7,-2022.6,-1876.2,-114855.0,-2035.5,-2022.3,-2062.8,-1999.5,-2524.2,-2283.0,-2327.1,-7.5,-5.7,-2481.0,-2133.3,-0.6,-1819.8,-2479.5,-2217.0,0,1710,0,135,0, 
0.9533,-1936.5,-1995.6,-2043.9,-1924.2,-2061.0,-2143.5,-2036.7,-1890.3,-72766.2,-2054.1,-2032.5,-2085.0,-2001.9,-2532.6,-2317.2,-2352.3,-6.9,-5.4,-2453.7,-2138.1,-0.3,-1819.8,-2495.1,-2216.1,0,1716,0,136,0, 
0.9567,-1938.6,-1992.3,-1994.4,-1917.9,-2072.1,-2152.2,-2038.2,-1893.3,-41792.4,-2071.2,-2040.3,-2093.7,-2027.1,-2544.6,-2317.2,-2334.9,-6.9,-6.0,-2490.3,-2146.2,-0.6,-1830.0,-2486.1,-2218.5,0,1722,0,137,0, 
0.9600,-2037.6,-1989.6,-2034.0,-1924.8,-2062.5,-2136.3,-2028.9,-1883.1,-65800.8,-2018.7,-2011.5,-2068.8,-1998.3,-2529.3,-2289.0,-2324.7,-6.6,-6.0,-2451.6,-2122.8,-0.9,-1795.8,-2473.5,-2205.6,0,1728,0,138,0, 
0.9633,-2085.9,-1965.6,-1968.0,-1898.7,-2040.9,-2123.1,-2012.7,-1860.9,-110927.7,-1994.1,-1993.2,-2044.8,-1999.8,-2514.6,-2275.2,-2328.0,-6.9,-5.7,-2447.4,-2106.0,-0.6,-1767.6,-2473.5,-2199.6,0,1734,0,139,0, 
0.9667,-2015.7,-1942.8,-1995.3,-1905.9,-2045.4,-2127.6,-2019.9,-1863.9,-114780.9,-2022.9,-2000.7,-2052.6,-2008.8,-2523.0,-2295.0,-2334.0,-6.9,-6.0,-2440.2,-2116.8,-0.6,-1797.9,-2484.9,-2208.3,0,1740,0,140,0, 
0.9700,-1933.2,-1973.1,-2026.5,-1926.3,-2067.3,-2147.7,-2036.4,-1888.8,-71654.7,-2058.6,-2046.9,-2103.3,-2022.9,-2536.2,-2312.4,-2336.1,-7.2,-6.0,-2475.9,-2144.7,-0.6,-1835.1,-2498.4,-2219.1,0,1746,0,141,0, 
0.9733,-1938.0,-2009.7,-1999.8,-1922.7,-2068.2,-2148.0,-2038.2,-1898.4,-39939.9,-2060.7,-2032.5,-2096.4,-2017.5,-2529.6,-2303.4,-2331.3,-6.9,-6.0,-2436.9,-2145.0,-0.3,-1837.5,-2493.3,-2220.0,0,1752,0,142,0, 
0.9767,-2022.6,-1981.2,-1989.3,-1914.0,-2058.0,-2141.4,-2028.9,-1882.8,-63726.0,-2026.2,-2018.7,-2063.7,-2004.6,-2507.4,-2271.3,-2325.9,-6.9,-6.0,-2486.7,-2121.9,-0.6,-1805.4,-2490.6,-2211.9,0,1758,0,143,0, 
0.9800,-2076.9,-1918.8,-1995.0,-1909.5,-2043.9,-2127.9,-2014.5,-1866.0,-108704.7,-2009.4,-2007.0,-2058.0,-1987.8,-2521.8,-2276.1,-2326.5,-6.9,-6.0,-2444.1,-2122.2,-0.6,-1782.0,-2477.1,-2206.5,0,1764,0,144,0, 
0.9833,-2039.1,-2042.4,-2019.9,-1913.1,-2043.0,-2124.9,-2016.6,-1878.0,-112780.2,-2000.1,-2022.6,-2071.2,-1970.4,-2526.9,-2286.3,-2317.8,-6.3,-6.0,-2454.3,-2123.1,-0.9,-1794.9,-2480.4,-2198.4,0,1770,0,145,0, 
0.9867,-1920.9,-1971.6,-2000.4,-1920.9,-2061.3,-2147.1,-2036.1,-1889.1,-69654.0,-2064.3,-2046.9,-2096.7,-2025.0,-2524.8,-2303.7,-2331.3,-6.9,-6.0,-2466.6,-2145.3,-0.6,-1835.4,-2499.9,-2217.6,0,1776,0,146,0, 
0.9900,-1947.6,-2034.9,-2031.0,-1917.9,-2051.1,-2140.8,-2034.6,-1890.3,-38235.6,-2046.6,-2012.1,-2068.2,-1986.0,-2531.7,-2302.2,-2331.0,-6.9,-5.7,-2454.3,-2114.4,-0.9,-1818.3,-2496.3,-2205.9,0,1782,0,147,0, 
0.9933,-2035.2,-1979.4,-1994.4,-1908.0,-2042.1,-2131.8,-2023.5,-1874.1,-62392.2,-2001.9,-2006.7,-2053.8,-1994.1,-2525.4,-2279.1,-2307.6,-7.2,-6.0,-2448.3,-2100.9,-1.2,-1781.4,-2477.7,-2206.2,0,1788,0,148,0, 
0.9967,-2078.7,-1927.5,-1939.5,-1882.8,-2019.6,-2110.5,-2011.2,-1846.2,-107519.1,-2002.2,-1977.9,-2030.4,-1987.8,-2516.7,-2276.7,-2326.8,-6.6,-6.0,-2401.8,-2091.6,-0.9,-1771.8,-2478.3,-2198.1,0,1794,0,149,0, 
1.0000,-2018.4,-1986.9,-1988.1,-1900.8,-2030.1,-2119.8,-2012.1,-1865.1,-111594.6,-2008.8,-2001.3,-2049.6,-1997.1,-2522.4,-2282.4,-2316.6,-7.5,-5.7,-2446.2,-2105.7,-1.2,-1780.8,-2474.1,-2197.5,0,1800,0,150,0, 
1.0033,-1930.8,-2001.3,-2019.9,-1918.5,-2049.9,-2140.8,-2028.6,-1887.9,-68690.7,-2033.7,-2035.8,-2085.9,-1990.2,-2524.5,-2290.5,-2322.0,-6.6,-6.3,-2463.3,-2128.5,-0.9,-1817.7,-2490.9,-2208.3,0,1806,0,151,0, 
1.0067,-1931.1,-2001.0,-2007.3,-1914.9,-2053.5,-2139.9,-2030.4,-1888.5,-37494.6,-2051.1,-2026.2,-2080.8,-2033.1,-2530.2,-2294.4,-2322.9,-6.9,-6.0,-2474.7,-2121.3,-0.3,-1816.5,-2486.1,-2211.0,0,1812,0,152,0, 
1.0100,-2019.3,-1932.6,-1935.3,-1884.9,-2036.7,-2128.2,-2019.3,-1864.5,-61280.7,-2013.9,-1986.0,-2053.8,-2026.8,-2527.5,-2283.6,-2326.8,-6.9,-6.0,-2423.1,-2105.4,-0.9,-1788.0,-2479.5,-2206.8,0,1818,0,153,0, 
1.0133,-2080.2,-1959.6,-1995.0,-1891.5,-2023.5,-2112.3,-2003.1,-1859.7,-106704.0,-1976.7,-1974.3,-2021.1,-1958.4,-2519.1,-2259.9,-2306.4,-7.2,-6.0,-2416.5,-2080.2,-0.9,-1757.1,-2463.6,-2196.0,0,1824,0,154,0, 
1.0167,-2018.4,-2003.1,-1992.6,-1894.8,-2025.6,-2115.6,-2009.7,-1867.2,-110483.1,-1999.8,-1992.6,-2050.5,-1964.1,-2523.0,-2278.8,-2316.0,-6.9,-5.7,-2430.6,-2092.2,-0.6,-1785.3,-2472.9,-2215.8,0,1830,0,155,0, 
1.0200,-1931.1,-1989.0,-2021.1,-1912.8,-2047.8,-2132.4,-2024.1,-1885.5,-67134.6,-2042.7,-2033.4,-2082.6,-2004.9,-2536.5,-2299.8,-2319.9,-6.9,-6.0,-2459.4,-2125.5,-0.6,-1818.6,-2487.0,-2232.0,0,1836,0,156,0, 
1.0233,-1930.5,-1996.8,-1990.2,-1912.5,-2054.4,-2141.4,-2034.0,-1886.4,-36309.0,-2052.3,-2037.6,-2083.8,-2022.9,-2533.5,-2299.5,-2332.2,-7.2,-5.7,-2473.5,-2131.2,0.0,-1824.6,-2490.3,-2223.6,0,1842,0,157,0, 
1.0267,-2026.2,-1915.2,-1968.3,-1894.5,-2040.9,-2129.4,-2022.9,-1868.4,-60169.2,-2024.7,-1981.5,-2056.8,-2030.7,-2533.5,-2285.1,-2325.6,-6.9,-5.4,-2380.8,-2109.6,-0.9,-1790.4,-2480.4,-2202.9,0,1848,0,158,0, 
1.0300,-2079.9,-1943.4,-1947.0,-1885.2,-2022.6,-2112.3,-2001.0,-1854.9,-105740.7,-1984.8,-1977.9,-2030.1,-1990.2,-2525.1,-2275.8,-2315.7,-6.9,-6.0,-2440.2,-2091.3,-0.6,-1766.4,-2471.4,-2194.5,0,1854,0,159,0, 
1.0333,-2025.3,-2009.7,-1980.6,-1893.3,-2029.5,-2112.0,-2003.7,-1864.8,-109371.6,-2000.4,-1981.2,-2041.2,-1983.6,-2518.5,-2278.2,-2312.1,-7.2,-6.0,-2392.8,-2100.0,-0.6,-1782.9,-2467.2,-2194.5,0,1860,0,160,0, 
1.0367,-1929.6,-1995.0,-2013.6,-1915.8,-2054.1,-2129.1,-2018.7,-1883.7,-66838.2,-2037.0,-2031.0,-2083.5,-1998.0,-2525.1,-2297.7,-2317.8,-6.9,-5.7,-2479.8,-2130.3,-0.9,-1815.0,-2479.2,-2205.3,0,1866,0,161,0, 
1.0400,-1941.3,-2019.3,-2057.1,-1931.7,-2064.9,-2134.8,-2025.6,-1898.1,-35790.3,-2035.5,-2036.7,-2076.9,-2028.3,-2526.3,-2296.2,-2307.9,-6.9,-6.3,-2467.5,-2124.0,-0.6,-1812.6,-2474.1,-2208.3,0,1872,0,162,0, 
1.0433,-2022.3,-1949.1,-1967.1,-1900.2,-2044.8,-2121.3,-2015.1,-1870.5,-60169.2,-2021.7,-1988.4,-2039.4,-2001.9,-2518.8,-2281.8,-2312.7,-6.6,-6.0,-2403.3,-2099.7,-0.9,-1778.4,-2469.0,-2202.9,0,1878,0,163,0, 
1.0467,-2083.8,-1954.5,-1957.5,-1890.6,-2025.9,-2107.8,-2008.2,-1853.7,-105444.3,-1977.9,-1968.6,-2012.1,-1971.6,-2514.3,-2265.9,-2315.1,-7.5,-6.3,-2417.1,-2079.3,-1.2,-1756.5,-2466.3,-2191.8,0,1884,0,164,0, 
1.0500,-2016.6,-1925.7,-1933.8,-1893.3,-2036.7,-2117.1,-2012.4,-1857.0,-109445.7,-2027.4,-1997.1,-2051.7,-2012.7,-2517.6,-2281.5,-2322.0,-6.9,-5.7,-2455.8,-2106.6,-0.6,-1792.2,-2478.6,-2203.2,0,1890,0,165,0, 
1.0533,-1935.9,-2037.9,-2053.5,-1939.5,-2066.4,-2140.5,-2029.5,-1898.7,-65800.8,-2033.1,-2046.3,-2087.4,-1998.0,-2521.2,-2290.2,-2319.6,-6.6,-6.0,-2478.0,-2134.8,-0.6,-1813.5,-2477.7,-2206.8,0,1896,0,166,0, 
1.0567,-1924.2,-1979.7,-2019.6,-1927.5,-2070.6,-2150.4,-2037.6,-1892.4,-34234.2,-2048.1,-2037.6,-2083.5,-2037.0,-2517.6,-2290.2,-2329.5,-7.2,-6.0,-2466.6,-2135.1,-1.2,-1820.7,-2490.6,-2213.4,0,1902,0,167,0, 
1.0600,-2021.1,-1936.5,-1958.7,-1900.2,-2043.3,-2131.8,-2024.1,-1870.2,-57131.1,-2022.9,-1985.4,-2049.0,-2008.8,-2520.9,-2274.6,-2319.3,-6.9,-6.0,-2411.4,-2103.9,-0.3,-1785.3,-2479.5,-2201.7,0,1908,0,168,0, 
1.0633,-2086.5,-2013.9,-1977.9,-1895.1,-2022.3,-2112.3,-2006.1,-1866.9,-102183.9,-1965.9,-1964.1,-2016.6,-1969.8,-2514.3,-2256.0,-2304.6,-6.6,-6.0,-2405.1,-2076.6,-1.2,-1744.2,-2461.2,-2186.1,0,1914,0,169,0, 
1.0667,-2019.3,-1976.4,-2015.4,-1908.9,-2034.9,-2121.0,-2015.4,-1870.8,-106407.6,-1994.7,-2004.3,-2047.2,-1982.1,-2512.2,-2273.4,-2310.3,-7.2,-6.0,-2451.0,-2101.2,-0.9,-1768.2,-2473.8,-2195.4,0,1920,0,170,0, 
1.0700,-1931.4,-2006.4,-2020.5,-1923.9,-2055.0,-2141.1,-2029.2,-1889.4,-63948.3,-2031.0,-2033.7,-2083.2,-2026.8,-2520.9,-2289.6,-2307.9,-6.9,-6.0,-2470.8,-2128.8,-0.6,-1816.2,-2483.4,-2203.5,0,1926,0,171,0, 
1.0733,-1935.0,-1973.7,-1990.2,-1915.8,-2059.2,-2143.2,-2034.9,-1892.1,-32678.1,-2045.7,-2014.8,-2081.7,-2020.5,-2542.2,-2307.0,-2315.1,-6.9,-6.0,-2426.4,-2130.3,-0.6,-1818.3,-2482.2,-2207.7,0,1932,0,172,0, 
1.0767,-2027.4,-1985.1,-1962.9,-1899.9,-2041.8,-2126.4,-2022.9,-1869.9,-55871.4,-2016.3,-1991.1,-2041.5,-2021.1,-2523.6,-2284.2,-2325.6,-6.9,-5.7,-2443.2,-2100.0,-0.3,-1783.8,-2478.9,-2200.8,0,1938,0,173,0, 
1.0800,-2078.1,-1965.9,-2012.7,-1916.4,-2045.7,-2122.5,-2015.4,-1867.8,-101146.5,-2004.3,-1992.3,-2043.6,-2014.2,-2516.1,-2268.6,-2304.3,-6.9,-5.7,-2426.4,-2101.8,-0.6,-1773.6,-2473.5,-2205.6,0,1944,0,174,0, 
1.0833,-2027.1,-2000.4,-2016.0,-1917.9,-2040.6,-2119.8,-2013.3,-1869.0,-106407.6,-1995.0,-2008.2,-2056.2,-1978.8,-2516.1,-2277.3,-2317.2,-6.9,-5.7,-2473.2,-2112.0,-0.9,-1783.5,-2473.2,-2199.9,0,1950,0,175,0, 
1.0867,-1939.2,-2020.8,-2016.0,-1922.4,-2055.0,-2135.7,-2031.0,-1889.4,-64170.6,-2040.3,-2035.8,-2085.0,-1998.6,-2531.7,-2303.1,-2328.9,-6.6,-5.7,-2469.9,-2129.1,-0.6,-1816.8,-2488.5,-2203.2,0,1956,0,176,0, 
1.0900,-1942.2,-2015.1,-2021.4,-1929.6,-2066.7,-2148.0,-2036.1,-1897.2,-32900.4,-2046.3,-2039.4,-2089.5,-2017.2,-2533.8,-2303.7,-2329.8,-6.9,-5.7,-2478.9,-2138.1,-0.6,-1825.5,-2493.3,-2229.0,0,1962,0,177,0, 
1.0933,-2037.9,-1970.7,-1980.0,-1909.5,-2046.3,-2137.2,-2026.2,-1874.4,-56834.7,-2015.7,-2007.0,-2049.0,-2014.5,-2526.3,-2287.5,-2322.6,-6.6,-5.7,-2451.9,-2104.5,-0.9,-1791.0,-2484.9,-2228.1,0,1968,0,178,0, 
1.0967,-2091.0,-1958.7,-1968.9,-1898.4,-2030.4,-2125.5,-2013.6,-1860.6,-102332.1,-2002.5,-1972.5,-2032.8,-1998.9,-2520.0,-2278.8,-2315.1,-7.2,-5.7,-2423.1,-2094.3,-0.6,-1780.8,-2478.9,-2215.8,0,1974,0,179,0, 
1.1000,-2025.0,-1957.8,-1948.5,-1899.6,-2039.4,-2127.3,-2018.7,-1865.1,-107296.8,-2023.2,-2010.3,-2064.6,-2006.7,-2520.0,-2287.5,-2314.5,-6.9,-6.0,-2430.3,-2124.3,-0.6,-1795.2,-2489.7,-2211.6,0,1980,0,180,0, 
1.1033,-1932.0,-1951.5,-1996.5,-1920.9,-2054.4,-2145.9,-2029.2,-1880.7,-65504.4,-2054.1,-2046.6,-2097.6,-2031.3,-2527.8,-2314.2,-2331.0,-7.2,-5.7,-2486.1,-2141.7,-0.6,-1826.4,-2493.9,-2213.7,0,1986,0,181,0, 
1.1067,-1945.5,-2023.2,-2023.2,-1935.6,-2067.6,-2154.9,-2040.0,-1896.9,-34011.9,-2049.9,-2053.2,-2107.5,-2013.0,-2531.4,-2301.3,-2324.7,-6.9,-6.0,-2499.9,-2150.4,-0.9,-1834.5,-2495.4,-2226.3,0,1992,0,182,0, 
1.1100,-2040.9,-2011.2,-2029.8,-1922.7,-2048.4,-2140.8,-2024.1,-1880.4,-56908.8,-2003.1,-2007.9,-2054.7,-1989.0,-2526.6,-2289.6,-2314.5,-7.2,-6.0,-2451.0,-2111.1,-0.6,-1790.4,-2477.7,-2211.0,0,1998,0,183,0, 
1.1133,-2087.7,-1963.8,-1963.2,-1891.5,-2028.0,-2123.7,-2010.0,-1857.3,-102406.2,-1986.0,-1977.6,-2035.2,-1999.2,-2516.1,-2272.5,-2313.3,-6.9,-5.7,-2421.9,-2093.7,-0.9,-1760.1,-2472.0,-2206.2,0,2004,0,184,0, 
1.1167,-2020.5,-1914.9,-1919.4,-1883.4,-2034.6,-2130.9,-2019.3,-1855.2,-107667.3,-2025.3,-1989.3,-2060.1,-2007.6,-2511.9,-2287.2,-2322.3,-6.6,-5.7,-2432.4,-2115.0,-0.6,-1796.1,-2484.6,-2214.6,0,2010,0,185,0, 
1.1200,-1940.4,-1998.6,-2039.7,-1934.4,-2068.8,-2153.7,-2039.7,-1896.3,-64985.7,-2052.6,-2034.0,-2095.8,-2013.9,-2520.6,-2282.1,-2325.6,-6.6,-6.0,-2452.2,-2149.8,-0.6,-1828.5,-2499.6,-2226.3,0,2016,0,186,0, 
1.1233,-1941.6,-1979.1,-1971.0,-1919.4,-2066.1,-2153.4,-2043.3,-1886.7,-32455.8,-2061.0,-2043.9,-2094.6,-2032.2,-2529.3,-2307.3,-2329.2,-7.2,-5.7,-2493.6,-2145.6,-0.9,-1843.2,-2497.8,-2229.9,0,2022,0,187,0, 
1.1267,-2036.4,-1987.2,-2000.7,-1909.2,-2042.7,-2132.7,-2026.8,-1872.0,-55352.7,-1995.3,-1984.5,-2048.7,-2030.4,-2530.8,-2304.9,-2322.9,-6.9,-6.0,-2412.3,-2106.9,-0.6,-1768.8,-2475.3,-2211.0,0,2028,0,188,0, 
1.1300,-2103.6,-1978.5,-1964.7,-1896.6,-2030.4,-2123.4,-2013.3,-1858.2,-100998.3,-1977.0,-1962.6,-2021.4,-1942.2,-2521.5,-2260.8,-2291.4,-6.9,-6.0,-2399.1,-2099.1,-0.9,-1757.4,-2469.9,-2204.7,0,2034,0,189,0, 
1.1333,-2030.1,-1961.1,-1975.2,-1898.4,-2034.0,-2127.3,-2022.0,-1862.1,-106185.3,-2017.2,-1990.2,-2037.0,-1990.8,-2515.8,-2277.0,-2313.0,-6.9,-6.0,-2445.9,-2099.7,-0.9,-1788.6,-2484.3,-2209.8,0,2040,0,190,0, 
1.1367,-1933.2,-1982.4,-2015.1,-1922.4,-2060.4,-2141.1,-2031.9,-1881.6,-63948.3,-2035.2,-2031.0,-2082.9,-2030.7,-2525.1,-2303.4,-2317.8,-7.2,-6.0,-2466.9,-2135.1,-0.9,-1817.4,-2493.0,-2218.5,0,2046,0,191,0, 
1.1400,-1953.6,-2020.8,-1998.0,-1924.8,-2066.1,-2148.3,-2041.2,-1889.4,-31122.0,-2045.4,-2027.1,-2074.2,-2000.7,-2539.8,-2303.7,-2316.6,-6.6,-5.7,-2460.9,-2128.5,-0.6,-1817.7,-2493.6,-2219.7,0,2052,0,192,0, 
1.1433,-2037.3,-1965.3,-1976.4,-1904.4,-2042.7,-2131.5,-2026.2,-1862.1,-53944.8,-2009.1,-1999.2,-2042.4,-2016.6,-2523.6,-2283.6,-2314.2,-6.9,-5.4,-2438.4,-2105.1,-1.2,-1784.1,-2484.9,-2210.7,0,2058,0,193,0, 
1.1467,-2081.1,-1896.9,-1932.0,-1878.6,-2015.7,-2109.3,-2009.4,-1832.1,-99442.2,-1992.0,-1974.6,-2016.0,-2005.5,-2520.6,-2284.2,-2319.3,-6.9,-6.0,-2431.5,-2088.3,-0.6,-1762.2,-2480.1,-2202.3,0,2064,0,194,0, 
1.1500,-2027.1,-2015.4,-1993.8,-1899.9,-2021.4,-2111.7,-2010.0,-1856.4,-104036.4,-1987.2,-1977.0,-2036.1,-1974.9,-2511.0,-2274.6,-2311.5,-6.6,-6.0,-2411.7,-2092.5,-0.9,-1773.0,-2474.4,-2196.3,0,2070,0,195,0, 
1.1533,-1926.6,-1955.1,-1976.4,-1910.7,-2048.1,-2138.1,-2032.8,-1873.5,-61206.6,-2063.1,-2027.1,-2081.7,-2042.1,-2514.6,-2294.4,-2323.2,-6.6,-6.0,-2474.4,-2137.5,-0.6,-1827.0,-2493.6,-2219.7,0,2076,0,196,0, 
1.1567,-1941.9,-1989.0,-2025.0,-1925.4,-2054.1,-2144.7,-2037.3,-1888.8,-28232.1,-2037.9,-2032.5,-2077.5,-2021.1,-2522.1,-2295.6,-2326.2,-6.9,-6.0,-2450.7,-2133.3,-0.6,-1818.0,-2486.7,-2217.0,0,2082,0,197,0, 
1.1600,-2034.0,-1993.2,-2002.8,-1911.0,-2035.5,-2127.9,-2025.0,-1873.5,-51351.3,-2001.9,-2002.8,-2058.3,-2000.7,-2505.0,-2258.4,-2304.9,-6.9,-6.0,-2453.1,-2110.2,-0.9,-1777.5,-2483.1,-2202.6,0,2088,0,198,0, 
1.1633,-2079.6,-1927.8,-1940.1,-1885.2,-2024.1,-2119.8,-2013.3,-1844.1,-96404.1,-1990.5,-1973.7,-2035.8,-1979.7,-2508.0,-2273.4,-2313.9,-7.5,-6.0,-2409.6,-2092.8,-0.9,-1761.6,-2481.9,-2202.3,0,2094,0,199,0, 
1.1667,-2021.1,-1988.1,-1985.4,-1898.7,-2030.4,-2121.3,-2010.3,-1856.1,-101146.5,-2001.6,-1980.9,-2048.1,-2004.3,-2502.3,-2283.9,-2299.5,-6.9,-6.0,-2392.5,-2107.5,-0.6,-1786.2,-2474.1,-2204.7,0,2100,0,200,0, 
1.1700,-1917.3,-1953.0,-1990.5,-1914.3,-2052.9,-2139.6,-2026.5,-1868.1,-58020.3,-2053.5,-2043.0,-2083.5,-2021.7,-2508.6,-2301.3,-2306.7,-6.9,-6.0,-2518.5,-2139.6,-0.6,-1820.7,-2487.9,-2218.5,0,2106,0,201,0, 
1.1733,-1933.5,-1992.3,-1949.4,-1891.5,-2039.4,-2131.5,-2026.2,-1864.8,-25416.3,-2026.2,-2003.7,-2069.1,-1997.1,-2511.9,-2291.4,-2318.1,-7.2,-5.7,-2429.1,-2132.1,-0.9,-1803.0,-2482.8,-2205.6,0,2112,0,202,0, 
1.1767,-2021.4,-1986.0,-2022.0,-1906.5,-2031.0,-2120.7,-2017.2,-1859.4,-48683.7,-1985.4,-1991.1,-2032.5,-1971.0,-2491.5,-2262.6,-2306.4,-6.6,-5.4,-2442.6,-2100.6,-0.6,-1771.8,-2474.4,-2202.0,0,2118,0,203,0, 
1.1800,-2070.9,-1959.0,-1962.9,-1877.4,-2005.5,-2097.6,-1999.5,-1835.7,-94107.0,-1982.7,-1960.2,-1994.1,-1964.7,-2491.8,-2249.1,-2294.7,-7.2,-6.0,-2397.3,-2067.6,-0.9,-1753.8,-2460.6,-2198.1,0,2124,0,204,0, 
1.1833,-2009.7,-1927.5,-1905.9,-1868.1,-2008.8,-2103.6,-2005.8,-1834.5,-98553.0,-2013.9,-1985.7,-2035.5,-1994.7,-2502.6,-2276.4,-2303.1,-6.6,-6.0,-2448.0,-2098.8,-0.9,-1774.8,-2470.5,-2206.2,0,2130,0,205,0, 
1.1867,-1916.7,-1974.0,-2007.3,-1902.3,-2035.2,-2124.3,-2021.1,-1862.7,-55426.8,-2042.1,-2016.6,-2065.8,-2006.7,-2500.5,-2279.7,-2301.9,-6.6,-6.0,-2445.0,-2117.7,-0.9,-1813.2,-2488.8,-2215.2,0,2136,0,206,0, 
1.1900,-1928.4,-1966.2,-1984.8,-1893.0,-2034.6,-2122.2,-2016.9,-1863.0,-23267.4,-2030.1,-2008.2,-2067.6,-1998.9,-2511.3,-2301.6,-2305.8,-6.6,-6.0,-2470.8,-2118.6,-1.2,-1806.3,-2485.2,-2201.4,0,2142,0,207,0, 
1.1933,-2020.2,-1992.0,-1980.9,-1890.9,-2023.8,-2112.6,-2011.8,-1859.1,-47349.9,-1999.2,-1966.5,-2027.4,-1988.4,-2495.1,-2258.4,-2301.6,-7.2,-5.7,-2397.0,-2092.5,-0.9,-1770.3,-2472.6,-2189.7,0,2148,0,208,0, 
1.1967,-2072.4,-1945.2,-1948.5,-1875.0,-2014.8,-2101.2,-1998.9,-1834.5,-93143.7,-1986.0,-1970.4,-2029.5,-1970.4,-2482.2,-2245.2,-2305.8,-6.6,-6.0,-2429.7,-2097.9,-0.6,-1761.3,-2469.9,-2195.1,0,2154,0,209,0, 
1.2000,-2007.9,-1908.0,-1952.1,-1879.2,-2024.4,-2105.7,-2003.1,-1835.1,-97886.1,-2017.8,-2003.1,-2064.3,-1978.5,-2511.0,-2289.6,-2309.1,-6.9,-5.7,-2436.6,-2128.5,-0.6,-1792.8,-2474.1,-2200.5,0,2160,0,210,0, 
1.2033,-1929.0,-1993.5,-2010.9,-1910.1,-2046.3,-2124.9,-2016.0,-1870.8,-54389.4,-2041.8,-2038.2,-2097.0,-2004.0,-2519.1,-2295.0,-2300.7,-7.2,-6.0,-2499.6,-2142.9,-0.9,-1821.0,-2478.0,-2208.0,0,2166,0,211,0, 
1.2067,-1930.8,-2013.0,-1999.8,-1903.8,-2040.3,-2125.8,-2022.3,-1875.9,-23267.4,-2027.1,-1994.7,-2037.6,-1979.7,-2505.0,-2278.2,-2302.5,-6.6,-5.7,-2425.8,-2096.7,-0.3,-1802.1,-2479.5,-2211.0,0,2172,0,212,0, 
1.2100,-2021.7,-1949.4,-1953.3,-1879.2,-2018.1,-2110.5,-2006.4,-1851.3,-47275.8,-1988.1,-1948.5,-1999.2,-1971.6,-2502.9,-2271.3,-2299.8,-6.6,-6.3,-2393.4,-2063.7,-0.6,-1755.9,-2463.9,-2191.5,0,2178,0,213,0, 
1.2133,-2074.8,-1949.7,-1941.3,-1862.7,-1999.2,-2094.6,-1996.5,-1833.9,-93810.6,-1968.0,-1931.4,-1982.1,-1986.3,-2493.3,-2251.2,-2296.5,-7.2,-5.7,-2367.9,-2050.2,-0.6,-1738.8,-2467.5,-2166.0,0,2184,0,214,0, 
1.2167,-2012.4,-1925.1,-1947.0,-1875.6,-2016.3,-2108.1,-2001.9,-1841.1,-98627.1,-1998.0,-1979.7,-2016.3,-1987.5,-2505.6,-2265.9,-2289.3,-6.9,-6.0,-2444.4,-2075.7,-0.9,-1759.2,-2460.0,-2173.5,0,2190,0,215,0, 
1.2200,-1918.8,-1975.5,-1985.1,-1901.1,-2043.0,-2132.1,-2024.4,-1871.4,-56464.2,-2039.1,-2016.6,-2063.1,-2036.1,-2513.1,-2272.5,-2296.2,-7.2,-5.7,-2445.9,-2117.4,-0.6,-1805.4,-2483.1,-2196.0,0,2196,0,216,0, 
1.2233,-1934.1,-1967.1,-1973.1,-1896.6,-2039.7,-2128.5,-2018.7,-1869.6,-24823.5,-2028.6,-2015.4,-2057.1,-1984.2,-2520.0,-2285.4,-2291.4,-6.6,-6.0,-2471.4,-2105.1,-0.3,-1796.7,-2463.6,-2187.9,0,2202,0,217,0, 
1.2267,-2033.7,-1989.9,-1951.5,-1876.5,-2014.5,-2107.2,-2008.2,-1856.4,-49869.3,-1983.0,-1959.9,-2005.8,-1980.3,-2505.9,-2270.1,-2295.9,-7.2,-6.0,-2427.6,-2064.6,-0.3,-1743.9,-2471.7,-2175.0,0,2208,0,218,0, 
1.2300,-2078.1,-1901.1,-1954.2,-1869.6,-2006.7,-2094.6,-1992.6,-1836.9,-96478.2,-1973.1,-1958.1,-1997.4,-1982.1,-2496.6,-2251.5,-2279.7,-6.9,-5.7,-2417.4,-2056.2,-0.3,-1738.8,-2454.6,-2174.4,0,2214,0,219,0, 
1.2333,-2026.5,-1968.6,-1948.2,-1872.9,-2008.5,-2093.4,-1998.9,-1843.2,-101517.0,-1987.2,-1968.0,-2024.4,-1962.3,-2495.7,-2248.5,-2287.5,-6.9,-5.7,-2419.8,-2078.7,-0.3,-1754.4,-2465.1,-2173.2,0,2220,0,220,0, 
1.2367,-1922.1,-1949.4,-1978.2,-1884.9,-2021.7,-2107.8,-2012.7,-1857.3,-59057.7,-2028.6,-2011.8,-2043.0,-1987.2,-2503.2,-2282.4,-2294.4,-7.2,-5.7,-2471.4,-2091.0,-0.6,-1785.6,-2467.5,-2176.5,0,2226,0,221,0, 
1.2400,-1939.8,-2021.4,-2004.6,-1898.4,-2030.1,-2112.0,-2015.7,-1871.4,-28232.1,-1997.4,-2000.7,-2042.1,-1966.8,-2509.2,-2286.9,-2291.7,-6.9,-5.4,-2441.4,-2088.0,-0.6,-1772.4,-2465.7,-2171.1,0,2232,0,222,0, 
1.2433,-2025.0,-1942.2,-1952.4,-1873.2,-2012.4,-2100.3,-2007.6,-1848.0,-53129.7,-1981.5,-1963.8,-2016.6,-1981.5,-2499.6,-2267.1,-2289.3,-6.9,-6.6,-2424.0,-2061.6,-0.3,-1746.3,-2469.6,-2170.8,0,2238,0,223,0, 
1.2467,-2070.6,-1929.3,-1934.1,-1863.9,-2004.6,-2085.3,-1994.4,-1834.5,-100035.0,-1972.5,-1948.5,-1997.1,-1978.2,-2484.9,-2242.8,-2271.6,-6.6,-5.7,-2409.6,-2060.1,-0.9,-1733.1,-2454.0,-2169.0,0,2244,0,224,0, 
1.2500,-2015.7,-1938.0,-1966.5,-1881.9,-2019.0,-2095.8,-1999.2,-1844.1,-105073.8,-1986.0,-1978.5,-2024.4,-1953.9,-2496.0,-2232.3,-2271.0,-7.2,-6.0,-2424.3,-2085.3,-0.3,-1760.7,-2460.0,-2178.3,0,2250,0,225,0, 
1.2533,-1922.4,-1987.5,-1980.3,-1893.0,-2029.5,-2101.5,-2009.4,-1858.8,-61799.4,-2021.7,-2014.8,-2064.0,-1988.1,-2503.2,-2268.3,-2279.4,-6.6,-6.0,-2468.7,-2105.4,-0.6,-1793.7,-2468.4,-2177.4,0,2256,0,226,0, 
1.2567,-1932.9,-1981.2,-1969.5,-1887.3,-2025.3,-2100.9,-2012.7,-1855.2,-30381.0,-2023.2,-2002.2,-2057.1,-1992.9,-2524.5,-2308.8,-2299.8,-6.9,-5.4,-2440.8,-2099.7,-0.6,-1781.4,-2471.4,-2185.2,0,2262,0,227,0, 
1.2600,-2018.7,-1942.8,-1962.0,-1881.3,-2017.5,-2093.4,-2003.7,-1838.1,-55352.7,-1988.4,-1979.7,-2022.9,-1981.2,-2505.3,-2267.4,-2278.8,-7.2,-5.7,-2415.3,-2081.1,-0.6,-1755.6,-2452.8,-2175.0,0,2268,0,228,0, 
1.2633,-2062.5,-1913.7,-1903.2,-1854.9,-1997.7,-2074.2,-1986.6,-1814.4,-101813.4,-1972.8,-1952.4,-2005.2,-1987.8,-2490.0,-2245.5,-2285.4,-6.6,-5.7,-2391.6,-2065.8,-0.9,-1734.9,-2458.8,-2160.9,0,2274,0,229,0, 
1.2667,-2005.5,-1961.4,-2018.7,-1904.7,-2025.9,-2093.1,-1997.4,-1850.1,-106259.4,-2008.8,-2008.8,-2050.8,-1987.5,-2488.2,-2253.9,-2262.9,-6.9,-6.3,-2461.8,-2103.6,-0.6,-1772.4,-2457.6,-2180.4,0,2280,0,230,0, 
1.2700,-1919.4,-1955.7,-1961.7,-1878.6,-2016.3,-2094.9,-2009.7,-1844.4,-63059.1,-2028.0,-1995.6,-2053.8,-1986.9,-2511.3,-2292.9,-2310.6,-7.5,-6.0,-2425.5,-2109.0,-0.9,-1785.9,-2493.0,-2176.5,0,2286,0,231,0, 
1.2733,-1923.6,-1938.0,-1959.6,-1890.6,-2031.9,-2108.4,-2018.4,-1854.0,-31788.9,-2038.2,-2006.4,-2072.4,-1989.0,-2517.3,-2283.9,-2310.9,-7.2,-5.7,-2430.6,-2121.3,-0.3,-1798.5,-2488.2,-2186.4,0,2292,0,232,0, 
1.2767,-2034.0,-2015.7,-2006.1,-1899.9,-2025.6,-2095.2,-1998.6,-1851.6,-56760.6,-1963.2,-2001.0,-2032.8,-1970.4,-2503.8,-2259.6,-2280.3,-6.6,-6.0,-2491.2,-2092.2,-0.9,-1750.5,-2461.5,-2173.2,0,2298,0,233,0, 
1.2800,-2074.2,-1908.3,-1920.6,-1870.5,-2008.2,-2086.5,-1989.3,-1826.4,-102702.6,-1983.3,-1966.2,-2017.2,-1969.5,-2503.5,-2251.8,-2284.5,-7.2,-5.7,-2416.5,-2088.3,-0.9,-1745.7,-2458.8,-2178.3,0,2304,0,234,0, 
1.2833,-2007.6,-1941.3,-1957.2,-1876.5,-2006.4,-2084.1,-1993.8,-1834.2,-107667.3,-1994.1,-1978.2,-2025.3,-1993.2,-2495.4,-2260.8,-2303.7,-6.6,-6.3,-2423.7,-2088.6,-1.2,-1761.0,-2472.9,-2186.4,0,2310,0,235,0, 
1.2867,-1927.2,-1996.8,-1974.9,-1900.8,-2031.6,-2110.5,-2010.6,-1863.9,-64541.1,-2032.2,-2028.9,-2071.2,-1962.9,-2511.9,-2279.7,-2297.7,-7.2,-6.0,-2495.1,-2117.4,-0.6,-1797.3,-2475.9,-2194.8,0,2316,0,236,0, 
1.2900,-1924.2,-1956.6,-2031.0,-1920.3,-2049.6,-2124.3,-2018.4,-1872.3,-33270.9,-2037.9,-2034.3,-2080.8,-2001.3,-2510.1,-2276.1,-2303.7,-6.6,-5.7,-2480.1,-2126.1,-0.9,-1806.9,-2474.1,-2194.5,0,2322,0,237,0, 
1.2933,-2024.1,-1980.9,-1983.9,-1897.2,-2029.5,-2109.6,-2001.6,-1860.0,-58094.4,-1992.0,-1990.2,-2035.8,-1973.4,-2498.1,-2256.6,-2285.4,-6.6,-6.0,-2428.5,-2092.8,-0.6,-1761.3,-2454.6,-2179.8,0,2328,0,238,0, 
1.2967,-2068.2,-1916.4,-1947.0,-1882.8,-2017.8,-2099.4,-1994.4,-1838.1,-104332.8,-1981.2,-1987.2,-2013.9,-1980.0,-2492.4,-2247.6,-2283.0,-6.9,-5.7,-2445.3,-2081.4,-0.9,-1747.5,-2458.2,-2192.7,0,2334,0,239,0, 
1.3000,-2015.4,-1999.5,-2013.0,-1905.0,-2029.5,-2107.5,-1995.9,-1856.4,-108334.2,-1986.6,-2001.6,-2039.4,-1977.3,-2494.5,-2254.5,-2286.6,-6.9,-5.7,-2442.0,-2094.6,-0.6,-1767.3,-2463.6,-2199.9,0,2340,0,240,0, 
1.3033,-1906.8,-1950.0,-1966.2,-1903.5,-2047.8,-2121.9,-2012.7,-1863.3,-65652.6,-2046.0,-2033.7,-2084.4,-2019.6,-2503.5,-2271.9,-2289.3,-6.6,-6.0,-2488.5,-2131.2,-0.6,-1809.3,-2472.3,-2207.4,0,2346,0,241,0, 
1.3067,-1923.6,-2004.3,-2014.2,-1919.4,-2053.2,-2125.5,-2016.9,-1882.2,-34604.7,-2028.0,-2020.5,-2079.9,-1997.1,-2503.2,-2268.6,-2281.5,-6.9,-6.0,-2427.9,-2124.9,-0.6,-1800.6,-2468.4,-2196.3,0,2352,0,242,0, 
1.3100,-2022.0,-1953.9,-1967.1,-1902.9,-2040.3,-2116.8,-2011.2,-1858.8,-58464.9,-2005.5,-2005.2,-2051.1,-1999.2,-2504.4,-2258.7,-2274.3,-6.9,-5.4,-2466.6,-2105.1,-0.9,-1775.4,-2461.5,-2196.6,0,2358,0,243,0, 
1.3133,-2079.9,-1956.3,-1931.7,-1878.3,-2013.0,-2097.6,-1996.2,-1842.3,-104851.5,-1983.0,-1967.7,-2013.3,-1964.7,-2493.3,-2247.6,-2281.2,-6.9,-6.3,-2422.2,-2076.0,-0.6,-1749.9,-2449.5,-2185.8,0,2364,0,244,0, 
1.3167,-2007.9,-1950.6,-2002.8,-1901.1,-2029.8,-2109.6,-2007.0,-1851.9,-109816.2,-1985.4,-2018.7,-2043.0,-1978.2,-2486.1,-2245.2,-2289.0,-7.2,-6.0,-2472.9,-2093.1,-0.3,-1755.6,-2467.2,-2190.3,0,2370,0,245,0, 
1.3200,-1930.2,-2011.8,-2027.7,-1916.1,-2049.6,-2121.6,-2019.0,-1883.1,-66912.3,-2027.7,-2028.9,-2079.3,-1995.9,-2506.5,-2266.8,-2277.9,-7.2,-5.7,-2455.8,-2127.0,-0.6,-1803.3,-2463.3,-2198.7,0,2376,0,246,0, 
1.3233,-1913.4,-1931.7,-1992.3,-1910.1,-2056.2,-2131.2,-2024.1,-1872.9,-35419.8,-2042.7,-2034.6,-2085.0,-2014.8,-2497.8,-2275.5,-2301.6,-6.9,-5.7,-2486.4,-2128.2,-0.6,-1812.6,-2480.4,-2207.1,0,2382,0,247,0, 
1.3267,-2019.9,-1986.3,-1977.6,-1888.5,-2023.8,-2110.5,-2007.6,-1857.3,-60539.7,-1990.5,-1977.3,-2029.5,-1998.3,-2493.6,-2265.3,-2289.0,-6.9,-6.0,-2409.9,-2086.2,-0.9,-1759.2,-2457.6,-2188.8,0,2388,0,248,0, 
1.3300,-2074.5,-1896.6,-1880.1,-1857.6,-2008.8,-2099.4,-1996.5,-1831.8,-106926.3,-1989.9,-1954.5,-2015.4,-1968.0,-2504.1,-2252.1,-2283.9,-6.6,-5.7,-2382.6,-2084.7,-0.3,-1747.5,-2450.4,-2191.5,0,2394,0,249,0, 
1.3333,-2009.7,-1997.1,-2019.9,-1899.0,-2021.4,-2105.4,-1998.0,-1852.5,-111150.0,-1980.0,-1993.2,-2035.2,-1989.0,-2486.1,-2259.3,-2271.3,-7.2,-5.4,-2449.5,-2100.0,-0.3,-1757.1,-2451.6,-2187.9,0,2400,0,250,0, 
1.3367,-1919.1,-1940.7,-2003.1,-1907.1,-2040.9,-2118.9,-2012.4,-1867.5,-68468.4,-2030.7,-2034.0,-2075.4,-1999.5,-2516.1,-2292.3,-2277.3,-6.9,-5.7,-2482.2,-2118.9,-0.9,-1801.8,-2456.7,-2195.1,0,2406,0,251,0, 
1.3400,-1922.4,-1987.5,-1974.6,-1899.6,-2041.5,-2123.7,-2022.6,-1869.3,-37050.0,-2038.5,-2019.6,-2062.2,-2005.5,-2514.3,-2283.0,-2296.8,-6.6,-6.0,-2473.8,-2119.8,-0.9,-1797.6,-2468.7,-2196.9,0,2412,0,252,0, 
1.3433,-2028.9,-1980.9,-1982.1,-1892.7,-2027.7,-2109.6,-2008.5,-1855.8,-61503.0,-1985.7,-1988.4,-2026.2,-1968.9,-2502.9,-2256.9,-2276.1,-6.6,-6.0,-2427.0,-2090.4,-0.6,-1756.8,-2453.4,-2189.4,0,2418,0,253,0, 
1.3467,-2065.5,-1878.6,-1922.1,-1874.4,-2016.0,-2100.3,-1995.9,-1831.2,-108111.9,-1984.5,-1973.1,-2016.9,-1982.4,-2492.1,-2249.1,-2274.6,-6.9,-5.7,-2420.1,-2086.8,-0.6,-1743.3,-2453.1,-2185.5,0,2424,0,254,0, 
1.3500,-2027.7,-1989.3,-1986.0,-1886.4,-2017.2,-2099.7,-1997.1,-1847.4,-112928.4,-1978.8,-1977.6,-2023.8,-1947.6,-2501.7,-2258.4,-2279.7,-7.2,-6.0,-2413.2,-2083.8,-0.9,-1753.2,-2453.1,-2177.4,0,2430,0,255,0, 
1.3533,-1929.0,-1983.6,-2001.9,-1904.1,-2038.8,-2119.5,-2016.9,-1863.3,-70098.6,-2025.0,-2011.5,-2064.6,-1957.8,-2510.7,-2285.4,-2291.4,-6.9,-5.7,-2457.6,-2118.0,-0.9,-1797.3,-2475.9,-2196.0,0,2436,0,0,0, 
1.3567,-1937.7,-1998.9,-2003.1,-1911.9,-2046.6,-2124.3,-2016.0,-1872.9,-38680.2,-2010.0,-2027.4,-2073.6,-1992.6,-2509.5,-2272.5,-2270.1,-6.9,-6.0,-2473.8,-2120.1,-0.6,-1790.1,-2451.9,-2192.1,0,2442,0,1,0, 
1.3600,-2024.4,-1914.9,-1933.5,-1875.9,-2022.6,-2110.8,-2009.1,-1842.6,-63059.1,-1993.5,-1964.4,-2021.1,-1983.9,-2508.3,-2269.5,-2296.5,-7.2,-6.3,-2403.6,-2090.7,-1.2,-1759.2,-2468.7,-2187.3,0,2448,0,2,0, 
1.3633,-2078.7,-1967.4,-1985.4,-1884.3,-2013.3,-2093.4,-1992.3,-1840.5,-109668.0,-1955.4,-1961.7,-2004.6,-1954.5,-2488.8,-2244.0,-2265.6,-7.2,-6.3,-2406.3,-2075.7,-0.9,-1730.7,-2442.9,-2175.6,0,2454,0,3,0, 
1.3667,-2007.3,-1926.6,-1947.0,-1880.1,-2018.4,-2096.1,-1995.9,-1838.4,-114780.9,-1994.4,-1972.2,-2022.3,-1989.9,-2502.3,-2264.7,-2269.2,-6.6,-5.7,-2409.6,-2089.8,-0.9,-1765.8,-2448.3,-2190.9,0,2460,0,4,0, 
1.3700,-1921.5,-1947.9,-1991.1,-1904.4,-2043.9,-2118.3,-2013.6,-1862.4,-71210.1,-2017.5,-2016.0,-2058.9,-1987.8,-2514.6,-2273.4,-2286.9,-6.9,-6.0,-2464.2,-2122.5,-0.6,-1793.4,-2463.3,-2200.8,0,2466,0,5,0, 
1.3733,-1922.1,-1986.9,-1987.8,-1906.8,-2048.7,-2121.9,-2020.5,-1871.4,-39569.4,-2021.4,-2020.2,-2067.3,-1995.9,-2504.4,-2263.2,-2294.4,-7.2,-5.7,-2467.8,-2122.2,-0.9,-1785.3,-2469.3,-2188.2,0,2472,0,6,0, 
1.3767,-2029.8,-1999.5,-2010.3,-1904.1,-2038.8,-2113.5,-2001.6,-1862.1,-63874.2,-1972.2,-1976.1,-2029.2,-1959.3,-2499.0,-2241.6,-2265.6,-7.2,-5.4,-2400.0,-2089.8,-0.6,-1743.9,-2440.8,-2172.6,0,2478,0,7,0, 
1.3800,-2064.3,-1910.7,-1881.0,-1862.4,-2012.7,-2091.3,-1990.2,-1830.3,-110038.5,-1969.8,-1949.1,-1998.6,-1974.9,-2497.2,-2236.5,-2268.6,-6.9,-6.0,-2396.1,-2077.2,-0.9,-1734.3,-2437.5,-2171.1,0,2484,0,8,0, 
1.3833,-2012.7,-1989.0,-2017.8,-1905.0,-2028.0,-2099.4,-1995.3,-1852.2,-114929.1,-1974.3,-1993.8,-2030.7,-1951.5,-2495.4,-2246.4,-2273.4,-6.6,-5.4,-2452.5,-2090.1,-0.6,-1751.1,-2442.0,-2186.7,0,2490,0,9,0, 
1.3867,-1908.9,-1945.2,-1956.3,-1898.4,-2043.0,-2119.5,-2020.2,-1862.7,-71358.3,-2043.0,-2008.5,-2072.4,-2019.0,-2505.6,-2286.6,-2294.7,-6.9,-5.7,-2433.0,-2125.2,-0.6,-1793.4,-2474.4,-2185.2,0,2496,0,10,0, 
1.3900,-1929.9,-2016.3,-2035.2,-1926.9,-2057.4,-2125.8,-2024.4,-1880.4,-40162.2,-2010.3,-2026.8,-2078.1,-1986.0,-2515.8,-2277.9,-2286.3,-6.9,-6.3,-2475.3,-2121.0,-0.6,-1800.0,-2466.9,-2191.2,0,2502,0,11,0, 
1.3933,-2005.2,-1882.5,-1947.6,-1895.7,-2037.6,-2112.3,-2016.0,-1849.8,-63948.3,-2025.0,-1997.7,-2044.5,-2052.6,-2504.7,-2266.2,-2295.3,-6.9,-5.7,-2440.5,-2106.0,-1.2,-1776.9,-2466.9,-2196.3,0,2508,0,12,0, 
1.3967,-2088.6,-1999.2,-1962.3,-1888.8,-2015.1,-2091.3,-1997.1,-1844.4,-109668.0,-1949.7,-1954.8,-2011.2,-1922.1,-2496.3,-2237.4,-2280.3,-6.9,-5.7,-2383.8,-2078.4,-0.3,-1732.8,-2443.8,-2178.0,0,2514,0,13,0, 
1.4000,-2009.1,-1949.7,-1972.2,-1898.4,-2027.7,-2101.2,-1998.3,-1849.5,-114039.9,-1995.6,-1999.2,-2038.8,-1965.0,-2493.6,-2240.4,-2279.7,-6.9,-5.7,-2472.0,-2096.7,-0.6,-1766.4,-2451.6,-2190.9,0,2520,0,14,0, 
1.4033,-1920.3,-2008.5,-2029.8,-1921.8,-2048.1,-2113.8,-2013.3,-1878.0,-70691.4,-2018.7,-2012.1,-2070.6,-1977.3,-2499.0,-2258.7,-2277.9,-6.9,-5.7,-2435.1,-2116.8,-0.6,-1797.6,-2460.3,-2197.8,0,2526,0,15,0, 
1.4067,-1918.5,-1949.4,-1973.1,-1904.7,-2045.1,-2118.6,-2019.0,-1869.9,-38976.6,-2029.5,-2028.3,-2070.9,-1994.1,-2505.6,-2270.1,-2292.9,-6.9,-5.4,-2483.1,-2117.4,-0.6,-1797.6,-2466.9,-2195.7,0,2532,0,16,0, 
1.4100,-2017.2,-1934.1,-1962.9,-1894.2,-2025.3,-2099.4,-2003.4,-1853.7,-63207.3,-1992.6,-1995.6,-2036.7,-1997.4,-2493.6,-2264.7,-2278.2,-6.9,-5.4,-2435.7,-2091.0,-0.3,-1762.2,-2448.3,-2182.2,0,2538,0,17,0, 
1.4133,-2074.5,-1936.8,-1972.8,-1891.5,-2014.5,-2090.1,-1991.7,-1842.3,-109890.3,-1968.9,-1988.7,-2025.9,-1959.0,-2499.3,-2240.1,-2259.9,-6.6,-5.7,-2408.1,-2080.2,-0.6,-1739.4,-2434.5,-2175.3,0,2544,0,18,0, 
1.4167,-2017.2,-1984.8,-1977.3,-1898.1,-2023.2,-2096.1,-1996.5,-1852.5,-113743.5,-1978.5,-1986.9,-2038.8,-1961.7,-2491.8,-2251.5,-2267.7,-6.9,-6.3,-2429.4,-2095.8,-0.9,-1752.9,-2443.2,-2178.3,0,2550,0,19,0, 
1.4200,-1923.0,-1957.5,-2035.5,-1925.4,-2046.0,-2116.2,-2018.7,-1876.5,-70543.2,-2011.2,-2014.8,-2047.5,-1994.4,-2503.8,-2272.2,-2278.2,-6.9,-6.0,-2462.1,-2106.3,-0.9,-1788.3,-2456.7,-2199.6,0,2556,0,20,0, 
1.4233,-1922.7,-1998.9,-1979.1,-1912.5,-2052.6,-2124.9,-2020.8,-1877.7,-39050.7,-2025.3,-2008.5,-2058.9,-1971.0,-2493.6,-2263.8,-2269.2,-7.2,-6.3,-2429.7,-2115.0,-0.9,-1799.7,-2453.7,-2204.1,0,2562,0,21,0, 
1.4267,-2017.5,-1949.7,-1976.7,-1904.1,-2034.3,-2111.1,-2007.3,-1859.1,-63726.0,-1980.6,-1974.3,-2027.7,-1998.9,-2489.7,-2253.0,-2267.7,-6.9,-6.0,-2433.0,-2087.4,-0.6,-1759.2,-2439.3,-2180.4,0,2568,0,22,0, 
1.4300,-2076.3,-1947.9,-1929.9,-1875.3,-2010.3,-2095.2,-1994.1,-1834.8,-109742.1,-1976.1,-1922.4,-1990.2,-1959.3,-2494.8,-2241.6,-2274.0,-6.9,-6.0,-2370.3,-2066.7,-0.9,-1744.5,-2441.4,-2169.3,0,2574,0,23,0, 
1.4333,-2009.4,-1964.7,-1989.9,-1896.6,-2024.1,-2105.7,-2001.6,-1850.4,-113965.8,-1965.0,-1964.7,-2025.9,-1974.0,-2484.9,-2246.4,-2263.5,-6.6,-5.7,-2392.5,-2087.4,-1.2,-1751.1,-2448.6,-2167.8,0,2580,0,24,0, 
1.4367,-1913.4,-1948.8,-1950.3,-1888.5,-2026.8,-2111.1,-2012.1,-1854.3,-70617.3,-2028.0,-1974.6,-2040.9,-1993.2,-2505.9,-2277.0,-2284.8,-7.2,-6.0,-2411.4,-2103.3,-0.9,-1797.6,-2463.3,-2172.3,0,2586,0,25,0, 
1.4400,-1917.0,-1947.6,-1946.1,-1894.2,-2035.2,-2123.7,-2018.1,-1859.1,-38828.4,-2024.4,-1989.3,-2040.6,-2016.6,-2504.7,-2284.8,-2285.4,-6.6,-5.7,-2437.2,-2110.2,-0.6,-1797.0,-2464.8,-2185.5,0,2592,0,26,0, 
1.4433,-2010.3,-1945.2,-2004.3,-1904.7,-2028.9,-2111.1,-2006.4,-1851.3,-63651.9,-1973.4,-1959.3,-2020.8,-1974.0,-2486.4,-2250.0,-2271.3,-6.9,-5.7,-2389.8,-2092.2,-0.9,-1754.1,-2445.0,-2178.0,0,2598,0,27,0, 
1.4467,-2078.7,-1975.8,-1959.6,-1880.1,-2003.1,-2089.5,-1988.1,-1837.2,-109223.4,-1940.1,-1923.3,-1985.4,-1917.9,-2483.1,-2236.5,-2259.9,-6.9,-5.7,-2376.6,-2061.9,-0.9,-1725.9,-2430.3,-2162.7,0,2604,0,28,0, 
1.4500,-2000.7,-1919.1,-1959.9,-1885.2,-2013.6,-2100.6,-1993.8,-1838.4,-113521.2,-1974.9,-1962.9,-2016.9,-1980.6,-2483.4,-2248.8,-2262.0,-6.6,-5.7,-2407.8,-2091.0,-0.9,-1750.8,-2442.3,-2172.9,0,2610,0,29,0, 
1.4533,-1906.2,-1936.2,-1947.0,-1891.5,-2028.6,-2117.4,-2008.2,-1853.4,-69728.1,-2026.2,-1993.2,-2047.8,-1991.4,-2490.3,-2272.2,-2274.6,-6.9,-6.3,-2435.1,-2111.7,-0.6,-1796.1,-2456.7,-2184.6,0,2616,0,30,0, 
1.4567,-1927.2,-2011.2,-1958.1,-1892.1,-2028.3,-2116.5,-2007.3,-1860.6,-38087.4,-1999.2,-1983.0,-2031.0,-1956.0,-2499.9,-2269.5,-2272.5,-6.9,-6.0,-2401.2,-2102.1,-0.9,-1781.1,-2447.7,-2174.7,0,2622,0,31,0, 
1.4600,-1996.8,-1899.3,-1952.7,-1888.5,-2020.5,-2112.6,-1999.2,-1840.5,-62392.2,-2001.0,-1956.0,-2017.2,-2013.3,-2478.3,-2256.3,-2267.7,-6.6,-5.7,-2365.5,-2095.2,-0.6,-1764.9,-2445.9,-2177.7,0,2628,0,32,0, 
1.4633,-2058.6,-1939.2,-1962.9,-1883.4,-2005.8,-2098.5,-1990.5,-1829.7,-108556.5,-1943.7,-1950.3,-1999.5,-1947.3,-2471.7,-2234.1,-2265.6,-6.9,-6.0,-2436.0,-2078.7,-0.6,-1727.7,-2439.6,-2168.7,0,2634,0,33,0, 
1.4667,-2008.8,-1994.7,-1978.2,-1899.0,-2023.8,-2109.3,-1997.7,-1849.8,-112483.8,-1981.5,-1961.7,-2025.6,-1914.0,-2484.3,-2240.4,-2263.8,-6.9,-6.0,-2391.0,-2097.9,-0.9,-1758.0,-2446.5,-2177.4,0,2640,0,34,0, 
1.4700,-1898.1,-1941.3,-1989.0,-1915.8,-2048.1,-2126.7,-2011.2,-1861.8,-68987.1,-2019.9,-2006.1,-2073.6,-2005.8,-2484.3,-2247.9,-2273.7,-6.9,-5.4,-2462.7,-2136.6,-0.6,-1794.9,-2462.7,-2195.4,0,2646,0,35,0, 
1.4733,-1915.5,-1980.0,-1961.4,-1908.3,-2042.7,-2119.5,-2017.8,-1863.9,-37346.4,-2019.6,-1990.2,-2054.7,-1976.7,-2501.1,-2282.4,-2286.3,-6.6,-5.7,-2413.5,-2131.2,-0.9,-1790.4,-2459.7,-2201.7,0,2652,0,36,0, 
1.4767,-2013.3,-1977.6,-1982.1,-1902.6,-2025.9,-2102.4,-2001.0,-1851.6,-62021.7,-1979.4,-1949.7,-2017.5,-1957.5,-2494.2,-2257.8,-2270.7,-6.9,-5.7,-2391.0,-2096.4,-0.3,-1752.3,-2442.9,-2176.8,0,2658,0,37,0, 
1.4800,-2047.8,-1892.1,-1863.6,-1870.2,-2011.2,-2094.0,-1994.4,-1824.3,-107296.8,-1985.4,-1947.0,-2016.9,-1988.4,-2469.6,-2244.9,-2265.3,-6.6,-6.0,-2406.0,-2102.4,-0.3,-1747.8,-2445.6,-2178.6,0,2664,0,38,0, 
1.4833,-1996.8,-1972.5,-2021.7,-1909.8,-2016.3,-2093.4,-1992.3,-1847.7,-111372.3,-1961.1,-1974.9,-2025.6,-1967.7,-2479.5,-2249.4,-2256.9,-6.9,-6.0,-2416.8,-2100.6,-0.6,-1755.6,-2436.6,-2171.7,0,2670,0,39,0, 
1.4867,-1904.1,-1972.8,-1959.3,-1894.8,-2027.4,-2112.9,-2010.6,-1860.3,-67505.1,-2014.5,-1984.5,-2049.0,-1950.0,-2487.0,-2274.9,-2276.1,-7.2,-6.0,-2405.7,-2120.4,0.0,-1798.2,-2451.3,-2188.2,0,2676,0,40,0, 
1.4900,-1910.7,-1962.6,-1981.2,-1905.0,-2035.2,-2120.7,-2014.5,-1861.2,-35864.4,-2011.8,-1988.7,-2051.1,-1987.5,-2503.5,-2277.6,-2286.0,-6.9,-5.7,-2434.8,-2121.0,-0.6,-1794.6,-2455.8,-2189.1,0,2682,0,41,0, 
1.4933,-1995.6,-1907.1,-1926.0,-1881.6,-2019.0,-2106.3,-2002.2,-1834.5,-60243.3,-1980.6,-1959.0,-2018.1,-1953.9,-2482.2,-2248.8,-2275.2,-6.3,-6.0,-2414.1,-2101.2,-0.6,-1761.0,-2455.5,-2186.4,0,2688,0,42,0, 
1.4967,-2058.6,-1949.7,-1929.3,-1872.6,-1997.7,-2091.9,-1987.5,-1828.5,-106037.1,-1945.8,-1923.3,-1986.3,-1960.5,-2487.3,-2240.4,-2267.4,-6.9,-6.0,-2361.3,-2074.5,-0.9,-1734.3,-2440.2,-2167.8,0,2694,0,43,0, 
1.5000,-1989.0,-1905.0,-1914.6,-1867.2,-2001.6,-2090.4,-1988.1,-1826.1,-109890.3,-2003.1,-1935.3,-2008.5,-1962.0,-2488.5,-2253.0,-2269.5,-6.6,-6.0,-2383.2,-2091.6,-0.3,-1768.2,-2446.2,-2175.6,0,2700,0,44,0, 
1.5033,-1906.8,-1998.9,-1996.5,-1904.7,-2028.6,-2109.6,-2002.5,-1860.0,-65874.9,-2011.2,-1987.8,-2059.8,-1983.3,-2498.1,-2265.3,-2272.5,-6.9,-5.7,-2447.1,-2128.2,-0.9,-1796.7,-2451.0,-2185.5,0,2706,0,45,0, 
1.5067,-1921.2,-2014.8,-2026.5,-1916.4,-2041.5,-2118.3,-2004.6,-1867.5,-34530.6,-2019.0,-2003.7,-2061.6,-1977.3,-2504.4,-2274.0,-2271.0,-6.9,-5.7,-2448.3,-2123.7,-1.2,-1790.7,-2449.2,-2184.0,0,2712,0,46,0, 
1.5100,-2007.3,-1948.2,-1950.0,-1884.6,-2020.8,-2102.4,-1992.0,-1842.6,-59131.8,-1988.7,-1964.4,-2023.8,-1971.3,-2493.9,-2263.2,-2276.4,-7.2,-6.0,-2418.0,-2101.8,-0.6,-1767.0,-2444.1,-2192.1,0,2718,0,47,0, 
1.5133,-2066.4,-1926.6,-1929.0,-1867.5,-2000.4,-2082.0,-1977.6,-1820.4,-104851.5,-1963.5,-1942.2,-2001.0,-1961.7,-2492.1,-2249.1,-2265.9,-7.2,-5.4,-2389.8,-2079.6,-0.6,-1739.4,-2431.5,-2175.9,0,2724,0,48,0, 
1.5167,-2002.8,-1959.9,-1950.0,-1877.1,-2006.7,-2092.8,-1984.5,-1838.7,-109149.3,-1993.5,-1949.7,-2013.3,-1967.7,-2493.3,-2256.0,-2272.2,-6.9,-6.3,-2389.5,-2092.8,-0.6,-1768.8,-2446.2,-2175.6,0,2730,0,49,0, 
1.5200,-1910.7,-1991.4,-1993.8,-1898.1,-2023.8,-2102.7,-1999.2,-1858.8,-65949.0,-2017.2,-1995.9,-2059.8,-1972.5,-2499.3,-2273.7,-2280.9,-6.9,-5.7,-2438.1,-2125.8,-0.6,-1798.2,-2455.5,-2187.3,0,2736,0,50,0, 
1.5233,-1901.7,-1917.6,-1919.4,-1885.5,-2031.6,-2113.5,-2006.4,-1854.0,-34234.2,-2051.1,-1995.6,-2068.2,-2034.0,-2505.0,-2276.1,-2287.8,-6.9,-5.7,-2449.8,-2133.6,-0.9,-1823.1,-2467.8,-2200.5,0,2742,0,51,0, 
1.5267,-2002.5,-1946.1,-1948.2,-1892.4,-2027.4,-2108.4,-1993.8,-1851.0,-58909.5,-2011.5,-1977.0,-2038.2,-2020.5,-2489.4,-2247.6,-2263.5,-7.2,-6.0,-2419.5,-2112.9,-0.3,-1780.2,-2447.7,-2195.1,0,2748,0,52,0, 
1.5300,-2055.9,-1912.5,-1975.8,-1886.7,-2012.1,-2094.3,-1984.5,-1832.7,-104999.7,-1969.5,-1953.9,-2009.1,-1964.7,-2478.3,-2244.0,-2272.8,-6.9,-5.7,-2385.0,-2088.3,-0.9,-1758.3,-2452.5,-2190.3,0,2754,0,53,0, 
1.5333,-2018.1,-1977.0,-1949.4,-1879.8,-2010.0,-2091.3,-1986.6,-1839.3,-108556.5,-1974.0,-1974.9,-2027.4,-1935.9,-2506.2,-2257.5,-2278.8,-6.9,-5.7,-2435.7,-2100.9,-0.9,-1763.7,-2448.6,-2181.3,0,2760,0,54,0, 
1.5367,-1915.8,-2027.4,-2021.7,-1910.4,-2036.4,-2116.2,-2007.0,-1868.4,-64911.6,-2015.7,-2006.4,-2064.0,-1971.0,-2500.5,-2271.6,-2285.7,-7.5,-5.7,-2442.9,-2123.7,-0.6,-1800.0,-2463.3,-2203.5,0,2766,0,55,0, 
1.5400,-1914.9,-1965.0,-1988.1,-1898.7,-2034.6,-2115.3,-2005.8,-1860.6,-33863.7,-2024.7,-2002.5,-2060.7,-1995.3,-2512.2,-2265.6,-2278.8,-6.6,-6.0,-2459.7,-2123.4,-0.6,-1792.8,-2458.8,-2208.6,0,2772,0,56,0, 
1.5433,-2009.4,-1965.9,-1972.8,-1892.7,-2025.6,-2108.7,-1998.6,-1846.5,-58835.4,-1988.1,-1964.4,-2038.2,-1974.3,-2493.9,-2250.3,-2274.3,-6.9,-5.4,-2388.0,-2103.3,-0.9,-1767.0,-2448.6,-2196.6,0,2778,0,57,0, 
1.5467,-2056.2,-1953.6,-1932.3,-1864.8,-1998.3,-2086.2,-1977.3,-1825.2,-104406.9,-1961.7,-1933.8,-1994.4,-1954.5,-2496.3,-2238.6,-2264.1,-6.9,-6.0,-2387.4,-2079.3,-0.9,-1739.4,-2440.8,-2171.7,0,2784,0,58,0, 
1.5500,-1990.2,-1940.4,-1976.7,-1884.9,-2010.0,-2097.9,-1983.9,-1834.8,-108630.6,-1981.5,-1973.4,-2019.3,-1974.0,-2489.1,-2244.6,-2265.9,-6.9,-6.0,-2418.9,-2095.2,-0.3,-1767.6,-2448.0,-2184.9,0,2790,0,59,0, 
1.5533,-1904.1,-1963.5,-1964.4,-1890.6,-2029.5,-2114.7,-2001.9,-1854.3,-64911.6,-2023.2,-1998.0,-2060.7,-1996.8,-2498.4,-2265.3,-2275.8,-7.2,-5.7,-2436.0,-2131.8,-0.6,-1800.9,-2458.8,-2198.4,0,2796,0,60,0, 
1.5567,-1913.4,-1976.7,-1992.6,-1900.8,-2033.7,-2122.5,-2004.6,-1865.1,-33641.4,-2022.3,-1991.4,-2061.0,-1993.2,-2496.9,-2256.3,-2268.3,-7.2,-6.0,-2408.1,-2120.7,-0.3,-1808.7,-2458.5,-2201.1,0,2802,0,61,0, 
1.5600,-2009.7,-1937.4,-1961.1,-1881.3,-2015.4,-2105.4,-1993.5,-1842.0,-58761.3,-1987.2,-1965.0,-2030.1,-1977.0,-2490.6,-2232.3,-2257.2,-6.9,-5.4,-2436.9,-2100.3,-1.2,-1764.6,-2447.4,-2192.1,0,2808,0,62,0, 
1.5633,-2047.2,-1926.0,-1897.2,-1855.2,-1998.6,-2094.6,-1980.9,-1819.2,-105296.1,-1983.0,-1939.2,-2007.0,-1983.6,-2459.4,-2214.0,-2264.4,-7.2,-6.0,-2383.5,-2081.7,0.3,-1756.2,-2443.8,-2189.7,0,2814,0,63,0, 
1.5667,-2007.3,-1963.5,-1964.7,-1868.4,-2000.7,-2090.7,-1978.8,-1832.4,-108778.8,-1979.4,-1954.8,-2016.0,-1953.3,-2507.1,-2266.2,-2256.6,-7.2,-5.4,-2403.3,-2091.3,-0.6,-1758.6,-2432.4,-2179.2,0,2820,0,64,0, 
1.5700,-1912.8,-1979.4,-1969.2,-1886.1,-2022.0,-2109.0,-1997.1,-1852.8,-65282.1,-2015.1,-1995.0,-2058.6,-1977.9,-2511.0,-2272.8,-2274.0,-6.6,-6.3,-2446.2,-2116.5,-0.6,-1794.6,-2451.3,-2191.8,0,2826,0,65,0, 
1.5733,-1914.9,-1987.2,-2015.1,-1896.0,-2027.4,-2114.1,-2003.7,-1859.7,-34530.6,-2003.7,-1984.8,-2055.0,-1977.6,-2508.9,-2283.0,-2281.8,-6.6,-5.1,-2421.0,-2121.0,-0.9,-1793.7,-2457.3,-2191.5,0,2832,0,66,0, 
1.5767,-2010.9,-1955.7,-1898.1,-1860.0,-2005.5,-2097.6,-1985.4,-1836.9,-59057.7,-1974.6,-1948.2,-2021.4,-1968.0,-2493.3,-2241.9,-2253.9,-7.2,-6.3,-2416.5,-2087.7,0.0,-1758.3,-2438.7,-2180.4,0,2838,0,67,0, 
1.5800,-2053.5,-1888.5,-1944.0,-1852.8,-1986.3,-2084.1,-1974.0,-1814.7,-105518.4,-1956.0,-1924.2,-1994.1,-1962.6,-2485.8,-2242.2,-2253.3,-7.5,-5.7,-2355.0,-2070.6,-0.6,-1733.4,-2431.2,-2171.7,0,2844,0,68,0, 
1.5833,-1992.0,-1941.6,-1922.1,-1854.9,-1989.9,-2086.2,-1975.2,-1821.6,-109742.1,-1971.3,-1937.4,-2008.8,-1953.9,-2484.9,-2249.4,-2256.6,-6.6,-6.0,-2350.8,-2078.4,-0.6,-1754.4,-2440.8,-2176.2,0,2850,0,69,0, 
1.5867,-1887.0,-1928.4,-1956.6,-1875.0,-2010.6,-2106.3,-1997.7,-1839.9,-66319.5,-2019.6,-1997.7,-2054.1,-2005.5,-2485.8,-2268.0,-2275.8,-6.9,-6.3,-2465.7,-2112.0,-0.3,-1796.4,-2461.8,-2191.2,0,2856,0,70,0, 
1.5900,-1920.0,-2003.1,-1996.8,-1893.0,-2022.0,-2115.3,-2002.8,-1865.4,-34678.8,-1989.0,-1991.7,-2049.0,-1948.5,-2505.9,-2261.4,-2264.4,-6.9,-6.0,-2417.1,-2103.0,-0.9,-1780.8,-2457.9,-2190.6,0,2862,0,71,0, 
1.5933,-2004.3,-1921.5,-1953.0,-1876.5,-2008.2,-2108.7,-1988.4,-1841.1,-59205.9,-1973.7,-1950.9,-2015.7,-1959.3,-2493.3,-2243.7,-2249.7,-7.2,-6.0,-2390.1,-2086.5,-0.9,-1752.6,-2442.3,-2184.6,0,2868,0,72,0, 
1.5967,-2044.2,-1895.7,-1923.6,-1857.9,-1990.5,-2088.9,-1976.7,-1819.5,-105147.9,-1953.6,-1932.6,-2000.1,-1968.3,-2476.8,-2233.5,-2247.9,-6.9,-6.0,-2380.2,-2073.3,-0.6,-1727.1,-2437.8,-2175.0,0,2874,0,73,0, 
1.6000,-1986.9,-1924.2,-1938.9,-1863.9,-1992.9,-2091.6,-1983.6,-1825.2,-108778.8,-1964.4,-1950.3,-2007.0,-1986.9,-2483.7,-2254.8,-2267.1,-6.9,-6.0,-2385.6,-2080.5,-0.9,-1750.8,-2446.8,-2174.4,0,2880,0,74,0, 
1.6033,-1909.5,-1966.8,-1938.0,-1872.9,-2007.0,-2102.7,-1993.2,-1842.9,-65059.8,-1999.5,-1980.0,-2047.2,-1941.0,-2499.6,-2264.4,-2267.1,-6.9,-5.7,-2431.5,-2104.5,-0.9,-1779.3,-2451.9,-2181.0,0,2886,0,75,0, 
1.6067,-1909.5,-1970.7,-1978.5,-1885.2,-2016.9,-2112.9,-1998.3,-1853.1,-33419.1,-2003.4,-1974.6,-2044.5,-1977.0,-2496.0,-2269.8,-2275.5,-7.5,-6.0,-2394.3,-2101.2,-0.6,-1783.5,-2461.5,-2185.2,0,2892,0,76,0, 
1.6100,-2007.6,-1957.8,-1947.9,-1872.3,-2003.7,-2095.8,-1984.2,-1837.5,-58168.5,-1960.5,-1953.9,-2015.4,-1942.5,-2484.9,-2243.1,-2256.6,-7.2,-6.0,-2404.5,-2080.2,-0.9,-1739.1,-2444.1,-2185.2,0,2898,0,77,0, 
1.6133,-2057.4,-1929.9,-1900.2,-1845.6,-1981.2,-2078.7,-1970.1,-1813.5,-104036.4,-1945.5,-1918.5,-1989.0,-1938.0,-2485.2,-2236.2,-2257.8,-7.2,-6.0,-2369.7,-2061.0,-0.6,-1726.5,-2435.7,-2181.6,0,2904,0,78,0, 
1.6167,-1989.3,-1926.9,-1950.6,-1870.8,-1999.8,-2094.6,-1980.0,-1830.0,-107667.3,-1967.7,-1953.9,-2025.3,-1966.5,-2480.4,-2238.0,-2247.6,-7.2,-5.7,-2406.0,-2093.7,-0.9,-1755.3,-2440.2,-2181.6,0,2910,0,79,0, 
1.6200,-1899.0,-1979.7,-1977.0,-1882.5,-2009.4,-2107.8,-1994.7,-1848.9,-64170.6,-2003.4,-1977.3,-2037.6,-1970.1,-2498.7,-2265.9,-2265.3,-6.9,-6.0,-2397.9,-2100.9,-0.6,-1788.0,-2450.1,-2178.0,0,2916,0,80,0, 
1.6233,-1900.5,-1942.8,-1957.2,-1888.8,-2024.7,-2117.1,-2003.7,-1851.6,-32159.4,-2017.8,-1989.0,-2053.8,-2006.4,-2497.5,-2257.8,-2268.0,-6.9,-5.7,-2421.9,-2118.9,-0.9,-1795.8,-2453.7,-2191.2,0,2922,0,81,0, 
1.6267,-2006.4,-1949.4,-1919.1,-1872.9,-2008.2,-2098.8,-1986.3,-1835.4,-57131.1,-1979.4,-1962.9,-2016.9,-1966.8,-2493.9,-2245.8,-2255.1,-6.9,-6.0,-2422.2,-2087.7,-0.9,-1759.5,-2441.1,-2181.6,0,2928,0,82,0, 
1.6300,-2052.0,-1927.2,-1924.5,-1861.8,-1995.3,-2088.9,-1976.4,-1821.3,-102999.0,-1956.3,-1925.1,-2001.9,-1938.6,-2480.4,-2232.0,-2250.6,-7.2,-5.7,-2356.2,-2071.8,-1.2,-1746.9,-2436.9,-2180.7,0,2934,0,83,0, 
1.6333,-1986.9,-1973.4,-1998.3,-1889.4,-2008.2,-2097.9,-1979.4,-1839.3,-106704.0,-1962.9,-1962.9,-2022.3,-1975.8,-2471.4,-2232.6,-2251.5,-6.6,-6.0,-2403.9,-2087.7,-0.9,-1748.4,-2439.6,-2173.5,0,2940,0,84,0, 
1.6367,-1882.8,-1911.6,-1976.7,-1898.7,-2028.6,-2113.5,-1996.5,-1851.9,-63133.2,-2034.6,-2004.6,-2063.1,-2016.6,-2480.1,-2246.4,-2261.7,-7.2,-5.7,-2445.6,-2121.0,-0.6,-1803.9,-2452.5,-2185.8,0,2946,0,85,0, 
1.6400,-1927.8,-2023.2,-1982.4,-1899.6,-2032.2,-2115.6,-2000.4,-1864.8,-31418.4,-2003.7,-1991.7,-2055.3,-1936.8,-2498.4,-2257.5,-2254.5,-6.9,-5.7,-2431.5,-2115.0,-0.6,-1786.8,-2441.7,-2186.4,0,2952,0,86,0, 
1.6433,-2012.7,-1946.1,-1948.8,-1878.0,-2015.1,-2103.3,-1985.1,-1836.6,-56093.7,-1975.2,-1950.9,-2021.4,-1974.9,-2487.3,-2244.3,-2253.9,-7.2,-6.0,-2385.0,-2087.4,-0.6,-1752.0,-2438.1,-2180.7,0,2958,0,87,0, 
1.6467,-2049.3,-1896.0,-1881.3,-1840.8,-1982.1,-2079.6,-1976.1,-1809.6,-102480.3,-1964.1,-1908.3,-1987.5,-1930.2,-2471.7,-2245.8,-2264.7,-6.9,-5.7,-2324.4,-2058.3,-0.6,-1723.8,-2437.2,-2157.3,0,2964,0,88,0, 
1.6500,-1995.3,-1959.0,-1958.7,-1876.2,-2004.6,-2088.9,-1980.6,-1834.5,-106185.3,-1970.4,-1964.7,-2019.3,-1980.0,-2484.9,-2241.9,-2243.7,-6.9,-6.0,-2440.5,-2087.1,-0.3,-1747.2,-2433.0,-2167.5,0,2970,0,89,0, 
1.6533,-1901.1,-1967.1,-1991.7,-1890.9,-2020.2,-2108.7,-2001.9,-1855.5,-62095.8,-2001.3,-1992.0,-2055.3,-1981.8,-2496.0,-2276.7,-2270.7,-6.9,-6.3,-2421.3,-2109.6,-0.6,-1779.9,-2450.4,-2174.1,0,2976,0,90,0, 
1.6567,-1897.2,-1971.9,-1987.8,-1891.5,-2031.3,-2119.5,-2006.4,-1861.8,-31196.1,-2023.2,-1997.7,-2062.2,-1984.5,-2486.7,-2255.1,-2265.9,-7.2,-6.3,-2444.1,-2116.5,-0.6,-1793.7,-2450.1,-2188.5,0,2982,0,91,0, 
1.6600,-2003.4,-1958.4,-1933.8,-1869.6,-2010.0,-2101.5,-1990.5,-1837.5,-56167.8,-1972.2,-1957.2,-2021.4,-1951.8,-2484.6,-2233.2,-2258.4,-6.9,-6.0,-2394.9,-2100.0,-0.9,-1758.6,-2437.8,-2179.5,0,2988,0,92,0, 
1.6633,-2048.1,-1895.7,-1925.7,-1850.1,-1986.3,-2079.9,-1976.7,-1812.0,-102406.2,-1959.9,-1933.5,-1987.5,-1971.9,-2476.5,-2248.8,-2250.3,-7.2,-6.0,-2365.2,-2069.1,-0.3,-1734.3,-2425.8,-2164.2,0,2994,0,93,0, 
1.6667,-1995.9,-1937.4,-1905.0,-1848.9,-1992.6,-2081.4,-1985.1,-1817.7,-106333.5,-1971.3,-1940.7,-2007.0,-1951.5,-2487.0,-2249.7,-2264.4,-6.6,-6.0,-2406.9,-2082.3,-0.6,-1746.9,-2434.8,-2167.5,0,3000,0,94,0, 
1.6700,-1884.3,-1943.7,-1974.9,-1877.4,-2011.5,-2101.8,-2004.3,-1843.2,-62614.5,-2013.9,-1970.7,-2045.4,-2004.6,-2470.5,-2269.5,-2285.1,-6.9,-5.7,-2367.9,-2113.5,-0.6,-1778.1,-2456.4,-2178.9,0,3006,0,95,0, 
1.6733,-1896.3,-1944.0,-1928.4,-1866.6,-2017.8,-2102.4,-2001.9,-1842.0,-31640.7,-1999.2,-1981.2,-2055.3,-1994.4,-2493.0,-2255.1,-2261.7,-7.2,-6.0,-2431.5,-2124.0,-0.6,-1776.3,-2443.8,-2180.4,0,3012,0,96,0, 
1.6767,-2000.7,-1969.8,-1967.1,-1864.5,-1993.2,-2084.4,-1987.2,-1828.5,-56908.8,-1956.3,-1946.4,-2005.2,-1938.0,-2476.2,-2239.8,-2256.6,-7.2,-5.7,-2415.9,-2075.7,-0.6,-1734.6,-2427.6,-2164.5,0,3018,0,97,0, 
1.6800,-2061.6,-1918.2,-1956.0,-1852.5,-1977.0,-2074.2,-1980.0,-1810.2,-102999.0,-1933.8,-1923.9,-1978.5,-1917.6,-2473.5,-2214.9,-2246.4,-7.2,-6.0,-2370.3,-2052.9,-0.6,-1726.2,-2422.5,-2164.2,0,3024,0,98,0, 
1.6833,-1974.0,-1889.1,-1886.1,-1835.7,-1979.4,-2074.2,-1981.5,-1802.7,-107000.4,-1975.5,-1945.2,-2010.3,-1959.6,-2469.3,-2232.6,-2260.2,-6.9,-5.7,-2378.4,-2076.9,-0.6,-1749.0,-2431.2,-2168.1,0,3030,0,99,0, 
1.6867,-1905.9,-1986.3,-1951.2,-1866.3,-2002.5,-2091.9,-1993.5,-1837.8,-63577.8,-2004.9,-1974.6,-2041.8,-1965.3,-2486.4,-2257.8,-2249.1,-6.9,-5.7,-2421.6,-2098.5,-0.6,-1772.1,-2430.9,-2173.8,0,3036,0,100,0, 
1.6900,-1917.3,-1997.1,-2011.2,-1890.9,-2016.9,-2100.3,-1999.2,-1856.1,-31566.6,-2001.0,-1983.9,-2052.0,-1966.2,-2490.9,-2253.9,-2248.5,-6.9,-5.7,-2423.1,-2118.0,-0.9,-1777.2,-2427.3,-2184.0,0,3042,0,101,0, 
1.6933,-1994.7,-1896.9,-1902.9,-1845.0,-1991.1,-2085.3,-1989.0,-1816.8,-57131.1,-1962.6,-1949.7,-2010.6,-1975.8,-2475.6,-2236.5,-2266.5,-6.9,-6.0,-2391.6,-2078.1,-0.6,-1743.9,-2442.0,-2188.5,0,3048,0,102,0, 
1.6967,-2049.0,-1912.2,-1905.3,-1838.4,-1982.7,-2077.2,-1978.5,-1807.5,-102924.9,-1955.4,-1926.6,-1989.3,-1962.3,-2469.3,-2236.8,-2260.5,-6.9,-6.0,-2373.3,-2070.6,-0.9,-1729.8,-2435.4,-2181.6,0,3054,0,103,0, 
1.7000,-1979.4,-1911.3,-1938.6,-1853.4,-1988.4,-2081.4,-1981.2,-1815.3,-106704.0,-1959.0,-1965.0,-2011.2,-1955.4,-2471.7,-2245.2,-2267.7,-7.2,-5.7,-2425.2,-2079.3,-0.9,-1738.8,-2438.1,-2169.9,0,3060,0,104,0, 
1.7033,-1900.2,-1989.9,-1990.2,-1874.1,-2009.1,-2094.0,-1992.3,-1839.9,-62836.8,-1982.4,-1981.8,-2040.9,-1949.4,-2480.7,-2257.2,-2267.4,-6.9,-6.6,-2401.5,-2106.3,-0.6,-1765.5,-2436.6,-2175.3,0,3066,0,105,0, 
1.7067,-1903.8,-1957.2,-1966.2,-1873.5,-2018.7,-2098.8,-1995.6,-1840.8,-31640.7,-1987.5,-1989.3,-2045.4,-1958.4,-2480.7,-2259.0,-2258.4,-6.9,-6.0,-2430.0,-2111.7,-0.6,-1770.9,-2442.0,-2177.7,0,3072,0,106,0, 
1.7100,-2001.3,-1952.1,-1959.3,-1863.6,-2002.2,-2085.6,-1983.3,-1828.2,-57131.1,-1949.4,-1942.5,-2013.0,-1958.1,-2470.8,-2224.2,-2251.2,-6.6,-6.0,-2347.2,-2079.3,-0.6,-1733.7,-2427.9,-2166.6,0,3078,0,107,0, 
1.7133,-2046.3,-1901.4,-1944.9,-1853.1,-1988.7,-2072.7,-1974.0,-1809.6,-102924.9,-1938.3,-1943.1,-1989.9,-1946.1,-2463.0,-2218.5,-2244.0,-6.9,-5.7,-2415.6,-2065.2,-0.3,-1713.0,-2425.5,-2156.7,0,3084,0,108,0, 
1.7167,-1994.1,-1929.3,-1917.6,-1846.8,-1989.9,-2081.4,-1981.8,-1816.8,-105963.0,-1965.3,-1932.9,-2014.2,-1954.8,-2480.4,-2240.4,-2253.0,-6.9,-5.7,-2359.2,-2086.5,-0.6,-1741.8,-2436.9,-2162.7,0,3090,0,109,0, 
1.7200,-1898.1,-1910.1,-1910.4,-1862.7,-2013.9,-2103.0,-2001.6,-1830.0,-62169.9,-2021.4,-1990.5,-2064.3,-1978.5,-2488.5,-2266.2,-2280.0,-7.2,-6.0,-2435.4,-2119.5,-0.3,-1782.9,-2459.1,-2180.1,0,3096,0,110,0, 
1.7233,-1907.1,-1969.5,-2019.0,-1896.0,-2029.8,-2114.7,-2004.9,-1855.5,-31047.9,-1996.5,-1994.4,-2051.4,-2011.2,-2484.9,-2256.0,-2272.5,-6.9,-6.3,-2420.1,-2114.1,-0.6,-1790.4,-2452.5,-2184.9,0,3102,0,111,0, 
1.7267,-2016.0,-1926.9,-1924.8,-1859.1,-2004.3,-2092.8,-1986.9,-1823.7,-56538.3,-1976.7,-1956.9,-2011.5,-1949.4,-2504.7,-2248.2,-2270.4,-7.2,-6.0,-2413.2,-2082.6,-0.6,-1744.8,-2432.1,-2169.0,0,3108,0,112,0, 
1.7300,-2070.0,-1971.0,-1955.7,-1866.9,-1998.0,-2079.3,-1976.1,-1821.9,-102702.6,-1933.2,-1953.9,-2004.0,-1962.6,-2479.5,-2216.1,-2254.5,-7.2,-6.0,-2413.2,-2075.1,-0.6,-1712.1,-2422.8,-2157.0,0,3114,0,113,0, 
1.7333,-1990.2,-1920.3,-1943.4,-1863.3,-1996.8,-2077.2,-1977.3,-1817.4,-106481.7,-1971.0,-1966.2,-2025.0,-1942.5,-2479.2,-2233.2,-2258.7,-6.6,-5.7,-2414.4,-2082.0,-0.9,-1739.1,-2428.5,-2159.4,0,3120,0,114,0, 
1.7367,-1907.7,-1982.1,-1993.2,-1888.5,-2017.8,-2097.0,-1989.6,-1849.2,-62985.0,-2001.6,-2001.6,-2060.7,-1965.3,-2496.9,-2249.7,-2247.6,-6.9,-5.7,-2430.6,-2118.0,-0.6,-1783.2,-2427.9,-2169.6,0,3126,0,115,0, 
1.7400,-1914.3,-1979.1,-1986.0,-1888.5,-2026.2,-2107.5,-1999.2,-1851.9,-31640.7,-2009.1,-1998.6,-2059.2,-1987.5,-2493.3,-2254.2,-2257.8,-6.9,-6.0,-2434.2,-2121.6,-0.9,-1778.7,-2439.9,-2178.0,0,3132,0,116,0, 
1.7433,-2004.3,-1931.7,-1937.7,-1854.0,-1994.7,-2082.6,-1979.7,-1820.7,-57723.9,-1951.8,-1942.8,-2009.4,-1943.7,-2478.0,-2226.9,-2263.8,-6.6,-6.0,-2394.3,-2085.6,-0.6,-1733.7,-2429.1,-2163.9,0,3138,0,117,0, 
1.7467,-2056.2,-1907.4,-1888.5,-1837.8,-1983.3,-2072.1,-1971.0,-1801.2,-103962.3,-1946.4,-1936.5,-1992.3,-1949.7,-2476.2,-2221.5,-2261.1,-6.9,-5.7,-2392.2,-2072.4,-0.9,-1724.7,-2424.9,-2163.6,0,3144,0,118,0, 
1.7500,-1987.8,-1924.5,-1935.3,-1854.9,-1992.6,-2081.7,-1980.0,-1814.1,-107667.3,-1967.7,-1946.7,-2016.0,-1961.1,-2481.6,-2240.4,-2262.9,-7.2,-6.0,-2385.0,-2091.9,-0.6,-1748.4,-2426.1,-2167.5,0,3150,0,119,0, 
1.7533,-1898.4,-1949.7,-1972.2,-1876.2,-2022.0,-2106.0,-1997.1,-1841.1,-63651.9,-2015.7,-1992.3,-2049.9,-1995.0,-2487.6,-2250.6,-2268.9,-6.6,-5.7,-2424.3,-2119.5,-0.3,-1790.1,-2445.3,-2180.7,0,3156,0,120,0, 
1.7567,-1918.8,-2006.1,-2006.4,-1887.3,-2022.9,-2102.7,-1999.2,-1850.7,-32529.9,-1991.7,-1980.9,-2049.6,-1962.3,-2493.9,-2244.3,-2258.1,-6.9,-5.7,-2427.3,-2114.1,-0.3,-1774.2,-2432.7,-2183.1,0,3162,0,121,0, 
1.7600,-2001.6,-1917.9,-1919.7,-1858.2,-2009.1,-2092.2,-1993.2,-1821.6,-58316.7,-1978.2,-1953.9,-2029.5,-1972.8,-2490.6,-2241.9,-2269.5,-6.9,-6.0,-2394.0,-2101.5,-0.9,-1750.8,-2435.7,-2190.9,0,3168,0,122,0, 
1.7633,-2037.6,-1896.0,-1907.1,-1845.0,-1991.1,-2078.7,-1980.9,-1803.6,-105147.9,-1961.1,-1932.3,-2001.6,-1972.5,-2477.1,-2233.5,-2263.8,-7.2,-5.7,-2369.1,-2080.5,-0.6,-1738.8,-2432.4,-2173.8,0,3174,0,123,0, 
1.7667,-1985.4,-1927.5,-1959.6,-1862.7,-1993.8,-2084.4,-1987.8,-1821.9,-108186.0,-1980.3,-1953.3,-2015.1,-1952.4,-2481.9,-2240.4,-2270.1,-6.3,-5.7,-2371.8,-2087.1,-0.9,-1752.6,-2434.5,-2168.7,0,3180,0,124,0, 
1.7700,-1902.9,-1973.1,-1976.4,-1875.0,-2013.3,-2096.1,-1992.9,-1840.8,-64022.4,-2004.9,-2001.3,-2049.0,-1979.7,-2498.7,-2250.0,-2250.0,-7.5,-6.0,-2463.3,-2112.6,-0.6,-1781.1,-2416.8,-2169.9,0,3186,0,125,0, 
1.7733,-1893.9,-1961.1,-1956.3,-1871.7,-2018.4,-2103.0,-2000.1,-1843.2,-32974.5,-2019.6,-1983.9,-2061.0,-2005.2,-2484.3,-2256.3,-2265.3,-7.2,-5.7,-2416.5,-2117.4,-0.6,-1785.0,-2437.5,-2183.7,0,3192,0,126,0, 
1.7767,-2011.2,-1956.0,-1957.8,-1860.3,-1998.9,-2085.3,-1986.6,-1822.8,-58539.0,-1952.1,-1949.1,-2022.3,-1923.3,-2487.9,-2233.8,-2258.7,-7.2,-6.0,-2382.6,-2083.5,-0.6,-1735.5,-2428.2,-2174.1,0,3198,0,127,0, 
1.7800,-2052.0,-1925.1,-1900.8,-1842.9,-1987.8,-2075.1,-1975.2,-1809.0,-104332.8,-1948.2,-1932.3,-1997.7,-1941.6,-2470.5,-2197.2,-2241.0,-6.9,-5.7,-2386.8,-2066.4,-0.6,-1724.4,-2414.1,-2155.8,0,3204,0,128,0, 
1.7833,-1982.7,-1929.3,-1918.2,-1846.5,-1988.1,-2069.1,-1979.4,-1810.2,-107667.3,-1957.2,-1956.9,-2000.1,-1946.7,-2476.8,-2237.1,-2270.1,-7.2,-5.7,-2402.1,-2070.3,-0.9,-1738.8,-2430.9,-2159.4,0,3210,0,129,0, 
1.7867,-1893.6,-1969.5,-2005.2,-1882.2,-2016.6,-2092.8,-1995.3,-1840.8,-63207.3,-1990.5,-1993.5,-2043.3,-1954.5,-2495.7,-2269.8,-2261.1,-6.9,-5.7,-2419.8,-2104.2,-0.6,-1777.2,-2430.3,-2170.2,0,3216,0,130,0, 
1.7900,-1899.9,-1962.9,-1948.8,-1874.4,-2018.1,-2096.7,-2001.6,-1842.9,-32307.6,-1999.8,-1989.9,-2050.8,-1974.3,-2490.6,-2248.5,-2268.6,-7.2,-5.7,-2436.9,-2107.2,-0.6,-1779.3,-2444.1,-2174.7,0,3222,0,131,0, 
1.7933,-1989.0,-1917.6,-1943.7,-1857.3,-1998.9,-2083.5,-1983.9,-1819.8,-58390.8,-1959.9,-1938.0,-2019.6,-1950.9,-2486.4,-2226.6,-2255.4,-6.9,-6.0,-2369.7,-2082.0,-0.6,-1732.5,-2427.0,-2164.2,0,3228,0,132,0, 
1.7967,-2050.2,-1958.1,-1939.2,-1847.1,-1974.9,-2062.8,-1969.8,-1799.1,-104184.6,-1919.7,-1926.0,-1988.4,-1932.9,-2478.3,-2225.1,-2248.2,-6.9,-6.0,-2377.2,-2055.3,-0.9,-1707.9,-2414.4,-2152.8,0,3234,0,133,0, 
1.8000,-1971.6,-1917.6,-1911.0,-1843.8,-1985.4,-2073.9,-1973.4,-1800.9,-107074.5,-1960.8,-1945.8,-2008.5,-1940.1,-2482.5,-2245.5,-2247.9,-6.9,-5.4,-2386.8,-2073.3,-0.6,-1730.4,-2418.3,-2160.0,0,3240,0,134,0, 
1.8033,-1871.7,-1935.6,-1929.9,-1864.2,-2004.3,-2090.4,-1989.0,-1824.6,-62688.6,-1993.2,-1978.8,-2053.2,-1977.6,-2477.7,-2251.5,-2252.1,-6.9,-6.3,-2400.3,-2102.7,-0.6,-1770.0,-2439.0,-2175.0,0,3246,0,135,0, 
1.8067,-1887.0,-1917.9,-1951.5,-1867.8,-2011.2,-2091.6,-1992.6,-1828.8,-31937.1,-2012.1,-1972.8,-2049.9,-1968.0,-2492.1,-2243.1,-2256.3,-7.2,-6.0,-2399.7,-2103.6,-0.9,-1770.9,-2436.3,-2174.1,0,3252,0,136,0, 
1.8100,-1974.9,-1924.5,-1935.3,-1858.8,-1995.6,-2080.2,-1982.1,-1813.8,-57649.8,-1954.5,-1950.3,-2017.2,-1968.9,-2460.9,-2220.6,-2246.7,-6.6,-5.7,-2399.1,-2079.6,-0.3,-1738.8,-2420.1,-2164.5,0,3258,0,137,0, 
1.8133,-2028.3,-1938.3,-1961.1,-1857.6,-1980.0,-2059.2,-1962.9,-1804.5,-103665.9,-1914.9,-1914.6,-1984.5,-1944.0,-2472.3,-2216.4,-2236.2,-6.9,-5.7,-2367.9,-2055.3,-0.6,-1704.3,-2402.7,-2146.2,0,3264,0,138,0, 
1.8167,-1969.8,-1902.6,-1890.3,-1845.0,-1980.6,-2061.3,-1965.0,-1801.8,-106852.2,-1938.6,-1941.6,-2009.7,-1909.2,-2472.9,-2234.1,-2238.3,-6.9,-6.0,-2366.1,-2064.3,-0.9,-1723.5,-2405.1,-2145.0,0,3270,0,139,0, 
1.8200,-1885.8,-2009.7,-2012.1,-1892.4,-2012.7,-2083.2,-1987.2,-1841.1,-62392.2,-1978.2,-1986.0,-2044.5,-1952.7,-2483.1,-2243.1,-2243.7,-6.9,-5.7,-2418.0,-2102.1,-0.3,-1760.7,-2420.4,-2160.0,0,3276,0,140,0, 
1.8233,-1877.7,-1919.4,-1934.4,-1873.5,-2014.8,-2092.5,-1993.5,-1829.1,-32011.2,-1999.5,-1987.2,-2052.9,-1981.8,-2478.9,-2251.2,-2252.7,-7.2,-5.7,-2406.9,-2101.2,-0.6,-1776.3,-2424.9,-2173.5,0,3282,0,141,0, 
1.8267,-1991.1,-1965.6,-1963.5,-1870.2,-1997.1,-2078.1,-1976.1,-1823.7,-58020.3,-1938.0,-1949.1,-2009.7,-1948.8,-2472.3,-2224.5,-2237.1,-6.9,-6.3,-2390.7,-2071.2,-0.9,-1716.3,-2403.9,-2153.1,0,3288,0,142,0, 
1.8300,-2024.4,-1867.5,-1887.9,-1842.0,-1980.6,-2065.2,-1968.3,-1790.7,-103814.1,-1955.4,-1931.7,-1995.0,-1972.5,-2457.6,-2224.5,-2235.9,-7.2,-5.4,-2359.5,-2065.8,-0.3,-1713.0,-2406.9,-2152.8,0,3294,0,143,0, 
1.8333,-1985.1,-1949.7,-1945.8,-1866.9,-1992.9,-2069.7,-1970.7,-1816.8,-106555.8,-1957.2,-1968.9,-2022.6,-1946.7,-2476.5,-2228.4,-2236.2,-7.2,-5.7,-2429.1,-2091.3,-0.9,-1723.2,-2407.5,-2151.0,0,3300,0,144,0, 
1.8367,-1890.3,-1985.1,-1977.3,-1879.8,-2009.1,-2086.5,-1983.0,-1836.0,-62392.2,-1990.8,-1995.9,-2053.8,-1956.0,-2478.0,-2247.3,-2246.1,-7.2,-6.0,-2390.7,-2106.9,-0.3,-1767.0,-2423.4,-2161.8,0,3306,0,145,0, 
1.8400,-1898.4,-1953.9,-1938.9,-1873.5,-2010.3,-2091.6,-1990.5,-1836.6,-31492.5,-2011.8,-1999.5,-2066.7,-1974.6,-2490.9,-2250.6,-2249.1,-7.2,-5.7,-2440.5,-2115.6,-0.6,-1768.8,-2429.7,-2163.6,0,3312,0,146,0, 
1.8433,-1983.3,-1923.0,-1959.0,-1868.7,-2000.4,-2087.1,-1981.2,-1824.6,-57946.2,-1965.6,-1959.6,-2040.6,-1986.9,-2466.9,-2231.7,-2242.2,-7.2,-6.0,-2393.7,-2093.4,-0.6,-1740.3,-2420.1,-2163.9,0,3318,0,147,0, 
1.8467,-2043.3,-1939.5,-1961.1,-1862.4,-1989.0,-2068.5,-1968.3,-1812.0,-103814.1,-1940.7,-1950.6,-2010.9,-1946.4,-2477.4,-2222.1,-2235.6,-6.9,-6.0,-2391.6,-2072.4,-0.6,-1708.8,-2411.4,-2155.2,0,3324,0,148,0, 
1.8500,-1980.0,-1907.4,-1918.2,-1846.2,-1986.0,-2070.3,-1977.6,-1808.1,-106481.7,-1969.2,-1945.5,-2018.1,-1958.1,-2476.5,-2234.4,-2247.3,-6.9,-5.7,-2366.1,-2074.8,-1.2,-1737.9,-2425.5,-2155.5,0,3330,0,149,0, 
1.8533,-1884.3,-1936.2,-1958.4,-1877.4,-2012.4,-2097.3,-1998.3,-1836.9,-62169.9,-2015.4,-1994.7,-2059.8,-1983.3,-2476.2,-2237.1,-2247.0,-6.6,-6.0,-2432.7,-2109.0,-0.6,-1785.6,-2440.5,-2187.0,0,3336,0,150,0, 
1.8567,-1896.3,-1976.1,-1946.4,-1872.9,-2009.1,-2101.2,-1997.1,-1840.5,-31566.6,-1993.8,-1989.0,-2057.1,-1972.2,-2482.2,-2252.1,-2247.6,-6.9,-5.4,-2429.1,-2105.4,-1.5,-1777.5,-2433.9,-2187.3,0,3342,0,151,0, 
1.8600,-1983.0,-1942.5,-1975.2,-1872.9,-1993.5,-2089.8,-1978.5,-1832.1,-57723.9,-1962.6,-1956.0,-2020.5,-1994.4,-2471.1,-2218.8,-2228.7,-7.2,-5.7,-2379.0,-2075.4,-0.6,-1735.5,-2416.5,-2162.7,0,3348,0,152,0, 
1.8633,-2038.5,-1883.7,-1895.7,-1830.0,-1965.0,-2074.5,-1971.9,-1800.0,-104110.5,-1941.0,-1921.8,-1969.2,-1924.2,-2461.5,-2214.6,-2246.1,-7.2,-6.0,-2371.8,-2041.5,-0.9,-1707.3,-2423.1,-2150.4,0,3354,0,153,0, 
1.8667,-1981.8,-1952.1,-1903.8,-1838.1,-1972.8,-2078.1,-1973.7,-1815.0,-107222.7,-1959.3,-1949.7,-2004.9,-1956.9,-2483.7,-2240.1,-2232.6,-7.2,-5.7,-2373.6,-2061.6,-0.3,-1732.5,-2421.3,-2155.5,0,3360,0,154,0, 
1.8700,-1883.7,-1950.6,-1953.6,-1868.1,-2003.4,-2099.7,-1995.6,-1839.3,-62910.9,-1999.2,-1987.8,-2057.4,-1982.7,-2476.5,-2252.7,-2255.1,-6.9,-6.0,-2419.2,-2107.5,-0.6,-1773.0,-2436.0,-2167.5,0,3366,0,155,0, 
1.8733,-1899.3,-1975.2,-1976.1,-1871.7,-2001.0,-2096.7,-1995.6,-1846.5,-32159.4,-1978.2,-1987.2,-2037.9,-1944.9,-2480.1,-2240.1,-2245.8,-6.6,-6.0,-2413.8,-2086.2,-0.9,-1758.3,-2433.6,-2160.0,0,3372,0,156,0, 
1.8767,-1993.2,-1956.0,-1961.4,-1857.6,-1981.5,-2081.7,-1981.5,-1826.7,-58835.4,-1941.9,-1947.6,-2004.3,-1951.2,-2470.8,-2218.5,-2229.0,-6.9,-6.3,-2380.2,-2064.6,-0.6,-1726.2,-2416.5,-2154.3,0,3378,0,157,0, 
1.8800,-2034.9,-1857.3,-1853.1,-1821.0,-1966.8,-2070.0,-1973.4,-1795.2,-104851.5,-1954.8,-1922.1,-1996.8,-1952.7,-2464.5,-2202.9,-2239.2,-7.2,-6.0,-2350.8,-2061.9,-0.6,-1722.9,-2425.8,-2159.4,0,3384,0,158,0, 
1.8833,-1977.3,-1921.2,-1910.7,-1839.0,-1969.2,-2070.0,-1971.0,-1804.8,-107296.8,-1952.4,-1948.5,-2009.1,-1947.9,-2467.5,-2220.3,-2234.4,-6.9,-6.0,-2382.9,-2067.9,-0.3,-1732.8,-2419.2,-2150.7,0,3390,0,159,0, 
1.8867,-1885.8,-1947.6,-1923.0,-1856.1,-1991.7,-2086.5,-1984.8,-1828.2,-63133.2,-1996.8,-1983.3,-2048.7,-1971.9,-2474.1,-2243.4,-2238.0,-6.9,-5.7,-2412.9,-2098.5,-0.6,-1767.6,-2425.8,-2161.8,0,3396,0,160,0, 
1.8900,-1903.2,-1956.3,-1958.7,-1859.4,-1993.5,-2089.2,-1983.0,-1827.6,-32455.8,-1981.5,-1968.0,-2031.9,-1964.4,-2485.2,-2238.9,-2234.4,-6.9,-6.0,-2360.1,-2084.7,-0.6,-1763.4,-2418.9,-2155.5,0,3402,0,161,0, 
1.8933,-1989.6,-1931.1,-1954.2,-1856.1,-1986.0,-2076.3,-1971.0,-1815.3,-58390.8,-1943.4,-1953.6,-2012.1,-1962.6,-2469.6,-2210.4,-2216.7,-6.6,-5.7,-2391.3,-2064.6,-0.9,-1722.9,-2402.4,-2141.4,0,3408,0,162,0, 
1.8967,-2031.9,-1878.9,-1910.1,-1834.5,-1969.2,-2063.4,-1955.7,-1792.8,-104703.3,-1933.8,-1930.2,-1994.1,-1957.8,-2463.9,-2211.0,-2211.6,-6.9,-5.7,-2370.9,-2050.5,-0.9,-1709.7,-2392.8,-2142.6,0,3414,0,163,0, 
1.9000,-1978.8,-1911.6,-1914.9,-1847.1,-1980.9,-2069.1,-1962.9,-1809.9,-107445.0,-1959.0,-1952.4,-2016.6,-1947.9,-2477.1,-2220.3,-2210.1,-6.6,-5.4,-2382.3,-2070.0,-0.6,-1729.8,-2389.8,-2150.4,0,3420,0,164,0, 
1.9033,-1869.3,-1945.5,-1924.8,-1848.9,-1993.2,-2086.8,-1985.1,-1817.7,-63577.8,-1988.4,-1960.2,-2035.8,-1980.6,-2465.7,-2241.0,-2253.3,-6.9,-6.0,-2359.8,-2092.5,-0.3,-1765.8,-2432.7,-2143.2,0,3426,0,165,0, 
1.9067,-1883.7,-1922.4,-1933.8,-1855.5,-1997.4,-2088.9,-1991.1,-1826.7,-32307.6,-1997.4,-1959.3,-2048.4,-1982.1,-2478.0,-2247.9,-2256.6,-7.2,-6.0,-2341.2,-2098.8,-0.6,-1759.8,-2431.5,-2154.9,0,3432,0,166,0, 
1.9100,-1994.7,-1953.0,-1948.2,-1851.9,-1975.8,-2070.3,-1973.1,-1811.7,-58094.4,-1937.1,-1951.2,-2011.5,-1959.3,-2464.5,-2221.2,-2241.6,-6.9,-6.0,-2425.5,-2060.7,-0.6,-1719.0,-2413.5,-2141.1,0,3438,0,167,0, 
1.9133,-2036.4,-1891.8,-1889.1,-1833.6,-1959.0,-2062.8,-1964.4,-1795.2,-104555.1,-1933.5,-1920.9,-1986.6,-1918.5,-2461.8,-2200.5,-2227.8,-6.9,-5.7,-2338.8,-2042.1,-0.6,-1711.8,-2405.1,-2143.8,0,3444,0,168,0, 
1.9167,-1969.5,-1921.5,-1937.7,-1850.7,-1971.0,-2067.9,-1971.6,-1805.4,-107519.1,-1959.6,-1953.0,-2017.2,-1960.5,-2457.6,-2209.2,-2241.0,-6.9,-5.7,-2387.7,-2071.5,-0.3,-1739.4,-2415.6,-2146.5,0,3450,0,169,0, 
1.9200,-1872.6,-1885.2,-1949.1,-1868.1,-2000.1,-2089.8,-1989.0,-1823.1,-62836.8,-1999.5,-1996.2,-2058.9,-1987.2,-2477.7,-2235.3,-2247.6,-6.9,-6.3,-2420.1,-2106.9,-0.6,-1774.2,-2428.8,-2163.0,0,3456,0,170,0, 
1.9233,-1902.0,-2020.2,-1968.9,-1871.1,-1998.6,-2086.2,-1984.8,-1837.5,-32233.5,-1982.4,-1974.0,-2055.6,-1958.7,-2483.1,-2246.7,-2235.9,-6.9,-5.7,-2397.6,-2088.9,-0.9,-1756.5,-2410.2,-2151.9,0,3462,0,171,0, 
