Time,P3,C3,F3,Fz,F4,C4,P4,Cz,CM,A1,Fp1,Fp2,T3,T5,O1,O2,X3,X2,F7,F8,X1,A2,T6,T4,Trigger,Time_Offset,ADC_Status,ADC_Sequence,Event,Comments
0.0033,-439.8,-758.4,-302.7,477.6,281.4,-1262.1,941.1,-451.8,-13486.2,502.5,1205.7,957.0,-1433.1,-6253.5,-3304.5,6.6,-6.6,-5.7,-475.8,155.7,-1.2,513.6,-816.0,-1321.5,0,6,268435456,3,0, 
0.0067,-444.3,-767.4,-315.3,463.2,262.8,-1232.4,937.8,-445.5,6817.2,468.9,1178.4,932.1,-1438.8,-6053.4,181.2,8.7,-6.6,-6.0,-501.9,149.1,-1.2,481.2,-401.4,-1263.0,0,12,268435456,4,0, 
0.0100,-447.3,-805.2,-340.2,440.1,241.5,-1221.0,937.8,-448.5,27417.0,462.6,1150.5,911.1,-1453.5,-5946.6,9108.6,18.3,-6.9,-6.0,-525.9,131.1,-0.6,467.4,-150.6,-1228.8,0,18,268435456,5,0, 
0.0133,-442.8,-794.1,-345.0,435.9,238.8,-1245.6,931.2,-457.8,19562.4,455.7,1118.4,900.3,-1475.1,-6091.5,9830.1,4.8,-6.9,-6.0,-568.5,117.6,-0.9,474.9,-436.8,-1279.8,0,24,268435456,6,0, 
0.0167,-444.9,-775.5,-330.6,453.0,257.1,-1281.0,933.3,-466.8,-5705.7,484.8,1132.2,905.7,-1456.5,-6291.9,6634.8,-5.4,-7.2,-5.7,-553.5,127.5,-0.9,496.5,-845.4,-1337.7,0,30,268435456,7,0, 
0.0200,-439.2,-761.4,-285.6,474.3,269.7,-1276.2,938.7,-463.5,-13708.5,510.3,1212.3,949.2,-1419.0,-6263.4,-3462.3,1.2,-7.2,-6.0,-460.2,145.5,-0.6,514.5,-833.1,-1326.3,0,36,268435456,8,0, 
0.0233,-438.3,-771.9,-299.7,468.6,265.5,-1229.7,939.0,-454.8,6965.4,492.6,1211.4,957.6,-1434.3,-6066.9,119.1,9.0,-6.9,-5.7,-459.3,156.3,-0.9,505.8,-419.1,-1256.7,0,42,268435456,9,0, 
0.0267,-441.6,-792.3,-324.0,443.7,238.5,-1224.3,928.2,-454.5,27417.0,470.4,1174.5,922.5,-1449.3,-5952.0,9087.0,15.0,-7.2,-5.7,-498.6,122.4,-1.2,492.6,-166.8,-1229.1,0,48,268435456,10,0, 
0.0300,-440.4,-784.5,-325.2,448.8,251.4,-1226.7,929.1,-464.1,19636.5,472.8,1163.1,920.4,-1461.0,-6093.6,9830.1,3.6,-6.9,-6.0,-516.6,125.7,-0.6,475.8,-425.4,-1275.9,0,54,268435456,11,0, 
0.0333,-437.4,-762.0,-295.8,469.5,273.9,-1286.1,928.2,-474.6,-5779.8,510.0,1186.5,946.8,-1451.4,-6296.4,6574.5,-0.3,-7.2,-5.7,-485.4,151.5,-0.6,519.9,-847.8,-1329.9,0,60,268435456,12,0, 
0.0367,-438.9,-761.7,-291.0,471.9,266.7,-1276.8,929.7,-469.2,-13782.6,504.3,1197.6,941.7,-1446.0,-6273.6,-3544.8,-0.9,-7.2,-5.7,-465.9,142.5,-0.3,505.2,-842.7,-1326.9,0,66,268435456,13,0, 
0.0400,-439.2,-777.0,-307.2,454.8,246.6,-1245.6,929.4,-460.5,6594.9,487.8,1185.3,925.8,-1447.2,-6065.1,-108.9,11.4,-6.9,-5.7,-475.5,126.3,-0.3,492.0,-410.4,-1264.5,0,72,268435456,14,0, 
0.0433,-442.8,-796.8,-328.2,435.9,229.2,-1218.0,922.8,-464.4,27120.6,475.8,1161.3,905.1,-1463.1,-5954.4,8992.2,17.7,-6.9,-6.0,-494.7,109.5,-0.6,479.1,-174.9,-1228.8,0,78,268435456,15,0, 
0.0467,-442.2,-782.4,-310.2,445.2,239.7,-1248.6,920.1,-472.5,19340.1,492.0,1180.5,916.2,-1474.2,-6112.5,9830.1,9.0,-6.6,-5.7,-478.5,123.3,-0.3,497.1,-447.9,-1269.9,0,84,268435456,16,0, 
0.0500,-438.6,-762.0,-292.5,464.1,265.5,-1272.9,920.7,-475.8,-6298.5,513.3,1199.7,937.5,-1453.8,-6305.1,6310.2,0.3,-6.6,-6.0,-467.1,135.9,-0.6,513.0,-835.8,-1326.3,0,90,268435456,17,0, 
0.0533,-439.8,-760.5,-290.4,462.9,259.5,-1268.4,927.9,-469.2,-14153.1,501.9,1176.3,923.1,-1441.5,-6286.8,-3835.5,2.4,-6.9,-5.7,-475.5,131.4,-0.6,508.5,-823.8,-1320.0,0,96,268435456,18,0, 
0.0567,-438.3,-778.5,-315.9,441.6,233.4,-1252.5,919.8,-465.0,6224.4,480.9,1155.0,898.5,-1431.9,-6070.5,-362.1,15.3,-6.9,-6.0,-492.0,107.7,-0.3,484.8,-412.2,-1264.2,0,102,268435456,19,0, 
0.0600,-443.4,-790.2,-327.9,429.6,222.6,-1227.6,918.3,-464.1,27046.5,469.8,1152.9,893.1,-1456.8,-5973.9,8916.0,15.6,-6.6,-5.7,-496.8,103.8,-0.6,477.6,-163.8,-1234.5,0,108,268435456,20,0, 
0.0633,-443.7,-787.8,-318.0,437.7,238.2,-1254.0,913.5,-473.1,19266.0,486.0,1159.8,906.6,-1455.0,-6126.0,9830.1,6.3,-6.9,-6.0,-496.5,113.7,-0.6,485.7,-453.6,-1280.1,0,114,268435456,21,0, 
0.0667,-439.8,-760.8,-293.1,464.4,261.6,-1277.7,918.9,-474.6,-6002.1,507.9,1179.9,926.7,-1440.6,-6330.6,6349.2,0.3,-6.6,-6.0,-474.0,135.0,-0.6,517.2,-850.2,-1325.1,0,120,268435456,22,0, 
0.0700,-436.2,-762.9,-297.3,463.5,260.1,-1273.2,923.7,-472.2,-14301.3,513.0,1181.7,932.4,-1428.9,-6301.2,-3909.0,4.8,-6.3,-5.7,-475.2,138.3,-0.6,520.5,-815.1,-1315.2,0,126,268435456,23,0, 
0.0733,-436.5,-775.2,-309.6,445.2,239.7,-1239.9,926.4,-461.4,6150.3,474.0,1159.8,907.8,-1430.4,-6090.0,-472.2,15.9,-6.9,-5.4,-495.3,121.2,-0.9,489.0,-397.8,-1263.0,0,132,268435456,24,0, 
0.0767,-440.1,-798.3,-333.0,428.4,218.7,-1224.6,919.2,-464.7,26824.2,461.4,1141.2,884.4,-1456.2,-5989.8,8858.4,17.7,-6.9,-5.7,-505.2,97.5,-0.9,472.8,-157.5,-1236.3,0,138,268435456,25,0, 
0.0800,-438.0,-776.4,-319.2,443.4,238.2,-1237.8,923.4,-468.6,19191.9,483.6,1153.2,906.6,-1474.5,-6144.3,9830.1,8.7,-6.6,-5.7,-495.9,107.4,-0.9,488.4,-443.4,-1272.6,0,144,268435456,26,0, 
0.0833,-438.9,-773.4,-302.4,459.0,260.1,-1281.6,923.1,-481.5,-6076.2,507.3,1181.1,930.0,-1446.0,-6339.3,6285.9,4.2,-6.9,-5.7,-477.9,130.2,-0.3,507.9,-860.7,-1334.1,0,150,268435456,27,0, 
0.0867,-436.2,-756.9,-297.9,463.5,258.0,-1279.5,925.8,-473.1,-14301.3,504.9,1181.4,925.5,-1430.4,-6317.1,-3914.4,10.8,-7.2,-6.0,-471.0,132.3,-0.9,511.8,-838.5,-1327.2,0,156,268435456,28,0, 
0.0900,-436.8,-791.1,-320.1,442.2,234.3,-1232.4,928.8,-463.5,6002.1,484.8,1156.2,895.5,-1423.8,-6101.7,-585.6,24.9,-6.6,-5.7,-494.1,105.0,-0.9,476.1,-391.8,-1270.5,0,162,268435456,29,0, 
0.0933,-439.5,-791.7,-337.2,425.4,219.6,-1223.4,921.0,-462.3,26676.0,464.1,1139.4,881.1,-1448.1,-6006.3,8839.2,23.1,-6.9,-6.3,-508.8,97.2,-0.6,464.4,-153.6,-1233.3,0,168,268435456,30,0, 
0.0967,-443.7,-794.7,-327.9,435.3,234.6,-1249.8,923.4,-475.5,19117.8,480.9,1157.7,898.8,-1453.2,-6151.2,9830.1,20.4,-6.6,-6.0,-493.5,111.0,-0.6,488.1,-421.2,-1269.3,0,174,268435456,31,0, 
0.1000,-434.1,-759.9,-300.0,456.9,257.4,-1279.5,928.8,-475.5,-6224.4,511.2,1174.5,925.2,-1443.0,-6346.5,6178.8,14.1,-6.9,-6.3,-472.5,131.1,-0.6,516.9,-834.3,-1330.2,0,180,268435456,32,0, 
0.1033,-435.3,-764.4,-306.3,452.7,254.1,-1266.6,931.8,-473.1,-14301.3,502.2,1169.1,917.4,-1426.8,-6342.9,-4014.6,11.4,-6.9,-5.7,-479.1,126.0,-0.9,504.9,-828.3,-1323.3,0,186,268435456,33,0, 
0.1067,-435.3,-778.8,-324.0,434.7,233.4,-1242.0,932.7,-462.3,6076.2,480.9,1146.6,896.1,-1431.6,-6118.8,-612.0,23.1,-6.3,-5.7,-502.2,108.3,-0.6,479.4,-395.7,-1260.9,0,192,268435456,34,0, 
0.1100,-435.3,-794.1,-339.6,419.4,214.2,-1228.2,924.9,-462.6,26824.2,468.6,1135.2,878.7,-1450.5,-6015.9,8820.0,24.0,-6.9,-5.7,-516.3,92.4,-0.9,463.8,-167.7,-1234.8,0,198,268435456,35,0, 
0.1133,-437.7,-791.7,-331.8,428.7,226.2,-1258.2,922.2,-476.1,19117.8,481.5,1144.5,894.0,-1458.3,-6171.9,9830.1,13.8,-6.9,-6.0,-502.8,98.1,-0.9,483.9,-451.2,-1279.5,0,204,268435456,36,0, 
0.1167,-430.5,-762.9,-304.5,452.4,254.1,-1281.6,931.2,-475.5,-6150.3,508.2,1167.3,918.6,-1432.5,-6360.3,6240.0,13.8,-6.6,-5.7,-477.6,120.9,-0.9,510.6,-845.4,-1329.6,0,210,268435456,37,0, 
0.1200,-424.2,-753.3,-290.4,462.0,257.1,-1274.7,939.3,-469.5,-14301.3,510.9,1182.9,926.1,-1414.2,-6331.5,-3948.6,15.3,-6.9,-6.3,-467.7,127.8,0.0,512.7,-831.9,-1318.2,0,216,268435456,38,0, 
0.1233,-429.0,-775.5,-318.9,442.5,238.2,-1239.3,935.1,-459.3,6002.1,487.2,1153.2,906.3,-1424.7,-6121.2,-556.2,25.2,-6.9,-5.7,-496.8,107.1,-0.9,484.5,-400.5,-1254.0,0,222,268435456,39,0, 
0.1267,-429.0,-791.4,-332.7,423.0,215.7,-1233.3,927.6,-462.0,26379.6,462.6,1132.5,876.3,-1458.9,-6004.8,8785.2,32.1,-6.9,-6.3,-513.3,85.5,-0.6,454.8,-136.8,-1232.7,0,228,268435456,40,0, 
0.1300,-428.1,-777.3,-327.0,432.0,240.9,-1250.7,926.4,-473.4,19043.7,482.4,1148.4,894.0,-1469.1,-6160.5,9830.1,20.1,-6.9,-6.0,-498.3,103.5,-0.6,483.0,-402.6,-1271.1,0,234,268435456,41,0, 
0.1333,-425.1,-760.5,-303.6,456.6,256.2,-1274.1,931.5,-479.4,-6298.5,511.2,1172.4,919.8,-1441.2,-6354.6,6181.5,6.0,-6.9,-6.3,-477.0,130.5,-0.3,509.1,-821.7,-1326.0,0,240,268435456,42,0, 
0.1367,-423.3,-752.7,-301.8,462.0,259.2,-1276.5,936.6,-474.6,-14449.5,515.4,1172.7,919.5,-1430.4,-6334.5,-3996.3,11.1,-6.9,-6.0,-485.1,127.2,-0.9,510.6,-818.7,-1319.4,0,246,268435456,43,0, 
0.1400,-425.4,-776.1,-320.1,439.2,227.1,-1231.2,933.9,-467.7,5928.0,486.6,1154.7,891.9,-1427.7,-6122.7,-623.1,24.9,-7.2,-6.0,-501.3,91.8,-0.3,486.6,-399.9,-1265.4,0,252,268435456,44,0, 
0.1433,-434.1,-798.3,-344.1,415.5,206.4,-1236.9,924.3,-476.1,26898.3,462.3,1125.6,874.8,-1455.0,-6032.4,8849.4,24.3,-6.9,-5.7,-525.0,86.7,-0.9,464.4,-172.8,-1238.4,0,258,268435456,45,0, 
0.1467,-435.6,-791.1,-332.4,428.4,225.6,-1254.3,928.8,-484.2,19266.0,480.9,1138.5,894.6,-1471.2,-6177.6,9830.1,19.5,-6.9,-6.3,-510.3,100.8,0.0,491.7,-429.9,-1275.0,0,264,268435456,46,0, 
0.1500,-429.9,-765.9,-301.2,450.6,248.1,-1280.1,935.4,-494.1,-6224.4,502.5,1165.8,919.2,-1448.7,-6367.5,6279.6,15.6,-6.9,-6.0,-488.4,114.9,-0.6,508.2,-826.8,-1338.6,0,270,268435456,47,0, 
0.1533,-429.6,-760.2,-307.2,450.9,247.5,-1273.2,938.1,-485.7,-14301.3,495.0,1165.8,915.9,-1449.9,-6342.9,-3984.3,21.9,-6.9,-5.7,-489.9,117.6,-0.3,500.4,-810.9,-1323.0,0,276,268435456,48,0, 
0.1567,-435.0,-780.9,-332.1,434.1,229.5,-1245.0,932.1,-477.9,5928.0,477.3,1141.2,894.9,-1447.2,-6138.0,-582.6,27.3,-6.6,-5.7,-517.2,106.2,-0.6,481.5,-399.3,-1266.0,0,282,268435456,49,0, 
0.1600,-438.6,-812.4,-343.5,417.9,216.9,-1227.3,927.6,-480.9,26898.3,466.5,1130.7,882.0,-1455.3,-6035.4,8842.8,32.7,-6.9,-5.4,-525.9,95.1,-0.6,470.4,-149.1,-1232.1,0,288,268435456,50,0, 
0.1633,-433.8,-780.9,-334.2,423.0,218.7,-1258.5,923.7,-493.8,19340.1,470.7,1139.1,887.1,-1464.3,-6177.9,9830.1,24.9,-6.9,-5.4,-528.3,87.0,-0.6,474.6,-417.6,-1280.7,0,294,268435456,51,0, 
0.1667,-432.9,-773.1,-308.4,447.6,250.2,-1283.4,930.0,-498.0,-5705.7,502.5,1169.1,915.3,-1449.9,-6377.1,6366.3,16.8,-6.6,-6.0,-494.1,117.6,-0.6,503.1,-834.9,-1331.7,0,300,268435456,52,0, 
0.1700,-428.1,-757.8,-303.3,453.0,251.7,-1275.6,937.2,-489.6,-14079.0,505.5,1166.1,914.1,-1436.1,-6349.8,-3787.2,17.4,-6.9,-5.7,-507.9,112.5,-0.9,502.5,-818.4,-1327.2,0,306,268435456,53,0, 
0.1733,-434.4,-781.8,-324.0,429.9,225.3,-1251.0,937.2,-483.6,6669.0,470.7,1136.1,889.2,-1446.9,-6143.4,-321.0,24.9,-6.6,-5.7,-536.4,93.0,-0.6,473.4,-415.2,-1272.6,0,312,268435456,54,0, 
0.1767,-437.7,-801.9,-346.2,409.5,206.4,-1232.7,929.7,-490.2,27194.7,456.9,1125.3,873.3,-1459.2,-6037.5,8975.7,24.9,-6.9,-5.7,-549.9,70.2,-0.3,457.5,-171.6,-1243.2,0,318,268435456,55,0, 
0.1800,-435.0,-788.4,-328.8,424.5,228.6,-1257.9,925.8,-495.0,19858.8,477.0,1147.5,894.0,-1467.0,-6178.5,9830.1,18.0,-7.5,-5.4,-525.0,87.3,-0.6,484.2,-439.2,-1284.0,0,324,268435456,56,0, 
0.1833,-430.5,-763.8,-305.4,450.0,252.9,-1278.9,934.8,-499.2,-5335.2,499.2,1163.7,920.1,-1451.7,-6367.5,6603.0,10.5,-6.9,-6.0,-509.7,103.8,-0.9,504.9,-842.1,-1328.7,0,330,268435456,57,0, 
0.1867,-434.1,-764.4,-301.8,450.3,242.7,-1284.3,934.5,-497.1,-13634.4,500.1,1164.0,918.3,-1439.7,-6345.6,-3471.3,14.1,-7.2,-5.7,-509.1,106.8,-0.9,507.3,-823.2,-1331.7,0,336,268435456,58,0, 
0.1900,-431.1,-781.2,-323.1,432.0,224.1,-1245.6,934.2,-489.9,6594.9,477.9,1143.9,897.3,-1442.7,-6127.5,-101.4,25.8,-6.6,-6.3,-526.2,85.5,-0.9,481.2,-387.6,-1266.3,0,342,268435456,59,0, 
0.1933,-435.0,-796.2,-335.4,423.9,213.0,-1227.6,927.0,-490.5,27417.0,464.7,1137.9,885.0,-1463.1,-6013.2,9019.8,24.3,-7.2,-6.0,-525.6,85.8,-0.6,465.3,-134.7,-1235.7,0,348,268435456,60,0, 
0.1967,-437.1,-789.0,-330.9,428.1,220.5,-1254.9,921.0,-501.3,20377.5,476.7,1141.5,888.9,-1472.4,-6160.2,9830.1,10.2,-6.9,-5.4,-519.6,81.6,-0.6,484.8,-420.0,-1282.8,0,354,268435456,61,0, 
0.2000,-430.5,-760.2,-288.0,457.2,251.7,-1277.1,930.6,-494.7,-4964.7,503.1,1166.1,921.0,-1450.8,-6350.7,6890.7,6.6,-6.9,-6.0,-493.5,111.0,-0.6,508.5,-822.3,-1330.2,0,360,268435456,62,0, 
0.2033,-428.7,-758.4,-304.8,454.2,249.9,-1282.5,933.3,-493.2,-13115.7,503.4,1165.5,915.0,-1435.2,-6326.4,-3112.5,12.3,-7.2,-6.0,-501.9,111.9,-0.6,508.2,-808.5,-1322.4,0,366,268435456,63,0, 
0.2067,-424.2,-771.0,-315.3,443.4,230.1,-1237.8,937.8,-476.7,7187.7,484.2,1152.3,896.7,-1428.0,-6109.2,361.8,23.4,-7.2,-6.0,-506.4,92.1,-1.2,483.9,-384.0,-1258.5,0,372,268435456,64,0, 
0.2100,-432.6,-794.4,-337.5,425.1,216.0,-1224.3,929.4,-481.2,28083.9,468.9,1141.5,885.6,-1444.5,-6000.6,9255.3,24.9,-6.9,-6.0,-519.6,77.4,-0.6,467.1,-145.5,-1235.7,0,378,268435456,65,0, 
0.2133,-428.4,-781.2,-317.1,433.5,231.9,-1254.3,927.3,-486.9,20822.1,477.9,1153.2,897.3,-1441.8,-6142.8,9830.1,14.4,-6.9,-5.4,-510.3,93.6,-1.2,483.3,-413.4,-1273.2,0,384,268435456,66,0, 
0.2167,-426.6,-761.4,-304.5,452.4,254.4,-1278.0,933.3,-496.5,-4297.8,499.5,1171.5,917.4,-1431.9,-6335.7,7257.6,11.1,-6.9,-5.7,-489.9,103.5,-0.9,509.7,-825.0,-1331.7,0,390,268435456,67,0, 
0.2200,-429.0,-763.5,-301.5,456.3,256.5,-1275.9,940.5,-489.0,-12745.2,502.8,1171.2,925.2,-1426.8,-6291.6,-2666.1,19.5,-6.9,-5.4,-489.9,113.4,-0.9,502.2,-793.8,-1323.3,0,396,268435456,68,0, 
0.2233,-432.9,-778.8,-324.0,434.4,225.9,-1243.2,932.7,-484.8,7706.4,471.0,1146.0,894.9,-1427.4,-6075.9,735.9,23.4,-6.9,-6.3,-515.7,84.3,-0.9,480.6,-363.6,-1264.5,0,402,268435456,69,0, 
0.2267,-435.3,-786.6,-335.7,418.5,213.6,-1229.1,929.1,-482.4,28602.6,453.6,1126.5,876.0,-1458.0,-5969.7,9403.8,28.5,-6.6,-5.4,-533.4,73.5,-0.6,463.8,-128.1,-1238.4,0,408,268435456,70,0, 
0.2300,-438.3,-795.6,-328.8,424.5,221.4,-1252.8,925.8,-497.7,21266.7,477.9,1157.4,891.0,-1456.2,-6108.9,9830.1,21.6,-7.5,-6.0,-512.4,85.8,-0.3,474.9,-406.2,-1274.4,0,414,268435456,71,0, 
0.2333,-433.2,-773.1,-306.0,450.3,253.2,-1278.9,928.8,-499.5,-3853.2,504.3,1173.9,923.7,-1440.0,-6309.6,7638.9,12.3,-6.6,-5.4,-488.7,108.6,-0.6,506.7,-830.1,-1326.9,0,420,268435456,72,0, 
0.2367,-432.0,-764.7,-303.0,456.3,261.3,-1270.8,935.7,-492.3,-11856.0,500.4,1172.4,923.4,-1428.6,-6283.5,-2115.0,15.0,-6.9,-6.3,-486.6,121.8,-0.6,509.4,-811.2,-1317.3,0,426,268435456,73,0, 
0.2400,-434.4,-780.6,-323.4,432.6,228.9,-1241.1,932.7,-482.1,8447.4,478.5,1143.6,892.8,-1439.4,-6059.4,1359.6,28.8,-6.6,-5.7,-517.8,87.6,-0.3,477.0,-389.1,-1265.4,0,432,268435456,74,0, 
0.2433,-440.1,-804.9,-340.2,417.9,210.6,-1238.1,925.8,-487.5,29343.6,461.7,1139.1,881.4,-1458.6,-5946.9,9585.9,30.9,-6.9,-5.7,-526.5,74.1,-0.9,464.7,-134.7,-1229.1,0,438,268435456,75,0, 
0.2467,-433.8,-783.0,-321.6,436.8,232.2,-1242.6,926.4,-486.6,22007.7,488.4,1152.9,902.4,-1456.8,-6081.3,9830.1,21.6,-6.9,-6.0,-511.8,94.8,-0.9,482.1,-417.3,-1269.9,0,444,268435456,76,0, 
0.2500,-428.1,-759.6,-297.6,458.1,256.5,-1270.2,933.0,-490.5,-3630.9,510.0,1176.0,918.3,-1441.5,-6249.3,7856.4,12.0,-6.6,-6.0,-493.5,107.7,-0.6,501.3,-804.6,-1323.3,0,450,268435456,77,0, 
0.2533,-432.9,-763.5,-292.2,460.2,256.2,-1276.5,935.4,-491.4,-11633.7,510.0,1170.3,920.1,-1434.6,-6228.9,-1799.1,15.0,-7.2,-6.0,-501.3,117.0,-0.6,501.0,-797.4,-1322.4,0,456,268435456,78,0, 
0.2567,-432.9,-780.3,-319.5,435.0,221.7,-1247.4,930.3,-486.9,9188.4,489.6,1145.1,888.3,-1434.3,-6008.7,1807.8,27.3,-6.9,-5.7,-522.6,79.2,-0.3,467.7,-395.7,-1264.2,0,462,268435456,79,0, 
0.2600,-436.2,-798.9,-330.3,423.0,213.0,-1230.0,921.3,-483.9,29936.4,468.3,1138.5,875.4,-1446.3,-5902.8,9712.8,35.4,-6.9,-6.0,-530.7,70.2,-0.9,449.4,-147.6,-1242.9,0,468,268435456,80,0, 
0.2633,-438.0,-791.7,-329.1,422.4,213.9,-1259.1,916.5,-497.1,22304.1,477.3,1136.4,872.7,-1451.1,-6039.3,9830.1,26.4,-6.9,-6.0,-535.5,64.5,-0.6,456.3,-419.1,-1282.8,0,474,268435456,81,0, 
0.2667,-438.3,-776.7,-317.7,425.4,216.9,-1300.2,921.0,-507.6,-2889.9,483.0,1110.0,859.8,-1449.6,-6238.8,8178.9,14.1,-6.3,-5.7,-556.8,49.2,-1.2,470.7,-834.3,-1344.9,0,480,268435456,82,0, 
0.2700,-438.6,-778.8,-337.2,423.9,221.4,-1290.0,925.2,-504.9,-11115.0,475.2,1100.7,859.8,-1442.7,-6212.1,-1296.6,17.7,-6.9,-5.7,-566.4,57.6,-0.6,465.6,-826.5,-1339.2,0,486,268435456,83,0, 
0.2733,-437.7,-795.6,-330.0,428.4,225.9,-1252.2,931.5,-489.9,9262.5,466.5,1129.8,882.0,-1437.6,-5994.6,2145.0,30.6,-6.6,-6.3,-543.6,86.4,-0.9,474.3,-394.5,-1264.8,0,492,268435456,84,0, 
0.2767,-440.1,-804.0,-339.9,415.5,214.2,-1238.1,924.9,-490.5,30381.0,455.7,1140.0,881.4,-1464.3,-5872.8,9813.3,28.2,-6.6,-5.7,-532.8,82.2,-0.3,473.7,-150.6,-1228.8,0,498,268435456,85,0, 
0.2800,-436.2,-789.6,-319.5,430.2,226.5,-1260.9,926.4,-495.9,22526.4,475.8,1159.5,904.8,-1467.0,-6008.7,9830.1,18.9,-6.9,-6.0,-519.6,102.9,-0.6,487.5,-409.8,-1270.8,0,504,268435456,86,0, 
0.2833,-437.4,-775.8,-310.8,447.6,252.3,-1284.3,928.2,-502.8,-2889.9,492.9,1170.0,927.0,-1464.9,-6198.0,8266.8,10.5,-6.9,-6.0,-511.8,117.3,-0.6,504.9,-816.3,-1324.2,0,510,268435456,87,0, 
0.2867,-432.3,-762.6,-299.4,456.0,256.2,-1273.5,936.6,-492.9,-10892.7,500.1,1167.3,926.4,-1430.1,-6174.0,-1164.6,17.1,-6.6,-5.1,-508.8,120.3,-0.6,506.7,-810.0,-1309.8,0,516,268435456,88,0, 
0.2900,-436.8,-788.4,-327.6,431.1,229.8,-1251.9,930.9,-492.0,9855.3,471.0,1140.6,897.6,-1443.9,-5960.7,2382.3,22.5,-6.9,-5.7,-532.5,104.7,0.0,485.7,-386.1,-1256.4,0,522,268435456,89,0, 
0.2933,-437.7,-806.4,-341.7,414.3,217.8,-1225.5,931.8,-492.3,30899.7,457.8,1123.5,879.9,-1462.2,-5846.7,9830.1,30.3,-6.9,-6.0,-551.7,93.0,-0.6,465.3,-139.2,-1224.6,0,528,268435456,90,0, 
0.2967,-437.7,-796.2,-334.5,425.7,233.7,-1252.2,926.7,-501.6,22896.9,476.7,1137.6,899.7,-1472.7,-5984.1,9795.0,21.3,-7.5,-6.0,-541.8,115.8,-0.6,490.8,-410.7,-1264.5,0,534,268435456,91,0, 
0.3000,-435.6,-771.9,-310.5,452.4,263.7,-1273.8,931.5,-504.6,-3112.2,499.8,1165.2,935.4,-1451.7,-6185.7,8323.5,11.7,-6.6,-5.7,-527.4,144.3,-0.9,524.7,-838.5,-1317.9,0,540,268435456,92,0, 
0.3033,-434.7,-770.4,-308.1,459.3,273.3,-1252.8,939.3,-496.2,-11559.6,497.7,1168.5,939.0,-1451.4,-6164.7,-1406.4,18.0,-6.9,-6.3,-526.2,148.8,-0.6,525.0,-818.4,-1306.8,0,546,268435456,93,0, 
0.3067,-437.1,-787.5,-341.7,427.8,233.1,-1239.3,931.8,-491.4,11707.8,463.5,1129.5,901.2,-1453.2,-5911.8,2862.9,27.0,-7.2,-6.0,-565.2,122.7,-0.9,495.9,-345.3,-1240.8,0,552,268435456,94,0, 
0.3100,-440.1,-822.0,-361.8,408.9,221.7,-1212.0,926.4,-493.5,35345.7,455.7,1110.9,883.2,-1469.7,-5780.4,9830.1,34.2,-7.2,-5.4,-579.6,108.9,-0.6,474.9,-64.8,-1212.0,0,558,268435456,95,0, 
0.3133,-444.0,-806.4,-356.1,412.8,230.1,-1252.5,920.4,-507.3,25564.5,462.9,1110.9,897.9,-1489.8,-5965.2,9701.7,20.7,-6.6,-5.7,-585.0,123.0,-0.9,490.8,-415.8,-1261.5,0,564,268435456,96,0, 
0.3167,-436.8,-783.9,-340.2,433.5,255.0,-1284.3,921.0,-513.9,-4446.0,484.2,1121.4,914.1,-1467.3,-6177.0,8571.3,10.2,-7.5,-6.3,-579.6,133.2,-0.6,516.0,-897.6,-1331.1,0,570,268435456,97,0, 
0.3200,-438.0,-782.1,-332.4,437.1,252.9,-1274.7,926.4,-505.8,-13263.9,484.2,1122.3,905.4,-1450.5,-6136.5,-1773.3,16.2,-6.6,-5.7,-579.0,124.8,-0.6,507.9,-866.1,-1316.4,0,576,268435456,98,0, 
0.3233,-435.3,-787.8,-356.1,419.1,222.9,-1236.6,925.2,-494.4,11263.2,462.0,1103.7,887.4,-1459.2,-5862.6,2458.5,23.4,-6.9,-5.7,-595.8,114.0,-0.6,488.1,-336.9,-1240.8,0,582,268435456,99,0, 
0.3267,-441.9,-828.3,-370.5,398.7,204.9,-1224.3,917.4,-500.7,35345.7,446.1,1085.7,874.8,-1477.5,-5743.8,9830.1,27.9,-7.2,-5.4,-598.8,104.1,-0.9,477.0,-61.5,-1205.4,0,588,268435456,100,0, 
0.3300,-438.6,-811.8,-354.6,416.7,238.8,-1227.6,924.3,-503.4,25638.6,469.8,1110.3,895.5,-1474.8,-5914.5,9698.7,17.7,-6.6,-6.3,-577.8,129.9,-0.9,495.3,-388.2,-1248.3,0,594,268435456,101,0, 
0.3333,-440.7,-784.2,-325.8,442.5,256.2,-1277.1,923.4,-513.6,-4297.8,494.1,1135.5,922.8,-1463.7,-6145.8,8573.4,7.8,-6.9,-5.4,-563.1,142.2,-0.6,516.9,-873.9,-1320.0,0,600,268435456,102,0, 
0.3367,-435.9,-778.5,-326.7,443.7,257.7,-1272.6,932.4,-505.5,-13189.8,500.7,1132.5,922.8,-1455.9,-6101.7,-1795.5,12.3,-6.6,-6.0,-558.9,137.1,-0.3,520.8,-847.2,-1311.6,0,606,268435456,103,0, 
0.3400,-438.0,-800.1,-348.3,428.1,235.5,-1235.1,928.8,-494.4,11485.5,474.0,1114.2,903.6,-1456.8,-5855.7,2584.2,25.5,-7.2,-5.7,-578.1,126.9,-0.9,495.0,-352.2,-1234.5,0,612,268435456,104,0, 
0.3433,-440.1,-819.9,-371.1,403.2,214.2,-1223.1,922.2,-496.8,35493.9,453.9,1088.7,882.9,-1477.8,-5732.7,9830.1,31.2,-6.6,-6.0,-606.9,106.2,-0.6,474.6,-68.4,-1211.1,0,618,268435456,105,0, 
0.3467,-440.7,-809.7,-349.2,422.7,238.5,-1242.3,917.7,-504.0,25490.4,477.0,1118.7,903.9,-1489.2,-5903.7,9712.2,23.4,-7.2,-5.4,-588.9,132.0,-0.6,503.7,-402.9,-1250.7,0,624,268435456,106,0, 
0.3500,-432.3,-772.8,-314.7,452.1,269.1,-1258.2,927.9,-505.5,-4594.2,504.3,1149.0,933.0,-1475.1,-6119.4,8497.2,18.9,-6.6,-6.0,-560.4,147.6,-0.6,531.6,-884.4,-1315.2,0,630,268435456,107,0, 
0.3533,-431.1,-769.2,-310.5,450.9,270.6,-1272.6,928.2,-501.6,-13782.6,507.9,1141.8,931.5,-1436.7,-6086.4,-2033.4,18.9,-7.5,-5.7,-552.6,160.2,-0.9,531.6,-856.2,-1307.1,0,636,268435456,108,0, 
0.3567,-436.8,-798.6,-342.6,423.0,234.6,-1235.4,927.3,-492.3,10818.6,482.1,1118.7,901.8,-1440.3,-5833.2,2199.3,30.6,-6.6,-5.7,-577.2,129.0,-0.9,498.3,-355.2,-1238.7,0,642,268435456,109,0, 
0.3600,-435.9,-812.7,-357.6,408.3,222.6,-1207.2,924.3,-492.3,34827.0,457.2,1095.6,887.4,-1466.4,-5712.6,9830.1,29.4,-6.6,-5.7,-605.1,113.4,-0.9,487.2,-78.0,-1203.3,0,648,268435456,110,0, 
0.3633,-433.5,-800.1,-342.6,422.1,242.7,-1238.1,918.0,-505.8,24823.5,482.1,1121.4,904.8,-1477.2,-5886.9,9775.5,17.4,-6.9,-6.0,-592.5,136.2,-0.6,504.3,-410.4,-1254.9,0,654,268435456,111,0, 
0.3667,-426.3,-764.4,-317.4,443.7,261.6,-1272.3,921.3,-512.4,-5705.7,503.7,1142.1,929.1,-1462.8,-6117.6,8167.2,7.8,-6.9,-6.0,-564.0,148.8,-0.9,532.8,-902.7,-1323.0,0,660,268435456,112,0, 
0.3700,-424.5,-769.5,-318.6,445.5,261.6,-1268.7,925.2,-503.4,-14820.0,501.9,1141.8,927.6,-1442.1,-6071.7,-2790.0,12.9,-6.9,-6.0,-557.7,145.5,-0.6,531.3,-853.8,-1310.7,0,666,268435456,113,0, 
0.3733,-433.2,-806.1,-343.8,423.3,240.3,-1226.4,925.2,-492.6,9929.4,470.1,1109.7,898.8,-1445.4,-5837.1,1464.3,23.1,-6.9,-6.0,-586.5,130.2,-0.6,497.4,-354.9,-1240.8,0,672,268435456,114,0, 
0.3767,-429.6,-812.1,-365.1,404.7,220.8,-1215.0,918.3,-499.5,33863.7,457.5,1097.7,882.9,-1474.8,-5715.0,9830.1,30.0,-6.9,-6.3,-600.3,116.1,-0.9,482.7,-79.2,-1208.4,0,678,268435456,115,0, 
0.3800,-432.6,-805.5,-345.6,414.9,235.8,-1239.3,918.0,-510.9,23934.3,474.3,1109.7,894.6,-1481.7,-5891.1,9830.1,21.0,-6.9,-6.0,-589.8,124.2,-0.6,505.2,-407.1,-1258.5,0,684,268435456,116,0, 
0.3833,-424.2,-767.1,-311.4,444.6,270.0,-1267.5,923.7,-513.0,-6446.7,508.8,1136.7,929.7,-1458.0,-6114.0,7781.4,12.3,-6.6,-5.4,-560.1,153.0,-0.9,526.8,-901.2,-1321.5,0,690,268435456,117,0, 
0.3867,-428.7,-771.3,-315.3,447.6,264.3,-1263.9,927.6,-507.9,-15412.8,503.7,1140.3,929.1,-1440.0,-6100.8,-3381.9,19.2,-6.9,-5.7,-561.9,147.3,-0.6,528.0,-864.9,-1313.1,0,696,268435456,118,0, 
0.3900,-431.7,-794.4,-347.1,421.5,232.5,-1227.6,921.9,-497.7,9336.6,473.1,1111.8,889.5,-1448.7,-5845.2,987.9,26.4,-6.6,-5.7,-579.9,119.7,-0.6,496.8,-363.3,-1244.1,0,702,268435456,119,0, 
0.3933,-434.4,-814.8,-370.2,397.8,212.1,-1218.6,910.5,-504.3,33715.5,452.7,1078.8,868.2,-1476.3,-5741.1,9830.1,27.9,-6.9,-6.0,-608.7,107.1,-0.6,474.3,-92.7,-1218.9,0,708,268435456,120,0, 
0.3967,-435.3,-802.8,-349.2,413.4,227.1,-1245.3,913.5,-518.1,23860.2,466.2,1098.3,888.6,-1480.5,-5925.6,9830.1,18.9,-6.6,-6.3,-594.0,121.2,-0.3,491.1,-439.2,-1266.6,0,714,268435456,121,0, 
0.4000,-431.4,-776.1,-331.2,432.6,254.7,-1272.3,920.1,-522.3,-6743.1,503.1,1128.6,918.6,-1473.3,-6158.1,7624.8,14.1,-6.6,-6.0,-569.1,142.5,-0.6,529.5,-912.0,-1339.5,0,720,268435456,122,0, 
0.4033,-427.2,-766.2,-317.7,438.3,256.8,-1278.0,920.4,-513.6,-15709.2,500.7,1132.5,918.6,-1435.5,-6132.0,-3657.0,20.1,-6.6,-5.7,-568.8,144.9,-0.6,524.7,-885.3,-1316.1,0,726,268435456,123,0, 
0.4067,-429.0,-783.9,-346.5,417.6,231.3,-1225.5,925.2,-500.1,9336.6,474.3,1098.3,887.4,-1449.3,-5886.0,809.1,34.5,-7.2,-5.7,-598.2,119.4,-0.9,490.5,-373.5,-1246.5,0,732,268435456,124,0, 
0.4100,-436.2,-830.4,-377.1,393.6,214.5,-1217.1,918.3,-512.7,33567.3,454.2,1079.1,873.3,-1457.7,-5759.7,9793.5,39.0,-6.6,-5.7,-610.8,108.9,-0.6,477.6,-81.0,-1208.4,0,738,268435456,125,0, 
0.4133,-432.3,-801.6,-355.8,409.5,230.7,-1242.9,912.3,-519.9,23637.9,469.2,1096.2,889.5,-1477.2,-5933.7,9830.1,20.7,-6.9,-5.7,-596.1,124.2,-0.3,495.9,-421.5,-1257.0,0,744,268435456,126,0, 
0.4167,-433.2,-783.0,-321.6,437.4,267.0,-1266.0,917.7,-519.9,-6965.4,501.3,1128.9,921.9,-1452.9,-6177.6,7512.9,13.8,-6.9,-5.7,-569.4,160.2,-0.9,526.8,-901.8,-1320.9,0,750,268435456,127,0, 
0.4200,-432.0,-774.6,-322.8,436.2,257.7,-1267.8,922.2,-510.9,-15857.4,501.3,1123.5,918.9,-1447.2,-6146.1,-3843.6,12.6,-6.6,-5.4,-571.2,139.2,-0.9,531.9,-870.3,-1313.1,0,756,268435456,128,0, 
0.4233,-432.9,-800.7,-347.1,411.9,228.0,-1229.1,921.3,-503.1,8966.1,470.7,1091.7,886.5,-1446.6,-5887.5,613.5,30.0,-6.6,-6.3,-602.4,114.6,-0.9,484.8,-363.3,-1251.0,0,762,268435456,129,0, 
0.4267,-434.4,-821.4,-363.3,395.1,211.8,-1209.0,918.9,-499.5,33270.9,457.5,1090.5,866.4,-1473.6,-5766.6,9745.2,32.1,-6.9,-5.7,-607.2,96.0,-0.3,471.0,-85.8,-1211.4,0,768,268435456,130,0, 
0.4300,-435.6,-806.4,-348.3,408.0,232.2,-1234.5,916.2,-509.1,23193.3,476.1,1098.6,889.5,-1478.7,-5941.2,9830.1,18.9,-6.9,-5.7,-604.5,120.0,-0.6,494.4,-426.3,-1260.3,0,774,268435456,131,0, 
0.4333,-430.5,-775.8,-317.1,437.1,265.2,-1258.8,924.9,-508.5,-7039.5,506.1,1129.8,922.2,-1451.7,-6180.3,7398.9,6.6,-6.9,-5.7,-573.0,139.2,-0.6,528.9,-907.5,-1320.9,0,780,268435456,132,0, 
0.4367,-426.0,-771.6,-311.7,441.6,269.1,-1258.5,930.6,-503.4,-16153.8,511.8,1130.1,925.2,-1419.3,-6153.9,-4009.8,18.3,-6.9,-6.0,-579.3,150.6,-0.9,526.8,-878.4,-1310.4,0,786,268435456,133,0, 
0.4400,-428.4,-795.3,-339.3,417.6,234.6,-1222.8,930.0,-492.0,8595.6,477.3,1107.9,892.2,-1426.5,-5887.5,363.6,32.1,-6.6,-5.7,-590.7,124.2,-0.9,499.2,-350.7,-1234.8,0,792,268435456,134,0, 
0.4433,-429.6,-817.8,-354.0,402.9,222.3,-1206.9,923.4,-492.3,33122.7,464.4,1100.7,879.0,-1454.1,-5773.8,9708.0,35.7,-6.9,-5.7,-606.9,111.0,-0.6,487.8,-65.1,-1198.2,0,798,268435456,135,0, 
0.4467,-431.4,-804.9,-343.8,413.4,238.5,-1230.9,919.5,-503.7,23489.7,476.1,1103.1,894.3,-1470.3,-5961.6,9830.1,21.9,-6.6,-6.0,-600.6,124.5,-0.6,501.0,-418.8,-1250.7,0,804,268435456,136,0, 
0.4500,-426.3,-769.2,-313.2,435.3,259.2,-1278.9,921.6,-512.7,-6817.2,507.6,1130.7,917.4,-1460.1,-6215.1,7478.1,8.7,-6.9,-6.0,-580.8,141.0,-0.9,525.0,-929.7,-1332.9,0,810,268435456,137,0, 
0.4533,-425.4,-772.8,-314.7,440.1,262.8,-1260.0,929.4,-503.1,-15931.5,504.3,1130.4,918.9,-1437.3,-6167.7,-3938.4,18.6,-6.9,-6.0,-577.2,140.1,-0.6,525.6,-877.2,-1311.0,0,816,268435456,138,0, 
0.4567,-429.6,-799.5,-343.5,419.1,241.2,-1212.9,925.8,-492.0,9114.3,473.1,1101.0,891.9,-1435.8,-5908.8,569.1,30.3,-6.9,-5.7,-606.6,126.9,-1.2,494.1,-363.3,-1239.3,0,822,268435456,139,0, 
0.4600,-431.1,-815.4,-358.2,396.9,214.8,-1194.9,921.3,-492.3,33419.1,451.2,1081.8,866.1,-1465.2,-5787.3,9778.2,35.1,-7.2,-6.0,-627.3,111.9,-0.6,468.3,-74.1,-1208.1,0,828,268435456,140,0, 
0.4633,-431.4,-803.1,-346.8,407.1,224.4,-1242.9,913.5,-506.1,23563.8,480.3,1097.7,884.7,-1472.1,-5970.6,9830.1,24.9,-7.2,-5.7,-607.5,108.9,-0.9,495.3,-405.9,-1259.1,0,834,268435456,141,0, 
0.4667,-426.3,-779.7,-324.6,429.6,255.9,-1265.4,925.5,-512.1,-6669.0,503.7,1120.5,909.6,-1464.0,-6212.7,7544.1,18.6,-6.3,-5.7,-588.0,134.4,-0.6,517.5,-880.2,-1325.7,0,840,268435456,142,0, 
0.4700,-421.8,-777.3,-325.8,427.8,249.3,-1272.3,923.7,-506.1,-15561.0,503.1,1105.8,902.4,-1438.2,-6171.3,-3792.6,24.6,-6.9,-6.0,-603.9,128.7,-0.9,515.7,-856.8,-1314.9,0,846,268435456,143,0, 
0.4733,-425.1,-799.5,-344.7,411.3,231.6,-1223.7,924.9,-494.1,9336.6,474.3,1098.0,890.1,-1440.3,-5910.9,754.5,34.2,-6.6,-6.0,-611.7,123.3,-0.6,496.2,-338.1,-1234.5,0,852,268435456,144,0, 
0.4767,-426.9,-819.0,-361.5,396.3,216.0,-1204.2,918.3,-497.7,33863.7,458.4,1103.4,885.9,-1455.9,-5795.4,9820.8,37.2,-7.2,-5.7,-608.4,115.2,-0.9,476.7,-55.2,-1203.0,0,858,268435456,145,0, 
0.4800,-429.9,-805.8,-351.6,402.9,224.7,-1245.6,914.1,-510.0,24008.4,478.2,1104.3,892.8,-1474.5,-5978.4,9830.1,29.7,-6.6,-6.0,-608.7,117.9,-0.6,498.3,-399.0,-1261.8,0,864,268435456,146,0, 
0.4833,-424.5,-779.1,-323.1,431.4,259.2,-1269.9,922.2,-516.6,-6446.7,500.4,1126.2,917.7,-1452.9,-6210.9,7696.8,21.0,-6.3,-5.7,-597.6,142.2,-0.6,525.3,-894.6,-1318.2,0,870,268435456,147,0, 
0.4867,-424.5,-783.6,-330.3,430.2,255.9,-1264.8,929.7,-508.5,-15486.9,495.0,1112.4,912.9,-1439.4,-6173.1,-3604.5,26.7,-6.6,-5.7,-611.7,142.5,-0.3,519.0,-858.6,-1310.7,0,876,268435456,148,0, 
0.4900,-426.9,-795.6,-354.6,405.3,219.9,-1239.0,921.6,-497.7,9484.8,460.5,1085.4,879.3,-1451.4,-5914.5,846.9,36.6,-6.9,-5.7,-636.3,105.6,-0.6,489.3,-357.3,-1249.2,0,882,268435456,149,0, 
0.4933,-433.8,-820.2,-373.8,387.0,202.5,-1212.3,917.7,-498.0,33789.6,443.7,1071.6,860.4,-1474.2,-5797.8,9825.0,41.7,-6.9,-6.0,-651.6,96.0,-0.6,471.6,-77.1,-1215.3,0,888,268435456,150,0, 
0.4967,-433.8,-814.5,-356.1,400.2,220.8,-1239.3,915.6,-509.1,24156.6,474.9,1094.1,884.4,-1472.4,-5970.6,9830.1,29.4,-7.2,-6.0,-628.2,103.8,-0.6,496.8,-420.0,-1263.6,0,894,268435456,151,0, 
0.5000,-430.2,-776.7,-330.0,434.4,257.1,-1266.9,923.4,-510.0,-6224.4,501.9,1124.1,917.4,-1466.7,-6195.0,7725.0,18.6,-6.9,-5.7,-608.4,134.1,-0.3,523.2,-905.4,-1325.4,0,900,268435456,152,0, 
0.5033,-427.8,-782.7,-322.2,437.4,260.4,-1264.8,931.2,-500.1,-15561.0,504.6,1126.8,922.2,-1440.3,-6162.6,-3559.2,23.7,-6.6,-6.0,-600.0,134.1,-0.6,520.5,-872.7,-1315.2,0,906,268435456,153,0, 
0.5067,-432.6,-802.5,-351.0,408.3,221.4,-1226.4,924.9,-492.0,9336.6,467.7,1094.7,886.2,-1439.7,-5892.6,768.3,34.8,-6.9,-6.3,-627.6,117.3,-0.6,487.8,-343.8,-1238.1,0,912,268435456,154,0, 
0.5100,-435.0,-826.5,-366.0,392.7,209.7,-1215.0,916.5,-496.2,34011.9,455.1,1085.4,874.5,-1469.4,-5773.2,9808.2,42.0,-7.2,-6.0,-633.0,105.0,-0.6,477.6,-72.6,-1205.4,0,918,268435456,155,0, 
0.5133,-432.6,-802.8,-350.4,411.6,230.7,-1228.2,918.0,-501.6,24008.4,477.9,1106.7,897.6,-1479.9,-5939.7,9830.1,30.3,-6.9,-5.7,-612.0,117.9,-0.6,506.4,-412.8,-1257.9,0,924,268435456,156,0, 
0.5167,-428.7,-787.8,-319.8,440.7,264.9,-1264.8,927.3,-506.7,-6594.9,502.8,1131.6,930.6,-1458.0,-6166.8,7657.8,27.9,-6.6,-6.0,-588.0,150.6,-0.9,536.4,-881.7,-1310.4,0,930,268435456,157,0, 
0.5200,-424.5,-770.4,-318.9,444.9,270.0,-1254.3,932.7,-496.8,-15709.2,504.3,1133.4,928.5,-1437.9,-6141.0,-3709.2,29.7,-6.9,-5.4,-590.7,157.5,-0.9,532.2,-846.9,-1297.2,0,936,268435456,158,0, 
0.5233,-430.5,-804.9,-342.9,417.9,228.9,-1228.8,931.8,-492.3,9188.4,479.1,1108.5,891.0,-1437.3,-5887.5,698.4,48.9,-7.2,-6.0,-612.6,110.4,-0.6,497.7,-340.8,-1227.0,0,942,268435456,159,0, 
0.5267,-428.1,-818.1,-360.3,405.3,215.7,-1210.8,926.1,-491.4,33789.6,459.0,1090.8,876.6,-1457.7,-5761.8,9798.0,53.7,-6.9,-5.7,-625.5,103.8,-1.2,484.2,-61.8,-1197.0,0,948,268435456,160,0, 
0.5300,-423.0,-806.1,-339.3,418.2,235.8,-1234.2,927.3,-498.0,23860.2,475.5,1106.7,897.3,-1457.4,-5942.1,9830.1,46.5,-6.9,-5.7,-610.5,124.8,-0.6,492.3,-387.0,-1248.6,0,954,268435456,161,0, 
0.5333,-420.3,-778.2,-319.8,443.1,265.2,-1257.0,936.6,-500.1,-6594.9,516.6,1137.3,930.0,-1455.6,-6191.7,7619.4,39.6,-6.6,-6.0,-592.2,151.8,-0.6,537.3,-872.4,-1307.1,0,960,268435456,162,0, 
0.5367,-414.6,-770.4,-314.1,447.0,265.2,-1255.8,942.9,-491.1,-15857.4,516.3,1139.1,926.4,-1441.5,-6155.4,-3760.5,44.4,-6.3,-6.0,-591.3,145.8,-0.6,535.5,-835.2,-1297.8,0,966,268435456,163,0, 
0.5400,-412.8,-789.6,-330.9,432.9,246.6,-1205.4,944.7,-473.7,9114.3,482.4,1114.8,903.0,-1420.2,-5889.3,625.8,55.8,-6.6,-5.7,-612.0,132.0,-0.9,505.2,-331.2,-1216.2,0,972,268435456,164,0, 
0.5433,-415.5,-809.4,-348.6,414.6,225.9,-1198.5,937.5,-476.1,33567.3,469.2,1108.8,887.4,-1443.3,-5762.7,9778.8,65.7,-6.6,-5.4,-616.8,118.2,-0.6,495.3,-39.9,-1175.7,0,978,268435456,165,0, 
0.5467,-407.7,-785.4,-333.6,430.8,252.6,-1211.7,939.6,-480.9,23786.1,492.6,1125.0,910.5,-1454.7,-5934.9,9830.1,57.6,-6.6,-6.0,-603.9,149.1,-0.6,514.2,-377.7,-1227.9,0,984,268435456,166,0, 
0.5500,-402.9,-754.2,-301.5,460.5,285.0,-1245.3,952.8,-481.5,-6669.0,516.0,1155.3,942.3,-1441.8,-6175.8,7546.5,50.7,-6.9,-5.7,-576.6,168.0,-0.9,548.1,-869.4,-1288.5,0,990,268435456,167,0, 
0.5533,-401.4,-759.3,-298.5,463.5,282.3,-1238.1,961.2,-471.3,-16227.9,516.6,1145.1,941.7,-1419.3,-6132.6,-3939.9,55.5,-6.9,-6.0,-576.3,165.3,-0.6,546.9,-846.9,-1277.1,0,996,268435456,168,0, 
0.5567,-403.2,-777.6,-328.2,435.6,249.3,-1211.1,951.3,-464.4,8892.0,486.0,1119.0,912.3,-1433.4,-5883.3,449.4,66.0,-7.2,-5.7,-601.8,143.4,-0.6,520.8,-345.9,-1211.1,0,1002,0,169,0, 
0.5600,-399.9,-792.6,-337.5,423.6,234.6,-1193.1,948.3,-463.2,33567.3,473.7,1113.3,897.3,-1445.4,-5753.7,9756.6,72.6,-6.9,-5.7,-605.7,128.1,-0.6,491.4,-65.4,-1178.7,0,1008,0,170,0, 
0.5633,-398.7,-778.5,-320.1,436.8,250.8,-1211.1,950.1,-471.3,23786.1,489.6,1128.0,920.1,-1451.1,-5941.5,9830.1,59.1,-6.6,-5.7,-594.6,143.7,-1.2,522.0,-393.9,-1223.1,0,1014,0,171,0, 
0.5667,-397.2,-751.8,-296.4,462.6,283.5,-1249.5,955.2,-475.2,-6817.2,529.8,1155.9,949.2,-1438.8,-6178.5,7509.9,52.8,-6.9,-5.7,-562.5,170.4,-0.3,553.5,-885.3,-1284.3,0,1020,268435456,172,0, 
0.5700,-395.1,-750.3,-292.8,470.4,288.0,-1223.7,962.7,-462.0,-16079.7,523.2,1155.0,943.8,-1424.4,-6139.5,-3956.1,58.5,-6.9,-6.0,-556.8,175.8,-0.6,544.8,-855.9,-1277.7,0,1026,268435456,173,0, 
0.5733,-397.2,-779.1,-322.2,439.2,251.4,-1201.2,960.6,-455.1,8892.0,497.4,1125.3,910.2,-1432.5,-5883.6,464.4,75.9,-6.9,-6.0,-579.9,142.5,-0.9,518.1,-341.7,-1203.6,0,1032,268435456,174,0, 
0.5767,-402.6,-796.2,-343.5,418.5,234.0,-1188.9,949.5,-454.8,33493.2,476.1,1107.0,890.1,-1455.9,-5756.7,9763.8,81.3,-6.6,-6.0,-603.3,121.2,-0.6,504.6,-40.8,-1164.0,0,1038,268435456,175,0, 
0.5800,-396.6,-777.6,-324.9,435.9,250.5,-1216.2,949.5,-463.8,23934.3,490.8,1127.4,911.4,-1473.6,-5922.6,9830.1,69.9,-6.6,-5.7,-582.0,140.1,-0.3,526.5,-367.8,-1213.5,0,1044,268435456,176,0, 
0.5833,-395.7,-756.6,-293.7,467.4,282.6,-1249.2,957.6,-465.3,-6076.2,522.0,1158.6,945.6,-1459.5,-6173.1,7739.1,57.0,-6.9,-6.0,-555.3,164.7,-1.2,556.2,-876.9,-1275.6,0,1050,268435456,177,0, 
0.5867,-389.7,-726.3,-294.3,472.8,288.9,-1238.1,962.1,-453.6,-15412.8,518.1,1150.8,945.3,-1449.0,-6141.9,-3546.3,62.7,-7.2,-6.0,-560.1,168.9,-0.9,554.7,-857.4,-1266.9,0,1056,268435456,178,0, 
0.5900,-395.7,-784.5,-322.5,450.9,261.6,-1193.1,963.9,-443.4,9707.1,508.8,1134.9,919.5,-1430.1,-5878.2,898.5,76.8,-6.9,-5.7,-572.4,141.0,-1.2,532.2,-339.0,-1188.9,0,1062,268435456,179,0, 
0.5933,-396.6,-785.1,-333.0,433.2,243.3,-1184.1,955.5,-440.4,34160.1,478.8,1116.9,903.6,-1465.8,-5752.2,9830.1,77.7,-6.9,-5.7,-594.9,127.8,-0.9,510.9,-50.1,-1161.6,0,1068,268435456,180,0, 
0.5967,-397.8,-773.7,-317.7,450.0,266.4,-1197.3,957.0,-443.4,24823.5,498.9,1137.9,925.5,-1478.4,-5925.3,9815.4,67.5,-6.9,-5.7,-580.8,151.8,-0.9,535.8,-369.6,-1204.5,0,1074,268435456,181,0, 
0.6000,-396.3,-747.3,-283.5,481.2,301.8,-1231.2,966.6,-447.9,-5779.8,534.0,1170.9,957.6,-1452.9,-6157.2,7995.9,60.0,-7.2,-5.4,-554.7,190.2,-0.9,557.7,-867.0,-1269.3,0,1080,268435456,182,0, 
0.6033,-386.4,-733.5,-286.2,484.5,298.2,-1222.8,969.0,-434.7,-15116.4,538.8,1171.5,959.1,-1430.4,-6104.1,-3206.7,69.6,-6.6,-6.0,-553.2,177.6,-0.9,570.0,-823.5,-1255.5,0,1086,268435456,183,0, 
0.6067,-390.0,-765.9,-309.6,461.7,278.4,-1180.5,972.3,-423.0,9855.3,510.0,1138.8,930.6,-1442.7,-5851.5,1163.1,79.5,-6.6,-6.0,-578.4,160.5,-0.3,531.0,-318.9,-1183.5,0,1092,268435456,184,0, 
0.6100,-394.2,-777.0,-325.5,437.7,245.7,-1174.5,958.2,-426.6,34975.2,488.7,1125.6,907.5,-1457.1,-5716.5,9830.1,81.6,-6.6,-6.0,-589.5,142.8,-0.6,523.5,-28.8,-1152.6,0,1098,268435456,185,0, 
0.6133,-395.7,-768.0,-313.5,447.3,267.9,-1200.6,957.3,-440.4,25342.2,509.7,1135.5,923.4,-1467.6,-5904.0,9781.2,72.0,-6.9,-5.4,-572.1,146.4,-0.6,541.2,-376.2,-1202.7,0,1104,268435456,186,0, 
0.6167,-388.5,-743.1,-286.2,473.4,297.9,-1231.8,962.4,-442.2,-5187.0,540.6,1159.8,954.3,-1460.1,-6133.8,8193.6,69.0,-6.9,-6.0,-549.3,179.1,-0.6,564.0,-868.2,-1269.9,0,1110,268435456,187,0, 
0.6200,-384.9,-735.3,-282.0,478.2,299.4,-1225.5,975.3,-433.2,-14745.9,541.2,1169.1,958.8,-1447.8,-6104.4,-2818.8,74.7,-6.9,-5.4,-539.7,180.6,-0.6,565.8,-837.6,-1259.1,0,1116,268435456,188,0, 
0.6233,-386.4,-759.0,-306.3,457.5,271.2,-1186.8,969.0,-420.6,10151.7,514.5,1143.0,934.2,-1451.1,-5842.5,1445.4,86.4,-7.5,-5.7,-562.8,159.3,-0.6,546.3,-334.5,-1182.3,0,1122,268435456,189,0, 
0.6267,-388.5,-776.4,-324.3,438.9,257.1,-1165.5,960.3,-424.8,34827.0,490.2,1128.0,915.9,-1478.1,-5709.9,9830.1,87.6,-6.6,-6.3,-582.3,150.3,-0.9,523.8,-33.6,-1149.0,0,1128,268435456,190,0, 
0.6300,-390.9,-765.0,-306.0,452.1,269.7,-1199.1,956.7,-438.6,25119.9,506.1,1140.3,932.7,-1500.0,-5890.8,9795.6,71.4,-6.9,-5.7,-573.9,156.0,-0.9,534.6,-371.7,-1206.3,0,1134,268435456,191,0, 
0.6333,-382.5,-739.8,-284.1,480.9,307.2,-1231.2,970.5,-434.4,-5705.7,547.2,1176.6,970.8,-1473.9,-6109.2,8118.6,72.6,-6.9,-6.0,-536.4,189.9,-0.6,573.0,-831.9,-1258.5,0,1140,268435456,192,0, 
0.6367,-380.7,-732.6,-275.1,484.8,303.6,-1218.0,977.1,-423.9,-15190.5,543.6,1169.1,966.9,-1450.2,-6084.0,-2959.8,73.8,-6.9,-5.7,-536.4,180.3,-0.9,566.4,-817.2,-1252.2,0,1146,268435456,193,0, 
0.6400,-381.3,-756.0,-303.0,460.8,275.4,-1173.3,975.9,-412.2,9633.0,513.3,1143.6,944.1,-1461.9,-5824.2,1211.4,86.7,-6.6,-5.7,-559.5,163.5,0.0,537.9,-305.1,-1180.2,0,1152,268435456,194,0, 
0.6433,-386.7,-770.7,-325.2,436.2,248.4,-1180.8,961.8,-420.6,34234.2,498.0,1126.8,911.4,-1488.6,-5694.9,9830.1,90.9,-7.5,-6.0,-576.9,141.0,-0.3,510.0,-31.2,-1153.5,0,1158,268435456,195,0, 
0.6467,-393.6,-766.8,-311.7,453.6,274.2,-1194.9,962.4,-429.0,24453.0,507.6,1148.1,931.5,-1497.6,-5882.1,9830.1,81.3,-7.2,-6.3,-559.8,161.1,-0.9,537.3,-356.7,-1203.0,0,1164,268435456,196,0, 
0.6500,-385.5,-731.7,-282.0,474.3,295.2,-1243.5,964.5,-435.3,-6520.8,538.2,1163.1,957.6,-1477.5,-6117.3,7773.0,74.4,-6.9,-5.7,-545.1,170.1,-0.6,571.8,-860.1,-1269.6,0,1170,268435456,197,0, 
0.6533,-385.8,-736.5,-282.9,480.9,303.3,-1218.0,975.0,-426.3,-16376.1,534.0,1164.3,958.8,-1469.4,-6097.8,-3746.4,76.8,-6.9,-6.0,-549.3,177.3,-0.9,564.6,-836.4,-1256.7,0,1176,268435456,198,0, 
0.6567,-387.9,-754.2,-299.7,457.5,266.4,-1194.0,971.1,-416.1,8299.2,509.4,1140.3,933.0,-1473.9,-5844.3,286.5,87.6,-6.9,-6.3,-565.2,153.9,-0.3,534.9,-333.0,-1185.3,0,1182,268435456,199,0, 
0.6600,-389.4,-776.4,-322.2,442.5,261.6,-1168.5,967.8,-413.7,33122.7,495.9,1135.5,925.5,-1488.6,-5724.0,9675.9,93.9,-6.9,-5.7,-573.6,151.8,-0.9,527.1,-46.5,-1145.7,0,1188,268435456,200,0, 
0.6633,-386.4,-759.9,-303.0,455.1,278.7,-1195.5,965.7,-421.8,23712.0,516.0,1151.1,943.2,-1495.2,-5904.0,9830.1,78.0,-6.9,-5.4,-560.7,163.8,-0.9,546.0,-382.5,-1197.0,0,1194,268435456,201,0, 
0.6667,-383.7,-735.9,-274.8,484.5,310.8,-1227.0,971.1,-430.2,-7113.6,542.7,1179.3,971.4,-1488.3,-6148.8,7420.5,70.8,-6.6,-6.3,-538.5,189.6,-0.9,565.8,-872.4,-1262.1,0,1200,268435456,202,0, 
0.6700,-376.2,-726.6,-267.6,486.3,305.4,-1231.8,973.2,-425.7,-16894.8,547.5,1177.5,972.3,-1456.8,-6126.0,-4265.1,72.6,-6.9,-6.0,-531.6,177.6,-0.3,575.4,-853.8,-1256.7,0,1206,268435456,203,0, 
0.6733,-383.7,-754.5,-297.9,460.5,276.6,-1186.5,971.7,-415.2,7780.5,512.7,1144.5,940.8,-1468.8,-5879.7,-216.6,82.8,-6.6,-5.7,-558.6,160.2,-0.6,534.9,-345.3,-1187.7,0,1212,268435456,204,0, 
0.6767,-382.8,-761.7,-312.9,444.3,256.8,-1163.1,968.4,-413.7,32381.7,492.3,1129.5,925.5,-1495.5,-5760.0,9510.3,92.4,-6.3,-5.7,-574.5,141.3,-0.3,525.3,-52.2,-1144.8,0,1218,268435456,205,0, 
0.6800,-384.6,-770.1,-303.9,453.9,270.6,-1196.1,966.0,-437.7,22674.6,518.1,1150.8,938.4,-1499.4,-5936.4,9830.1,80.7,-6.6,-6.0,-552.0,156.3,-0.6,546.6,-369.0,-1201.5,0,1224,268435456,206,0, 
0.6833,-380.7,-736.5,-280.2,476.1,302.1,-1224.9,969.6,-440.7,-7928.7,545.1,1177.8,968.7,-1479.6,-6181.5,6915.0,64.8,-6.9,-5.4,-530.1,179.4,-0.9,572.1,-870.6,-1273.8,0,1230,268435456,207,0, 
0.6867,-381.0,-737.7,-279.0,481.5,305.1,-1219.8,978.6,-435.3,-17784.0,548.1,1169.7,968.7,-1453.2,-6162.0,-4976.7,70.8,-6.6,-5.4,-537.6,175.5,-0.9,572.7,-847.8,-1253.7,0,1236,268435456,208,0, 
0.6900,-377.4,-753.3,-300.9,463.5,283.5,-1183.5,982.5,-422.1,6669.0,520.8,1150.8,942.9,-1449.0,-5900.1,-947.4,87.9,-6.6,-6.0,-556.8,161.1,-0.6,540.0,-321.3,-1182.0,0,1242,268435456,209,0, 
0.6933,-383.4,-780.3,-315.9,444.3,259.8,-1155.3,974.7,-424.8,31566.6,498.9,1135.8,922.8,-1466.1,-5783.7,9243.9,90.6,-7.2,-5.7,-575.4,140.7,-1.2,523.5,-19.5,-1148.4,0,1248,268435456,210,0, 
0.6967,-380.1,-760.8,-302.4,453.9,273.9,-1198.5,966.6,-438.9,21785.4,524.4,1155.6,946.2,-1477.2,-5965.8,9830.1,82.5,-6.3,-5.7,-559.8,155.1,-0.6,552.6,-362.1,-1191.0,0,1254,268435456,211,0, 
0.7000,-380.1,-735.0,-274.5,482.1,307.5,-1230.9,974.1,-444.0,-8743.8,552.0,1179.6,976.5,-1468.2,-6208.2,6369.9,72.9,-6.6,-5.7,-538.2,183.9,-0.6,575.4,-852.3,-1260.0,0,1260,268435456,212,0, 
0.7033,-377.4,-728.4,-269.1,486.6,308.4,-1219.5,981.6,-436.8,-18599.1,546.3,1178.7,972.9,-1449.9,-6189.3,-5711.1,79.5,-6.9,-6.0,-529.5,171.0,-0.9,568.5,-834.0,-1250.4,0,1266,268435456,213,0, 
0.7067,-382.2,-760.8,-310.5,456.3,276.3,-1179.3,975.6,-433.8,6002.1,514.8,1150.8,943.5,-1462.8,-5949.3,-1587.0,89.4,-6.9,-5.7,-559.5,157.2,-0.6,543.9,-327.0,-1180.8,0,1272,268435456,214,0, 
0.7100,-381.6,-773.7,-316.8,445.2,257.1,-1160.4,969.9,-432.0,30899.7,492.9,1145.1,929.4,-1467.6,-5818.5,9048.6,87.9,-6.9,-5.7,-563.1,137.4,-0.6,529.2,-28.5,-1143.6,0,1278,268435456,215,0, 
0.7133,-380.7,-756.9,-297.6,459.3,276.0,-1197.0,967.8,-443.4,21414.9,515.7,1170.3,955.5,-1482.9,-6018.9,9830.1,76.2,-6.9,-6.0,-549.0,161.7,-0.9,546.3,-380.4,-1197.0,0,1284,268435456,216,0, 
0.7167,-382.5,-744.0,-286.8,479.1,305.1,-1224.0,976.5,-449.4,-9410.7,537.0,1173.9,983.1,-1464.0,-6265.2,5978.7,67.8,-6.9,-5.7,-543.9,181.2,-1.2,564.9,-872.7,-1260.9,0,1290,268435456,217,0, 
0.7200,-380.4,-741.0,-303.0,473.1,297.3,-1221.9,982.8,-442.8,-19266.0,520.2,1129.5,958.8,-1463.7,-6254.1,-6236.7,78.6,-7.2,-6.3,-594.3,170.1,-0.6,565.8,-832.2,-1254.3,0,1296,268435456,218,0, 
0.7233,-381.3,-768.3,-336.0,435.0,256.5,-1185.3,977.7,-435.6,5335.2,483.6,1076.4,893.7,-1462.8,-5995.8,-2210.7,88.2,-7.2,-5.7,-630.6,122.7,-0.6,530.4,-323.1,-1184.1,0,1302,268435456,219,0, 
0.7267,-384.6,-782.4,-325.5,431.4,247.5,-1165.5,972.9,-437.4,30381.0,494.4,1110.3,899.1,-1467.3,-5889.9,8817.6,95.4,-6.9,-5.7,-582.9,121.2,-0.9,522.0,-28.5,-1153.5,0,1308,268435456,220,0, 
0.7300,-380.4,-759.3,-297.3,459.3,279.3,-1188.9,968.7,-446.1,20822.1,517.8,1170.3,947.7,-1463.7,-6066.6,9830.1,82.8,-6.6,-5.4,-540.6,159.6,-0.9,540.0,-360.3,-1194.6,0,1314,268435456,221,0, 
0.7333,-381.0,-732.6,-265.5,486.0,306.3,-1228.8,968.7,-452.7,-9707.1,543.9,1204.8,984.9,-1456.8,-6315.0,5676.0,72.3,-6.9,-6.3,-510.3,181.8,-0.3,567.3,-851.7,-1274.7,0,1320,268435456,222,0, 
0.7367,-379.2,-737.7,-275.1,482.1,301.2,-1232.1,973.5,-447.3,-19488.3,539.4,1188.6,972.0,-1460.4,-6287.1,-6552.6,80.4,-6.6,-5.7,-528.0,171.9,-0.6,558.6,-838.5,-1265.4,0,1326,268435456,223,0, 
0.7400,-378.0,-757.8,-295.8,461.4,274.2,-1174.5,973.2,-435.6,5409.3,506.7,1174.8,951.6,-1455.9,-6042.9,-2389.8,90.3,-6.9,-6.0,-531.6,143.7,-0.3,524.1,-336.0,-1196.4,0,1332,268435456,224,0, 
0.7433,-380.4,-764.7,-301.8,454.5,265.8,-1178.1,965.7,-432.9,30529.2,497.4,1183.5,955.8,-1473.9,-5922.0,8791.8,91.5,-6.6,-5.4,-513.9,149.4,-0.6,515.4,-31.8,-1158.9,0,1338,268435456,225,0, 
0.7467,-385.2,-761.7,-296.1,455.7,266.7,-1208.4,956.4,-447.6,21192.6,504.9,1193.1,954.6,-1474.2,-6109.8,9830.1,80.1,-6.9,-6.3,-512.7,137.1,-0.9,528.3,-377.7,-1222.5,0,1344,268435456,226,0, 
0.7500,-380.4,-732.6,-270.0,481.5,302.1,-1239.3,961.2,-450.9,-9188.4,534.9,1209.6,978.3,-1462.5,-6336.9,5831.7,67.8,-6.9,-6.3,-496.8,159.3,-0.9,548.7,-867.3,-1281.0,0,1350,268435456,227,0, 
0.7533,-381.6,-729.9,-265.5,489.6,296.1,-1229.1,971.1,-443.1,-18969.6,537.3,1225.2,984.6,-1451.7,-6318.3,-6247.8,74.1,-6.6,-5.7,-475.2,156.0,-1.2,546.9,-843.3,-1272.9,0,1356,268435456,228,0, 
0.7567,-376.5,-744.3,-282.3,469.8,274.8,-1197.9,964.5,-434.7,5853.9,510.3,1210.2,963.3,-1446.3,-6068.4,-2023.5,84.0,-6.6,-6.0,-482.4,139.2,-1.2,521.1,-334.8,-1201.8,0,1362,268435456,229,0, 
0.7600,-378.9,-761.7,-291.6,457.5,257.1,-1176.6,955.5,-434.7,30825.6,495.6,1214.4,958.8,-1451.4,-5933.4,8913.6,86.7,-6.9,-6.0,-473.1,125.1,-0.3,504.6,-34.2,-1165.2,0,1368,268435456,230,0, 
0.7633,-377.4,-740.7,-285.3,465.9,272.4,-1202.1,951.9,-443.4,21414.9,504.9,1206.3,963.0,-1473.6,-6112.5,9830.1,73.8,-6.9,-5.7,-488.1,131.1,-0.6,503.4,-361.2,-1222.8,0,1374,268435456,231,0, 
0.7667,-376.8,-729.0,-262.5,487.5,297.3,-1234.2,957.9,-451.8,-9188.4,535.8,1221.6,981.6,-1452.9,-6349.5,5956.5,66.0,-7.2,-6.0,-467.1,146.1,-0.9,538.5,-858.0,-1285.2,0,1380,268435456,232,0, 
0.7700,-369.0,-719.1,-240.9,505.8,310.8,-1230.9,965.7,-438.6,-18821.4,539.7,1259.4,1001.1,-1431.9,-6318.0,-6153.3,74.1,-6.6,-6.0,-425.7,166.5,-0.6,544.8,-832.8,-1270.5,0,1386,268435456,233,0, 
0.7733,-369.3,-737.7,-262.8,485.1,284.7,-1190.4,968.4,-421.8,6076.2,513.9,1233.9,978.0,-1428.0,-6059.1,-1890.6,87.6,-6.6,-5.7,-448.2,144.3,-0.6,520.2,-309.9,-1191.0,0,1392,268435456,234,0, 
0.7767,-376.8,-767.7,-293.4,459.3,260.7,-1165.2,961.8,-428.7,31122.0,494.1,1208.1,950.4,-1457.7,-5931.6,8991.9,90.9,-7.2,-5.7,-473.7,125.1,-0.6,501.9,-11.4,-1155.9,0,1398,268435456,235,0, 
0.7800,-373.2,-739.8,-276.6,471.9,278.4,-1202.4,953.7,-440.7,21711.3,508.8,1223.4,967.2,-1473.6,-6107.1,9830.1,78.9,-7.2,-6.0,-464.4,140.7,-0.6,514.5,-354.0,-1212.3,0,1404,268435456,236,0, 
0.7833,-376.8,-727.8,-252.6,496.8,305.7,-1233.6,962.4,-449.4,-8521.5,542.1,1241.4,991.5,-1444.5,-6349.2,6239.1,74.7,-6.6,-5.7,-442.5,155.4,-0.6,553.2,-842.7,-1275.6,0,1410,268435456,237,0, 
0.7867,-369.6,-711.6,-243.3,502.5,311.1,-1219.2,969.9,-438.6,-18525.0,541.5,1242.6,992.4,-1413.0,-6317.7,-5835.0,76.2,-6.6,-5.7,-438.3,158.7,-1.2,548.1,-808.5,-1266.0,0,1416,268435456,238,0, 
0.7900,-372.6,-736.8,-274.2,476.7,279.6,-1184.4,966.6,-426.0,6372.6,510.9,1206.0,960.3,-1420.8,-6056.1,-1641.0,87.6,-6.9,-5.7,-474.3,135.9,-0.6,519.6,-287.7,-1191.9,0,1422,268435456,239,0, 
0.7933,-373.8,-757.8,-286.5,456.3,257.1,-1177.8,954.9,-430.8,31344.3,489.9,1179.9,934.2,-1451.7,-5930.4,9099.3,89.7,-7.2,-5.7,-486.9,109.8,-0.9,496.2,-2.4,-1159.8,0,1428,268435456,240,0, 
0.7967,-379.2,-753.6,-285.0,471.0,274.8,-1202.1,953.7,-443.4,22081.8,516.0,1197.6,957.9,-1472.7,-6106.5,9830.1,85.5,-6.9,-5.4,-475.2,135.6,-0.9,516.0,-330.6,-1207.2,0,1434,268435456,241,0, 
0.8000,-371.1,-718.5,-248.7,504.6,317.1,-1217.7,962.4,-449.1,-8521.5,539.1,1223.4,989.1,-1466.4,-6348.0,6358.8,71.4,-6.6,-5.7,-450.3,164.4,-0.6,538.2,-844.5,-1278.6,0,1440,268435456,242,0, 
0.8033,-373.5,-717.3,-252.9,500.4,301.8,-1228.2,964.5,-444.9,-18228.6,545.1,1225.8,977.7,-1435.8,-6330.0,-5631.6,69.9,-6.6,-5.7,-449.7,144.0,-0.6,541.8,-825.0,-1271.4,0,1446,268435456,243,0, 
0.8067,-373.5,-741.6,-273.0,474.3,269.1,-1198.2,960.6,-437.4,6520.8,510.3,1195.8,944.7,-1435.2,-6068.7,-1446.0,83.7,-7.2,-6.0,-476.7,126.6,-0.3,513.3,-307.5,-1198.2,0,1452,268435456,244,0, 
0.8100,-378.9,-762.9,-302.1,455.7,256.2,-1166.7,950.4,-435.6,31566.6,496.2,1187.4,931.8,-1461.9,-5941.8,9135.3,81.9,-6.9,-6.3,-486.3,118.8,-0.6,495.3,-16.5,-1163.7,0,1458,268435456,245,0, 
0.8133,-375.0,-749.4,-276.3,468.0,275.4,-1194.0,951.9,-445.5,22304.1,513.6,1201.8,951.0,-1472.4,-6117.6,9830.1,75.0,-6.9,-6.0,-474.0,126.6,-0.6,518.7,-345.9,-1212.3,0,1464,268435456,246,0, 
0.8167,-373.8,-717.9,-246.0,496.8,306.0,-1227.3,954.9,-450.0,-8373.3,543.3,1235.1,990.9,-1458.9,-6354.3,6424.2,63.0,-6.9,-6.3,-446.7,162.9,-0.9,551.1,-840.3,-1273.8,0,1470,268435456,247,0, 
0.8200,-368.7,-713.7,-241.5,503.7,309.9,-1217.4,963.0,-441.0,-18302.7,546.3,1232.7,987.9,-1444.5,-6318.6,-5613.9,69.3,-6.9,-6.0,-444.6,155.7,-0.3,554.4,-825.6,-1266.3,0,1476,268435456,248,0, 
0.8233,-374.1,-739.8,-270.3,473.4,275.1,-1183.8,960.9,-433.5,6594.9,511.8,1197.3,952.2,-1446.3,-6053.7,-1386.9,84.0,-6.9,-5.7,-471.0,130.5,-0.3,518.7,-309.6,-1192.8,0,1482,268435456,249,0, 
0.8267,-373.5,-758.7,-285.9,455.1,260.4,-1164.3,958.8,-433.8,31788.9,501.9,1187.4,936.9,-1471.2,-5925.9,9200.4,80.7,-6.9,-5.7,-483.6,118.5,-0.9,509.7,-12.6,-1153.2,0,1488,268435456,250,0, 
0.8300,-370.2,-747.6,-270.3,468.9,276.6,-1190.4,954.3,-442.2,22378.2,519.0,1206.3,958.5,-1480.8,-6088.2,9830.1,74.4,-6.6,-5.7,-473.1,132.6,-0.9,509.1,-329.7,-1209.9,0,1494,268435456,251,0, 
0.8333,-366.6,-713.4,-238.2,497.1,306.6,-1220.7,963.6,-446.1,-8225.1,544.5,1231.5,991.8,-1455.0,-6333.6,6560.1,75.6,-6.9,-5.4,-451.2,157.2,-0.6,557.1,-807.0,-1265.7,0,1500,268435456,252,0, 
0.8367,-368.1,-715.2,-241.2,496.5,304.5,-1223.7,967.5,-443.7,-18006.3,541.5,1221.3,987.0,-1438.5,-6324.3,-5421.0,75.6,-7.2,-6.0,-455.7,154.8,-0.6,548.1,-818.1,-1263.0,0,1506,268435456,253,0, 
0.8400,-369.6,-742.5,-271.2,472.2,275.1,-1181.1,965.7,-437.7,6520.8,516.6,1193.7,953.7,-1443.6,-6067.2,-1308.9,87.0,-6.9,-6.3,-479.7,126.6,-0.6,520.2,-322.5,-1197.0,0,1512,268435456,254,0, 
0.8433,-374.1,-764.1,-288.3,454.5,259.2,-1161.6,954.9,-440.4,31196.1,497.4,1181.4,933.3,-1466.7,-5935.8,9125.4,89.4,-7.2,-5.7,-493.2,110.1,-0.6,501.9,-32.1,-1154.4,0,1518,268435456,255,0, 
0.8467,-372.9,-747.0,-272.1,465.9,272.7,-1197.0,950.1,-450.9,21859.5,513.0,1196.7,949.5,-1482.6,-6115.8,9830.1,82.2,-6.9,-6.0,-476.1,129.3,-0.9,519.0,-357.3,-1210.2,0,1524,268435456,0,0, 
0.8500,-373.8,-725.7,-251.7,492.3,300.6,-1228.5,953.4,-458.4,-9114.3,537.6,1216.5,976.2,-1467.0,-6355.5,6187.5,76.8,-6.9,-6.0,-461.7,141.0,-0.6,543.6,-837.3,-1274.1,0,1530,268435456,1,0, 
0.8533,-372.9,-719.1,-252.0,489.6,296.1,-1227.3,958.8,-450.6,-19117.8,537.9,1217.1,970.8,-1450.8,-6342.3,-6064.8,76.8,-6.9,-6.0,-453.3,136.5,-0.9,540.9,-831.9,-1270.2,0,1536,268435456,2,0, 
0.8567,-378.9,-748.5,-274.8,467.7,269.1,-1182.0,956.4,-443.1,5261.1,506.1,1191.3,943.5,-1462.8,-6091.5,-2161.8,87.3,-6.6,-5.4,-486.3,117.3,-0.9,505.5,-321.9,-1199.4,0,1542,268435456,3,0, 
0.8600,-378.6,-761.1,-296.7,452.1,252.0,-1164.9,948.0,-442.2,30306.9,491.1,1174.5,925.5,-1482.0,-5966.1,8824.8,85.5,-6.9,-6.0,-498.3,99.9,-0.6,486.9,-21.6,-1165.8,0,1548,268435456,4,0, 
0.8633,-379.2,-753.0,-280.5,463.5,265.8,-1204.5,945.9,-457.8,21044.4,507.9,1190.4,941.4,-1477.8,-6144.0,9830.1,80.1,-6.9,-5.7,-487.5,117.9,-0.6,508.8,-341.7,-1215.6,0,1554,268435456,5,0, 
0.8667,-372.6,-718.8,-246.3,494.4,298.2,-1227.3,954.3,-462.0,-9855.3,546.3,1229.1,975.0,-1454.7,-6391.5,5664.9,72.3,-6.9,-5.7,-457.2,137.1,-0.6,540.0,-845.7,-1278.0,0,1560,268435456,6,0, 
0.8700,-371.1,-718.5,-243.6,503.1,306.6,-1217.4,963.0,-451.8,-20229.3,547.8,1229.7,981.3,-1432.8,-6352.5,-6744.3,76.5,-7.2,-6.0,-455.7,148.8,-0.9,544.8,-819.6,-1263.3,0,1566,268435456,7,0, 
0.8733,-375.6,-743.7,-273.6,473.4,270.9,-1176.0,960.6,-442.8,4668.3,510.3,1188.0,943.8,-1442.7,-6107.1,-2820.3,89.4,-6.9,-6.6,-481.8,114.0,-0.6,512.1,-310.8,-1187.4,0,1572,268435456,8,0, 
0.8767,-378.3,-742.2,-283.5,454.5,255.9,-1159.2,951.9,-444.0,29714.1,491.7,1173.6,930.6,-1480.8,-5985.9,8560.8,90.3,-6.9,-6.0,-500.7,106.8,-0.9,493.8,-14.7,-1162.8,0,1578,268435456,9,0, 
0.8800,-380.7,-765.3,-279.6,462.9,270.6,-1184.4,949.8,-463.8,20896.2,519.6,1200.9,950.1,-1478.7,-6163.5,9830.1,87.9,-7.2,-5.4,-473.4,127.5,-0.9,525.9,-350.7,-1212.6,0,1584,268435456,10,0, 
0.8833,-373.8,-711.6,-246.3,490.2,300.3,-1221.6,958.8,-466.5,-10077.6,541.2,1221.9,978.0,-1464.3,-6413.7,5407.2,79.5,-7.2,-6.0,-459.6,151.8,-0.9,549.0,-847.8,-1280.7,0,1590,268435456,11,0, 
0.8867,-370.8,-715.5,-250.5,492.9,300.6,-1222.8,960.9,-460.8,-20155.2,547.2,1218.0,981.3,-1446.0,-6388.5,-6973.8,81.9,-7.5,-6.0,-455.1,152.7,-0.3,559.2,-828.3,-1268.7,0,1596,268435456,12,0, 
0.8900,-374.1,-742.2,-267.0,478.8,283.5,-1171.5,965.4,-446.1,4594.2,518.7,1203.9,961.8,-1443.3,-6143.7,-2997.3,90.3,-6.9,-5.7,-473.4,142.8,-0.6,527.1,-323.7,-1190.1,0,1602,268435456,13,0, 
0.8933,-375.0,-764.4,-289.8,457.5,253.2,-1160.4,960.0,-447.0,29343.6,502.8,1186.5,933.6,-1458.0,-5998.8,8457.3,98.4,-6.9,-5.7,-490.8,107.7,-0.6,512.7,-5.7,-1155.0,0,1608,268435456,14,0, 
0.8967,-374.1,-747.9,-278.4,465.0,268.2,-1193.1,955.2,-461.4,20451.6,517.8,1195.8,948.6,-1479.6,-6184.5,9830.1,87.3,-6.9,-6.3,-484.5,124.2,-0.9,518.1,-332.1,-1212.9,0,1614,268435456,15,0, 
0.9000,-368.7,-717.9,-250.8,494.1,303.3,-1223.4,963.9,-467.1,-10299.9,542.7,1219.8,979.8,-1458.0,-6430.8,5184.0,76.2,-7.2,-5.7,-462.3,143.4,-0.6,549.0,-833.1,-1275.0,0,1620,268435456,16,0, 
0.9033,-368.1,-717.3,-252.0,493.8,301.2,-1212.9,968.4,-458.4,-20377.5,532.2,1218.0,973.2,-1440.6,-6408.0,-7137.6,81.0,-6.9,-5.7,-466.2,150.3,-0.9,544.5,-827.4,-1269.0,0,1626,268435456,17,0, 
0.9067,-370.5,-747.3,-277.8,472.2,271.8,-1184.1,963.6,-450.9,4149.6,513.0,1197.3,951.3,-1437.9,-6165.6,-3180.9,92.7,-6.9,-6.0,-480.3,120.0,-0.6,522.6,-312.3,-1202.4,0,1632,268435456,18,0, 
0.9100,-371.7,-759.9,-291.9,458.1,255.9,-1155.6,955.5,-446.7,29714.1,499.2,1185.0,933.3,-1449.0,-6030.0,8441.1,92.4,-6.9,-5.7,-491.4,113.7,-0.3,503.1,-20.4,-1154.4,0,1638,268435456,19,0, 
0.9133,-370.8,-747.9,-280.5,472.8,276.6,-1183.8,954.6,-458.4,20599.8,509.7,1197.3,954.6,-1475.1,-6209.1,9830.1,82.5,-6.9,-5.7,-486.9,131.4,-0.9,523.5,-346.8,-1211.1,0,1644,268435456,20,0, 
0.9167,-368.1,-722.1,-253.2,494.7,305.4,-1211.1,960.0,-466.2,-10077.6,540.9,1214.7,980.1,-1466.4,-6450.0,5270.1,69.6,-6.6,-5.7,-466.5,148.8,-0.9,552.3,-849.0,-1268.4,0,1650,268435456,21,0, 
0.9200,-367.5,-709.2,-242.7,501.3,303.9,-1209.3,965.1,-458.1,-19784.7,540.0,1219.5,981.6,-1436.1,-6432.0,-6972.0,68.1,-6.6,-6.0,-465.0,149.4,-0.6,556.8,-850.2,-1265.7,0,1656,268435456,22,0, 
0.9233,-371.1,-744.9,-279.3,475.2,274.8,-1186.8,958.2,-453.3,4816.5,511.2,1196.1,953.1,-1434.3,-6181.2,-2888.7,83.4,-6.6,-6.0,-489.0,124.8,-0.6,523.5,-344.7,-1192.2,0,1662,268435456,23,0, 
0.9267,-378.3,-764.4,-302.1,452.1,249.3,-1169.4,944.7,-455.7,30084.6,485.7,1170.6,927.9,-1459.8,-6043.5,8582.4,81.0,-6.9,-6.0,-513.6,111.0,-0.6,498.0,-36.3,-1160.1,0,1668,268435456,24,0, 
0.9300,-375.6,-747.3,-285.6,462.0,261.3,-1199.4,944.1,-468.0,21192.6,501.3,1185.9,936.9,-1471.8,-6210.9,9830.1,72.9,-6.9,-5.7,-496.2,114.6,-1.2,517.5,-356.4,-1209.3,0,1674,268435456,25,0, 
0.9333,-374.4,-729.3,-259.2,488.7,297.3,-1234.5,949.5,-470.4,-9188.4,536.4,1209.0,970.8,-1455.3,-6447.0,5731.2,61.2,-6.9,-5.7,-471.9,147.3,-0.6,550.8,-849.3,-1272.6,0,1680,268435456,26,0, 
0.9367,-369.9,-722.4,-256.2,492.6,300.3,-1230.0,955.8,-464.1,-18895.5,528.6,1214.7,974.1,-1436.1,-6423.6,-6345.6,67.2,-6.6,-5.4,-471.0,149.7,-0.9,538.2,-824.4,-1263.0,0,1686,268435456,27,0, 
0.9400,-377.1,-747.6,-279.9,467.7,268.8,-1186.5,952.8,-454.8,5705.7,500.7,1185.0,942.0,-1435.5,-6169.8,-2193.3,73.8,-6.9,-6.3,-498.6,114.0,-0.6,510.9,-320.4,-1194.9,0,1692,268435456,28,0, 
0.9433,-376.5,-763.2,-296.1,450.0,251.1,-1167.6,945.0,-454.2,31122.0,490.5,1172.1,925.5,-1454.4,-6034.2,8922.3,77.7,-6.6,-5.7,-503.4,103.8,-1.2,491.7,-23.4,-1151.4,0,1698,268435456,29,0, 
0.9467,-382.2,-756.0,-284.7,463.2,269.4,-1201.8,941.4,-463.5,22378.2,504.3,1187.4,945.3,-1483.2,-6205.8,9830.1,68.1,-6.9,-6.0,-498.6,122.1,-0.9,508.8,-349.2,-1208.7,0,1704,268435456,30,0, 
0.9500,-376.8,-731.4,-250.2,489.3,299.7,-1225.5,948.9,-468.9,-7928.7,535.5,1221.3,976.2,-1455.6,-6443.7,6441.0,57.0,-6.6,-5.7,-462.3,146.7,-0.3,551.1,-849.9,-1272.6,0,1710,268435456,31,0, 
0.9533,-372.0,-726.6,-250.5,496.8,300.6,-1221.9,957.6,-458.7,-18080.4,536.7,1215.3,980.4,-1431.9,-6396.0,-5581.8,66.9,-6.9,-6.0,-468.0,148.5,-0.6,548.1,-818.4,-1263.9,0,1716,268435456,32,0, 
0.9567,-376.8,-751.5,-273.6,468.6,272.7,-1180.5,949.8,-450.9,6743.1,500.1,1185.6,948.6,-1451.1,-6132.9,-1455.3,75.3,-6.9,-6.0,-489.0,129.3,-0.3,509.7,-307.5,-1195.5,0,1722,268435456,33,0, 
0.9600,-373.2,-759.6,-291.0,455.7,243.6,-1172.1,942.3,-453.6,32233.5,486.6,1175.7,927.3,-1473.6,-5992.5,9221.4,73.5,-7.2,-5.7,-504.6,102.6,-0.6,498.9,-8.4,-1159.2,0,1728,268435456,34,0, 
0.9633,-381.9,-762.0,-273.6,469.5,272.1,-1193.7,944.1,-465.0,23415.6,505.8,1191.6,945.0,-1479.6,-6167.4,9830.1,65.1,-6.9,-6.0,-488.1,130.2,-0.9,513.9,-331.2,-1204.5,0,1734,268435456,35,0, 
0.9667,-372.6,-731.1,-255.6,493.2,296.4,-1226.1,948.9,-469.2,-7039.5,536.1,1215.6,970.8,-1470.6,-6390.0,7002.6,55.5,-6.9,-6.3,-467.7,142.5,-0.6,549.3,-831.9,-1269.3,0,1740,268435456,36,0, 
0.9700,-372.3,-723.9,-243.9,495.0,299.4,-1230.6,945.0,-468.9,-17043.0,537.9,1219.2,974.4,-1452.6,-6369.3,-4851.3,53.1,-6.9,-5.7,-461.4,149.1,-0.3,553.8,-832.8,-1272.0,0,1746,268435456,37,0, 
0.9733,-375.0,-747.6,-281.4,467.7,266.7,-1169.4,944.1,-461.4,7632.3,506.7,1184.4,935.1,-1458.9,-6110.7,-649.2,64.8,-6.6,-6.0,-502.2,115.5,-0.6,499.5,-342.0,-1201.5,0,1752,268435456,38,0, 
0.9767,-378.3,-771.6,-291.6,454.2,253.8,-1169.4,942.9,-459.3,32974.5,497.1,1180.8,924.9,-1485.0,-5954.1,9458.4,72.9,-6.9,-5.7,-500.4,109.5,-0.6,489.6,-21.9,-1153.8,0,1758,268435456,39,0, 
0.9800,-373.8,-751.8,-272.7,463.2,263.4,-1207.8,936.9,-469.2,24008.4,518.1,1197.6,945.6,-1486.5,-6125.4,9830.1,64.8,-6.9,-6.0,-484.2,124.5,-0.6,505.5,-353.1,-1210.8,0,1764,268435456,40,0, 
0.9833,-370.5,-712.2,-248.7,489.6,294.6,-1233.6,940.8,-471.0,-6594.9,550.5,1225.8,977.1,-1471.5,-6357.9,7383.6,52.2,-6.6,-5.4,-457.5,146.1,-0.3,531.6,-853.2,-1275.6,0,1770,268435456,41,0, 
0.9867,-367.8,-727.5,-251.4,490.5,292.8,-1217.4,949.2,-466.2,-16746.6,550.2,1216.5,967.2,-1445.4,-6319.2,-4347.0,63.6,-6.3,-6.6,-465.6,139.8,-0.6,531.3,-822.3,-1264.2,0,1776,268435456,42,0, 
0.9900,-376.2,-755.1,-286.2,459.6,261.0,-1181.1,947.4,-459.6,7780.5,515.4,1189.5,937.5,-1450.5,-6051.9,-426.0,73.5,-6.9,-5.7,-485.7,118.8,-0.3,504.9,-312.9,-1191.3,0,1782,268435456,43,0, 
0.9933,-380.1,-776.1,-302.1,440.7,241.5,-1172.1,936.9,-461.1,33048.6,498.3,1170.6,918.3,-1474.5,-5914.5,9536.1,80.7,-6.6,-6.0,-507.6,99.0,-0.9,484.5,-16.5,-1154.7,0,1788,268435456,44,0, 
0.9967,-380.7,-756.9,-285.6,449.4,254.7,-1204.5,932.7,-474.6,24082.5,505.5,1181.4,936.3,-1497.3,-6089.4,9830.1,67.5,-6.6,-5.4,-500.7,117.6,-0.9,507.0,-344.1,-1206.0,0,1794,268435456,45,0, 
1.0000,-376.5,-733.2,-262.8,478.5,295.5,-1230.0,942.3,-479.4,-6446.7,532.2,1216.8,969.6,-1471.8,-6323.4,7512.9,61.8,-6.9,-6.0,-476.4,149.4,-1.2,536.4,-845.1,-1272.9,0,1800,268435456,46,0, 
1.0033,-375.3,-728.4,-258.9,480.3,289.8,-1225.8,949.5,-471.0,-16746.6,531.3,1215.9,967.2,-1461.6,-6294.0,-4124.4,66.3,-6.9,-6.0,-476.7,145.5,-0.6,553.5,-830.1,-1263.3,0,1806,268435456,47,0, 
1.0067,-378.0,-755.1,-286.8,457.2,259.8,-1187.1,949.2,-464.1,7854.6,505.8,1188.0,937.5,-1463.7,-6033.0,-171.0,81.3,-7.2,-6.0,-497.7,115.5,-0.9,520.2,-306.6,-1185.9,0,1812,268435456,48,0, 
1.0100,-380.4,-773.1,-303.3,440.1,239.1,-1175.7,937.2,-470.1,33270.9,485.1,1176.3,921.0,-1491.0,-5897.7,9591.0,77.4,-6.9,-6.0,-508.2,103.2,-0.6,505.2,-19.2,-1155.3,0,1818,268435456,49,0, 
1.0133,-378.0,-755.7,-285.3,456.6,263.1,-1193.7,937.5,-472.2,24675.3,505.5,1196.7,947.1,-1496.4,-6072.0,9830.1,66.3,-7.2,-6.0,-490.5,122.4,-0.6,522.3,-332.4,-1202.1,0,1824,268435456,50,0, 
1.0167,-377.4,-731.4,-250.5,490.5,302.1,-1224.6,943.5,-476.1,-6150.3,544.8,1230.6,986.1,-1476.9,-6298.2,7689.3,59.7,-7.2,-6.0,-459.9,162.6,-0.3,549.0,-827.7,-1264.2,0,1830,268435456,51,0, 
1.0200,-374.7,-722.7,-247.2,491.7,294.6,-1229.4,944.7,-474.6,-16227.9,544.5,1225.2,982.8,-1463.1,-6258.6,-3822.9,63.0,-6.6,-6.3,-457.8,152.7,-0.6,550.8,-818.4,-1261.5,0,1836,268435456,52,0, 
1.0233,-377.1,-751.5,-276.0,466.5,269.4,-1190.4,943.8,-465.0,8447.4,510.6,1198.2,946.8,-1465.5,-5994.3,197.4,74.7,-6.9,-5.4,-485.4,136.5,-0.6,510.3,-312.3,-1188.0,0,1842,268435456,53,0, 
1.0267,-385.5,-774.9,-300.0,441.9,240.6,-1172.4,934.2,-467.4,34086.0,493.5,1175.4,924.0,-1489.8,-5856.0,9740.4,75.3,-6.9,-6.0,-498.3,100.8,-0.9,502.2,-5.4,-1152.3,0,1848,268435456,54,0, 
1.0300,-385.5,-764.4,-285.0,453.6,255.9,-1212.6,931.8,-480.9,25268.1,517.5,1194.0,944.1,-1488.0,-6009.9,9825.3,67.5,-7.2,-6.3,-486.0,123.0,-0.9,520.2,-326.1,-1205.4,0,1854,268435456,55,0, 
1.0333,-378.9,-731.7,-263.4,477.3,281.7,-1236.6,937.8,-488.7,-5112.9,530.4,1213.5,966.3,-1480.5,-6247.8,8064.3,57.6,-6.6,-5.7,-469.5,133.2,-0.9,537.9,-832.5,-1274.7,0,1860,268435456,56,0, 
1.0367,-377.1,-734.7,-264.0,478.8,280.2,-1225.8,942.6,-477.9,-15635.1,532.2,1211.7,960.6,-1458.6,-6210.3,-3227.7,62.4,-6.9,-6.0,-468.6,129.3,-0.6,537.3,-812.1,-1265.7,0,1866,268435456,57,0, 
1.0400,-381.9,-765.0,-287.1,455.1,254.1,-1189.8,938.1,-469.5,8966.1,499.8,1191.6,938.4,-1471.2,-5943.9,637.5,73.8,-6.3,-6.0,-486.6,108.3,-0.9,506.4,-285.6,-1189.5,0,1872,268435456,58,0, 
1.0433,-387.0,-777.3,-309.9,434.1,232.5,-1180.8,929.4,-471.9,34530.6,478.8,1170.0,919.5,-1497.3,-5809.5,9830.1,74.4,-6.6,-6.0,-511.5,94.8,-0.6,488.7,3.0,-1159.8,0,1878,268435456,59,0, 
1.0467,-388.8,-769.8,-297.6,442.5,253.8,-1202.7,928.5,-483.3,25935.0,502.8,1176.0,939.3,-1500.3,-5983.5,9762.3,62.4,-7.2,-5.4,-501.3,113.4,-0.9,500.7,-323.1,-1206.3,0,1884,268435456,60,0, 
1.0500,-386.4,-743.7,-273.0,466.2,275.7,-1248.3,932.4,-491.7,-4594.2,526.8,1199.4,957.3,-1480.2,-6221.1,8338.2,51.6,-7.2,-6.0,-477.0,119.4,-0.9,537.9,-839.1,-1289.4,0,1890,268435456,61,0, 
1.0533,-381.9,-735.3,-258.3,477.6,285.6,-1234.5,939.9,-480.6,-14968.2,526.5,1212.3,962.7,-1462.5,-6183.0,-2708.1,60.9,-6.9,-5.7,-470.7,128.1,-0.6,534.0,-816.3,-1272.3,0,1896,268435456,62,0, 
1.0567,-387.6,-761.7,-290.4,450.6,247.2,-1198.2,933.3,-474.3,9484.8,494.4,1188.0,934.2,-1472.7,-5915.7,1104.9,69.6,-6.6,-6.3,-489.0,103.2,-0.9,502.5,-297.0,-1200.3,0,1902,268435456,63,0, 
1.0600,-387.9,-776.1,-305.4,437.1,238.5,-1176.3,926.1,-473.7,35049.3,487.8,1171.8,920.4,-1486.5,-5777.7,9830.1,69.9,-6.9,-5.7,-508.5,96.0,-0.6,483.0,-1.2,-1156.8,0,1908,268435456,64,0, 
1.0633,-390.9,-767.7,-295.2,440.7,246.3,-1215.0,918.6,-491.4,26379.6,495.3,1182.9,931.5,-1507.8,-5954.1,9700.5,57.9,-6.6,-5.7,-497.4,105.6,-0.9,497.7,-335.4,-1218.9,0,1914,268435456,65,0, 
1.0667,-388.5,-738.0,-260.4,473.4,278.7,-1248.9,926.1,-493.8,-3927.3,524.7,1201.5,960.3,-1493.7,-6197.4,8627.4,46.5,-6.6,-6.3,-474.9,124.8,-0.6,530.1,-837.3,-1281.6,0,1920,268435456,66,0, 
1.0700,-384.3,-735.9,-263.1,475.8,290.4,-1234.8,937.5,-484.5,-14301.3,530.4,1211.1,970.2,-1475.4,-6163.5,-2139.3,53.7,-7.2,-6.0,-473.1,140.4,-0.9,533.1,-825.0,-1266.9,0,1926,268435456,67,0, 
1.0733,-384.6,-754.5,-286.2,453.0,250.8,-1204.2,933.0,-475.2,10077.6,495.0,1186.2,939.6,-1476.6,-5896.2,1648.5,66.3,-6.6,-5.4,-495.9,105.0,-0.6,513.3,-324.9,-1197.0,0,1932,268435456,68,0, 
1.0767,-390.3,-778.5,-304.5,435.3,235.8,-1181.4,927.9,-472.5,35642.1,482.1,1170.0,918.6,-1493.1,-5751.3,9830.1,66.3,-7.2,-6.3,-501.0,87.0,-0.6,494.7,-18.6,-1159.2,0,1938,268435456,69,0, 
1.0800,-389.4,-762.6,-294.6,442.8,252.0,-1214.1,922.5,-486.0,26898.3,495.6,1179.6,937.2,-1513.2,-5916.6,9676.8,57.6,-6.9,-5.7,-498.9,105.6,-0.6,504.9,-333.3,-1215.0,0,1944,268435456,70,0, 
1.0833,-388.2,-746.1,-265.8,471.9,281.7,-1241.7,926.4,-495.0,-3779.1,527.7,1211.7,965.4,-1497.3,-6149.7,8742.6,47.4,-6.9,-5.7,-471.3,133.5,-0.6,537.3,-841.2,-1278.6,0,1950,268435456,71,0, 
1.0867,-383.1,-729.0,-258.6,479.7,283.5,-1248.6,931.5,-484.2,-14375.4,530.1,1212.9,972.3,-1465.8,-6114.0,-1929.3,50.1,-6.9,-5.7,-471.3,134.7,-0.6,535.2,-835.8,-1276.5,0,1956,268435456,72,0, 
1.0900,-387.9,-759.9,-285.3,454.5,262.2,-1182.0,928.5,-474.3,10077.6,491.7,1185.9,938.4,-1477.2,-5852.1,1708.8,63.6,-6.9,-6.0,-497.4,110.4,-0.6,498.3,-323.4,-1201.8,0,1962,268435456,73,0, 
1.0933,-390.0,-775.2,-310.5,432.3,233.1,-1191.0,918.3,-478.8,35271.6,479.4,1165.8,914.1,-1496.7,-5709.6,9830.1,64.8,-6.9,-6.0,-511.8,90.9,-0.9,484.8,-12.6,-1167.0,0,1968,268435456,74,0, 
1.0967,-388.2,-765.3,-297.6,444.9,251.1,-1208.4,919.8,-485.4,26601.9,494.7,1173.3,928.5,-1502.4,-5877.9,9692.1,56.4,-6.9,-6.0,-503.7,110.4,-0.9,496.2,-331.8,-1217.1,0,1974,268435456,75,0, 
1.1000,-384.0,-740.7,-269.1,471.9,286.2,-1250.7,924.3,-491.4,-4075.5,527.4,1203.9,963.9,-1484.4,-6115.8,8660.4,44.1,-6.9,-6.0,-479.7,138.6,-0.9,529.5,-837.6,-1282.8,0,1980,268435456,76,0, 
1.1033,-384.9,-736.8,-264.9,477.6,283.5,-1238.4,932.1,-487.2,-14745.9,526.5,1211.1,960.3,-1471.2,-6091.5,-2113.5,49.5,-6.6,-6.3,-482.4,131.7,-0.9,529.2,-830.7,-1275.0,0,1986,268435456,77,0, 
1.1067,-382.5,-743.4,-292.2,450.3,248.7,-1198.8,929.4,-473.7,9336.6,493.2,1174.8,927.0,-1476.3,-5828.1,1393.5,60.3,-6.9,-6.0,-511.8,102.9,-0.6,498.3,-306.3,-1203.9,0,1992,268435456,78,0, 
1.1100,-393.6,-789.3,-312.0,435.3,241.2,-1177.8,919.5,-478.2,35123.4,484.2,1159.8,914.1,-1487.4,-5697.3,9830.1,65.1,-6.9,-5.4,-518.1,99.0,-0.9,484.5,-12.0,-1169.1,0,1998,268435456,79,0, 
1.1133,-389.7,-770.7,-297.0,446.7,253.8,-1209.0,915.9,-489.6,26305.5,498.3,1178.4,936.0,-1503.9,-5871.9,9707.4,52.5,-6.9,-5.4,-508.5,114.6,-1.2,507.0,-328.2,-1216.5,0,2004,268435456,80,0, 
1.1167,-386.1,-751.2,-273.3,472.2,279.6,-1247.1,917.7,-497.1,-4223.7,522.9,1205.1,960.6,-1482.9,-6105.3,8591.1,44.7,-6.6,-5.7,-483.6,127.8,-0.6,531.9,-854.7,-1287.0,0,2010,268435456,81,0, 
1.1200,-384.3,-743.1,-265.5,479.1,284.4,-1241.1,929.4,-486.9,-14745.9,525.0,1201.8,963.9,-1464.6,-6091.2,-2268.6,51.0,-6.9,-5.7,-483.6,131.4,-0.6,532.2,-856.5,-1277.7,0,2016,268435456,82,0, 
1.1233,-385.8,-756.9,-294.0,455.4,255.0,-1205.1,925.5,-480.9,9040.2,497.7,1179.3,934.8,-1464.6,-5814.3,1238.7,58.5,-6.6,-6.6,-502.5,111.6,-0.6,498.3,-328.8,-1214.1,0,2022,268435456,83,0, 
1.1267,-388.2,-784.5,-309.0,436.8,235.5,-1183.5,926.4,-480.6,34530.6,475.2,1161.3,921.3,-1487.7,-5680.5,9830.1,61.8,-7.2,-6.0,-524.1,93.0,-0.6,490.2,-11.7,-1171.5,0,2028,268435456,84,0, 
1.1300,-387.6,-770.7,-297.9,448.2,248.7,-1206.6,919.8,-493.2,25935.0,488.7,1174.5,928.8,-1500.6,-5848.5,9765.0,48.6,-6.6,-6.0,-511.8,104.4,-0.6,502.2,-338.7,-1220.7,0,2034,268435456,85,0, 
1.1333,-385.5,-738.3,-261.3,477.0,281.7,-1239.6,927.9,-495.3,-4964.7,524.7,1202.7,959.4,-1482.0,-6098.7,8339.4,39.0,-7.2,-5.7,-487.5,129.9,-0.6,527.1,-848.4,-1290.3,0,2040,268435456,86,0, 
1.1367,-376.8,-734.4,-259.8,485.4,286.8,-1242.9,934.2,-490.8,-15635.1,528.0,1213.2,966.6,-1467.3,-6072.6,-2812.2,46.5,-6.6,-6.0,-478.2,135.3,-0.9,534.3,-835.5,-1280.7,0,2046,268435456,87,0, 
1.1400,-378.0,-759.6,-289.8,459.9,263.1,-1190.7,937.5,-479.1,8447.4,501.0,1185.0,936.3,-1469.1,-5822.1,748.2,61.8,-6.9,-6.0,-507.0,112.5,-0.3,504.3,-335.4,-1206.0,0,2052,268435456,88,0, 
1.1433,-381.3,-780.3,-301.2,443.7,246.6,-1167.9,929.1,-477.0,34011.9,480.0,1167.9,916.5,-1485.3,-5699.1,9830.1,63.0,-6.9,-5.7,-516.9,106.2,-0.6,479.4,-30.0,-1170.3,0,2058,268435456,89,0, 
1.1467,-380.7,-764.4,-288.9,451.2,257.4,-1204.8,927.3,-488.1,25194.0,496.5,1190.4,933.6,-1495.5,-5869.8,9815.4,55.8,-6.9,-6.0,-503.7,109.2,-0.3,507.0,-349.5,-1216.5,0,2064,268435456,90,0, 
1.1500,-374.7,-737.7,-255.0,483.9,288.6,-1241.7,933.6,-490.5,-5483.4,535.8,1219.8,971.4,-1464.9,-6122.4,8086.8,41.7,-7.2,-6.3,-476.1,148.8,-0.6,541.5,-858.6,-1281.9,0,2070,268435456,91,0, 
1.1533,-374.7,-729.3,-253.5,483.3,290.1,-1233.3,939.3,-485.4,-16227.9,531.9,1215.0,968.4,-1454.1,-6100.2,-3297.0,47.1,-6.9,-5.7,-479.7,142.5,-0.6,535.5,-853.5,-1283.1,0,2076,268435456,92,0, 
1.1567,-375.9,-759.3,-278.7,459.9,261.6,-1194.9,938.7,-473.4,8002.8,502.8,1187.1,944.1,-1455.9,-5843.7,279.9,62.7,-7.2,-6.0,-498.0,119.7,-0.9,504.9,-347.7,-1205.1,0,2082,268435456,93,0, 
1.1600,-379.5,-771.3,-293.1,446.1,247.5,-1172.1,933.9,-470.1,33419.1,488.7,1169.7,929.4,-1485.6,-5711.7,9704.1,64.2,-6.9,-6.3,-512.1,113.7,-0.6,494.7,-38.4,-1168.5,0,2088,268435456,94,0, 
1.1633,-376.5,-758.4,-282.9,462.0,267.6,-1193.7,936.0,-479.7,24823.5,502.5,1189.5,951.6,-1490.7,-5882.4,9830.1,52.5,-6.9,-5.4,-504.3,140.4,-0.6,516.3,-351.6,-1209.3,0,2094,268435456,95,0, 
1.1667,-374.4,-730.5,-252.0,483.9,286.5,-1232.7,935.4,-487.8,-5853.9,530.4,1212.6,971.4,-1478.4,-6131.1,7862.7,48.6,-6.9,-6.0,-482.4,141.6,-0.3,541.5,-874.2,-1280.7,0,2100,268435456,96,0, 
1.1700,-373.2,-722.4,-258.0,484.2,285.9,-1226.7,942.6,-482.4,-16672.5,530.7,1213.2,968.1,-1452.6,-6120.6,-3637.8,51.9,-6.6,-5.7,-475.2,143.7,-0.9,542.1,-882.6,-1271.1,0,2106,268435456,97,0, 
1.1733,-375.9,-757.5,-282.0,459.6,260.7,-1188.6,941.1,-476.4,7484.1,497.4,1183.8,936.6,-1467.9,-5869.5,-43.8,66.3,-6.9,-6.0,-502.5,122.4,-0.6,505.8,-363.9,-1200.9,0,2112,268435456,98,0, 
1.1767,-376.8,-771.6,-294.6,450.3,245.7,-1171.5,939.3,-469.8,33048.6,482.1,1178.1,927.6,-1485.0,-5738.7,9625.8,68.4,-6.9,-5.7,-507.3,109.5,-1.2,500.7,-53.7,-1160.1,0,2118,268435456,99,0, 
1.1800,-382.5,-766.5,-290.1,455.4,262.5,-1196.7,932.4,-486.9,24527.1,496.2,1190.1,940.5,-1506.9,-5911.8,9830.1,56.1,-6.6,-5.7,-502.5,126.6,-0.6,514.5,-384.9,-1211.4,0,2124,268435456,100,0, 
1.1833,-380.1,-737.7,-263.4,482.1,284.4,-1230.3,936.3,-494.4,-6446.7,523.8,1218.6,969.9,-1493.7,-6154.8,7680.6,45.9,-6.6,-6.0,-479.7,145.8,-0.6,532.2,-887.1,-1281.6,0,2130,268435456,101,0, 
1.1867,-374.7,-733.2,-260.1,483.6,282.3,-1233.0,937.2,-486.9,-16894.8,525.0,1210.8,965.1,-1462.5,-6137.7,-3968.7,48.0,-6.9,-5.7,-480.3,135.6,-0.3,526.2,-888.9,-1284.3,0,2136,268435456,102,0, 
1.1900,-375.3,-756.6,-283.5,456.9,251.4,-1181.4,941.1,-477.3,7113.6,498.0,1186.8,936.0,-1466.1,-5885.4,-395.1,64.5,-6.9,-6.0,-498.9,119.7,-0.9,504.0,-371.1,-1202.4,0,2142,268435456,103,0, 
1.1933,-379.8,-777.6,-307.8,436.2,234.3,-1171.8,931.8,-479.4,32604.0,478.5,1164.0,912.9,-1487.1,-5739.3,9480.6,66.3,-6.9,-5.7,-518.1,103.5,-0.6,482.7,-52.8,-1167.3,0,2148,268435456,104,0, 
1.1967,-378.3,-761.4,-291.3,451.5,250.8,-1199.7,925.5,-487.8,24082.5,498.0,1187.7,928.5,-1499.4,-5923.5,9830.1,54.3,-6.9,-5.7,-502.5,112.5,-0.6,499.8,-387.9,-1227.0,0,2154,268435456,105,0, 
1.2000,-377.1,-737.1,-263.1,477.6,276.3,-1249.2,933.3,-497.7,-6669.0,526.2,1211.1,960.3,-1486.8,-6163.8,7476.6,45.6,-6.6,-5.4,-477.9,141.3,-0.9,529.5,-880.8,-1291.5,0,2160,268435456,106,0, 
1.2033,-371.4,-728.7,-259.2,486.0,286.5,-1229.7,940.8,-485.4,-17339.4,527.4,1213.2,971.4,-1471.8,-6145.8,-4288.2,52.2,-6.9,-5.7,-470.4,148.5,-0.9,539.4,-878.4,-1281.6,0,2166,268435456,107,0, 
1.2067,-375.6,-750.9,-280.8,459.6,251.4,-1203.6,936.0,-474.9,6891.3,508.5,1189.8,935.7,-1463.7,-5889.0,-672.6,60.6,-6.6,-6.0,-492.3,117.6,-0.6,512.7,-375.9,-1213.2,0,2172,268435456,108,0, 
1.2100,-381.3,-778.2,-303.3,438.6,233.1,-1179.3,927.6,-480.6,32529.9,485.7,1170.9,918.6,-1493.4,-5770.2,9422.1,60.6,-6.9,-6.3,-508.5,103.8,-0.9,490.8,-76.8,-1175.4,0,2178,268435456,109,0, 
1.2133,-380.4,-764.1,-289.2,451.5,253.8,-1205.4,930.3,-490.8,24156.6,505.5,1188.6,934.2,-1503.9,-5941.5,9830.1,58.8,-7.2,-6.0,-493.2,120.0,-0.6,504.3,-390.6,-1219.2,0,2184,268435456,110,0, 
1.2167,-379.5,-743.7,-257.7,478.5,283.2,-1233.6,936.9,-493.8,-6669.0,537.6,1220.1,972.0,-1493.1,-6195.9,7411.2,47.4,-6.9,-6.3,-465.3,149.4,-0.9,542.7,-885.3,-1282.2,0,2190,268435456,111,0, 
1.2200,-376.8,-719.7,-258.0,483.9,282.3,-1233.3,942.9,-484.5,-17413.5,535.8,1214.4,968.4,-1470.9,-6176.7,-4400.1,51.3,-6.9,-5.7,-475.8,139.8,-0.6,532.2,-882.0,-1277.4,0,2196,268435456,112,0, 
1.2233,-384.3,-766.5,-283.5,458.7,253.2,-1186.8,942.6,-474.9,6743.1,493.5,1186.8,939.3,-1477.8,-5937.0,-803.7,58.5,-6.9,-5.7,-498.9,121.5,-0.9,507.3,-375.6,-1205.4,0,2202,268435456,113,0, 
1.2267,-385.5,-776.4,-302.7,435.3,234.9,-1175.7,935.4,-476.4,32159.4,481.2,1173.3,918.3,-1495.2,-5790.3,9362.4,61.2,-7.2,-6.0,-510.9,100.2,-0.3,483.6,-68.7,-1168.5,0,2208,268435456,114,0, 
1.2300,-388.8,-763.8,-291.3,449.4,249.6,-1206.3,928.2,-486.6,23786.1,497.4,1187.7,939.6,-1518.0,-5973.6,9830.1,49.5,-6.6,-6.3,-500.4,121.5,-0.3,502.8,-396.0,-1221.3,0,2214,268435456,115,0, 
1.2333,-383.1,-729.0,-267.9,473.1,276.3,-1239.9,932.4,-487.8,-6965.4,525.9,1209.9,962.1,-1509.9,-6212.1,7232.1,40.5,-6.9,-6.0,-473.7,136.2,-0.6,531.3,-901.2,-1288.2,0,2220,268435456,116,0, 
1.2367,-382.2,-744.3,-258.6,477.3,275.7,-1232.4,943.8,-489.6,-18154.5,522.3,1211.4,960.9,-1476.9,-6192.6,-4697.1,48.0,-6.6,-6.3,-472.2,135.3,-0.3,526.5,-893.4,-1285.5,0,2226,268435456,117,0, 
1.2400,-382.8,-764.1,-288.3,451.2,252.3,-1187.7,941.7,-479.1,6076.2,490.5,1180.5,933.3,-1479.0,-5935.8,-1241.1,61.2,-6.9,-6.0,-492.0,120.6,-0.9,494.4,-369.6,-1208.4,0,2232,268435456,118,0, 
1.2433,-385.2,-781.8,-307.8,430.8,222.0,-1170.0,933.0,-479.4,31788.9,480.9,1163.7,918.6,-1500.3,-5804.1,9214.5,61.2,-6.9,-5.7,-507.3,96.9,-0.3,483.0,-57.6,-1171.8,0,2238,268435456,119,0, 
1.2467,-386.1,-771.3,-295.8,443.7,249.6,-1198.8,931.5,-486.6,23415.6,499.8,1180.5,936.6,-1514.1,-5983.5,9830.1,53.7,-6.6,-5.7,-494.4,118.2,-0.3,504.0,-381.9,-1223.7,0,2244,268435456,120,0, 
1.2500,-381.3,-739.8,-263.1,471.3,273.9,-1242.0,931.8,-493.8,-7187.7,524.1,1203.3,964.2,-1491.0,-6241.2,7041.3,41.7,-6.9,-5.7,-465.9,138.0,-0.3,532.5,-894.3,-1293.6,0,2250,268435456,121,0, 
1.2533,-378.3,-736.8,-262.2,478.2,279.3,-1228.8,937.5,-481.5,-18154.5,525.0,1206.9,962.1,-1473.6,-6219.9,-4971.3,44.4,-7.2,-6.0,-463.8,141.6,-0.6,530.1,-890.4,-1290.9,0,2256,268435456,122,0, 
1.2567,-385.5,-771.0,-291.6,449.7,239.4,-1200.0,933.9,-479.4,5853.9,489.9,1178.4,931.8,-1476.3,-5978.4,-1440.3,53.4,-6.9,-5.4,-491.7,103.5,-0.6,507.6,-398.4,-1215.6,0,2262,268435456,123,0, 
1.2600,-389.1,-788.4,-308.1,435.0,228.0,-1185.9,924.3,-476.1,31344.3,466.5,1156.8,920.4,-1500.0,-5841.6,9124.5,52.8,-6.6,-6.0,-511.5,112.2,-0.6,480.9,-78.0,-1176.0,0,2268,268435456,124,0, 
1.2633,-392.4,-779.4,-294.3,444.9,242.1,-1207.2,922.2,-488.4,23193.3,490.8,1178.1,935.7,-1512.3,-6024.9,9830.1,38.7,-6.9,-5.7,-494.7,117.0,-0.6,506.4,-399.6,-1227.9,0,2274,268435456,125,0, 
1.2667,-388.2,-747.3,-267.0,474.3,277.5,-1232.4,935.4,-489.0,-7854.6,518.1,1204.5,969.0,-1501.5,-6270.0,6737.4,32.1,-6.9,-5.7,-474.9,146.7,-0.6,535.8,-887.7,-1291.2,0,2280,268435456,126,0, 
1.2700,-385.8,-741.9,-260.4,473.1,269.7,-1239.9,937.2,-484.2,-18821.4,515.1,1203.3,963.3,-1480.8,-6253.8,-5364.0,32.4,-6.6,-6.0,-466.2,131.4,-0.3,527.1,-903.0,-1287.6,0,2286,268435456,127,0, 
1.2733,-386.7,-769.5,-292.2,452.7,243.3,-1197.0,941.7,-474.3,5187.0,486.3,1175.7,938.1,-1497.3,-5999.4,-1942.2,46.2,-6.9,-5.7,-490.5,114.6,-0.9,502.5,-379.8,-1212.9,0,2292,268435456,128,0, 
1.2767,-392.4,-795.3,-313.8,427.8,226.2,-1175.7,927.3,-473.7,30751.5,465.0,1157.4,913.2,-1525.8,-5870.1,8941.8,48.0,-6.6,-6.0,-512.7,95.7,-0.9,480.3,-72.3,-1184.1,0,2298,268435456,129,0, 
1.2800,-390.6,-778.5,-303.6,435.3,236.4,-1202.7,926.4,-484.5,22452.3,478.5,1169.7,922.2,-1526.7,-6057.9,9830.1,41.7,-6.6,-5.7,-504.0,106.8,-0.6,485.1,-387.9,-1237.2,0,2304,268435456,130,0, 
1.2833,-390.9,-753.0,-272.4,462.6,262.8,-1247.1,932.4,-490.8,-8299.2,513.9,1194.9,955.2,-1500.6,-6304.2,6517.8,25.5,-6.9,-6.0,-477.0,134.7,-0.9,521.4,-894.9,-1299.6,0,2310,268435456,131,0, 
1.2867,-387.6,-751.2,-276.6,467.4,263.7,-1242.3,934.2,-483.3,-18969.6,514.2,1197.9,957.6,-1477.5,-6281.4,-5682.9,31.8,-6.6,-6.0,-482.4,125.4,-1.2,519.9,-897.0,-1292.1,0,2316,268435456,132,0, 
1.2900,-392.1,-770.1,-293.7,442.5,239.1,-1205.1,934.8,-473.4,4816.5,486.9,1176.3,931.2,-1485.3,-6036.0,-2187.3,40.5,-6.9,-6.6,-504.9,117.9,-0.6,489.9,-387.9,-1230.3,0,2322,268435456,133,0, 
1.2933,-393.6,-798.0,-316.2,421.2,217.8,-1176.3,927.6,-471.3,30677.4,460.5,1152.0,911.4,-1500.3,-5910.6,8847.3,49.8,-6.6,-5.7,-517.2,80.4,-0.6,475.2,-83.1,-1190.1,0,2328,268435456,134,0, 
1.2967,-393.3,-776.4,-296.7,435.6,236.7,-1214.7,927.0,-483.0,22452.3,477.0,1164.3,927.0,-1511.4,-6085.2,9830.1,36.9,-6.6,-6.3,-507.9,106.8,-0.6,495.3,-398.7,-1236.0,0,2334,268435456,135,0, 
1.3000,-390.6,-749.1,-269.7,461.4,261.6,-1251.3,930.9,-493.2,-8373.3,508.5,1191.6,951.6,-1496.1,-6332.4,6402.6,30.0,-6.9,-6.3,-480.0,121.8,-0.3,522.9,-906.3,-1308.6,0,2340,268435456,136,0, 
1.3033,-394.2,-760.5,-281.1,460.5,259.2,-1246.2,932.7,-487.8,-19266.0,508.2,1187.4,949.2,-1475.4,-6325.5,-5837.1,27.6,-6.9,-6.0,-486.9,119.7,-0.9,521.4,-905.4,-1310.1,0,2346,268435456,137,0, 
1.3067,-390.6,-771.6,-297.6,441.3,232.5,-1202.1,935.4,-471.9,4742.4,482.1,1163.7,920.4,-1472.4,-6073.8,-2349.3,42.6,-7.2,-5.7,-502.8,91.5,-0.9,491.4,-403.8,-1239.6,0,2352,268435456,138,0, 
1.3100,-396.0,-802.5,-323.1,417.9,211.8,-1190.4,923.4,-476.7,30677.4,469.5,1143.3,902.1,-1506.0,-5941.5,8775.9,42.0,-6.9,-6.0,-524.4,81.6,-0.6,472.5,-92.1,-1202.4,0,2358,268435456,139,0, 
1.3133,-389.4,-780.3,-305.4,435.0,232.8,-1222.8,924.3,-481.5,22155.9,480.9,1161.6,924.3,-1521.3,-6106.5,9830.1,35.4,-6.9,-6.0,-505.8,99.0,-0.3,489.0,-401.4,-1245.3,0,2364,268435456,140,0, 
1.3167,-381.3,-749.4,-277.5,455.4,254.1,-1253.4,929.7,-488.1,-8373.3,516.3,1185.6,950.1,-1496.1,-6350.1,6294.9,23.4,-6.9,-5.7,-488.7,115.2,-0.6,522.0,-901.2,-1317.3,0,2370,268435456,141,0, 
1.3200,-388.5,-751.2,-270.0,464.7,262.8,-1244.7,936.3,-480.3,-19414.2,513.0,1194.3,953.7,-1476.0,-6339.3,-5977.2,24.3,-6.9,-6.0,-474.0,121.2,-0.6,526.2,-913.8,-1302.0,0,2376,268435456,142,0, 
1.3233,-388.2,-775.2,-298.2,442.8,237.3,-1207.5,933.3,-468.0,4446.0,481.8,1162.5,930.6,-1478.4,-6087.0,-2527.8,37.8,-6.6,-6.0,-502.2,109.5,-0.9,489.0,-409.2,-1233.0,0,2382,268435456,143,0, 
1.3267,-390.0,-797.7,-313.5,423.3,219.0,-1179.3,930.3,-466.2,29936.4,471.0,1146.6,902.7,-1498.8,-5937.0,8653.8,46.2,-7.2,-6.0,-516.0,74.1,-0.6,478.5,-73.2,-1190.7,0,2388,268435456,144,0, 
1.3300,-393.0,-774.3,-299.7,433.5,228.3,-1210.5,924.3,-475.2,22007.7,477.6,1161.3,918.3,-1512.3,-6123.6,9830.1,34.2,-6.9,-6.0,-513.6,94.8,-0.6,490.5,-394.2,-1237.5,0,2394,268435456,145,0, 
1.3333,-388.8,-754.2,-276.6,455.7,258.3,-1246.5,930.6,-484.2,-8669.7,507.6,1192.8,952.2,-1493.4,-6365.4,6133.8,24.0,-6.9,-6.0,-487.8,123.3,-0.6,515.7,-899.1,-1306.2,0,2400,268435456,146,0, 
1.3367,-389.7,-759.6,-271.2,462.9,265.5,-1236.9,942.0,-481.2,-19488.3,508.2,1193.7,954.6,-1470.0,-6362.4,-6128.1,27.9,-6.9,-5.7,-479.7,128.4,-0.6,519.0,-910.8,-1305.9,0,2406,268435456,147,0, 
1.3400,-390.0,-782.4,-299.4,437.1,230.1,-1199.4,936.3,-467.1,4520.1,474.6,1157.7,918.9,-1474.5,-6112.2,-2636.4,42.9,-6.9,-6.0,-517.5,94.5,-0.3,482.7,-399.6,-1233.9,0,2412,268435456,148,0, 
1.3433,-397.8,-812.4,-334.5,410.7,202.8,-1196.4,926.7,-475.8,30232.8,458.4,1137.9,899.4,-1498.8,-5981.7,8661.0,45.6,-6.9,-5.7,-533.4,71.4,-0.9,469.8,-92.4,-1200.6,0,2418,268435456,149,0, 
1.3467,-393.0,-785.1,-309.6,429.0,228.0,-1215.3,924.6,-478.5,22155.9,478.5,1156.2,924.0,-1506.3,-6155.7,9830.1,34.5,-6.9,-6.0,-517.8,94.5,-0.9,492.3,-401.1,-1245.3,0,2424,268435456,150,0, 
1.3500,-396.3,-765.3,-282.0,451.8,253.5,-1253.4,927.9,-491.1,-8595.6,509.4,1181.7,951.3,-1483.8,-6408.0,6172.2,21.6,-6.6,-5.7,-489.0,116.1,-0.6,519.3,-912.9,-1313.1,0,2430,268435456,151,0, 
1.3533,-392.4,-758.7,-280.8,457.5,259.8,-1246.2,936.6,-482.1,-19636.5,500.7,1177.8,948.0,-1478.1,-6392.7,-6113.7,26.7,-6.9,-5.7,-495.3,124.8,-0.9,510.0,-913.5,-1314.3,0,2436,268435456,152,0, 
1.3567,-392.1,-783.3,-305.1,430.2,227.1,-1207.2,938.7,-471.0,4446.0,471.6,1151.7,916.2,-1473.0,-6129.6,-2651.7,40.2,-6.9,-6.3,-517.5,84.9,-1.2,486.9,-409.8,-1235.7,0,2442,268435456,153,0, 
1.3600,-394.8,-798.3,-321.0,414.6,211.5,-1186.2,926.4,-468.6,30232.8,453.6,1138.2,903.0,-1498.5,-6001.8,8645.1,41.4,-6.9,-6.0,-529.8,70.5,-0.9,468.0,-92.4,-1196.1,0,2448,268435456,154,0, 
1.3633,-398.4,-787.5,-307.8,426.3,223.5,-1215.0,926.1,-480.9,21933.6,476.1,1156.8,920.4,-1513.2,-6178.5,9830.1,29.1,-6.9,-5.7,-516.0,90.3,-0.9,481.5,-403.2,-1249.5,0,2454,268435456,155,0, 
1.3667,-393.9,-760.2,-283.8,452.4,253.2,-1242.0,932.1,-480.3,-8373.3,503.1,1176.0,944.7,-1503.3,-6422.4,6162.3,19.2,-7.2,-6.0,-501.6,109.2,-0.9,512.7,-912.9,-1320.0,0,2460,268435456,156,0, 
1.3700,-392.1,-756.0,-276.9,457.5,256.2,-1240.5,936.3,-477.3,-19488.3,495.9,1181.1,943.2,-1484.4,-6412.2,-6069.9,21.9,-7.2,-6.0,-497.7,111.0,-0.9,507.6,-930.6,-1314.6,0,2466,268435456,157,0, 
1.3733,-390.6,-777.0,-299.1,434.7,225.6,-1213.5,937.8,-462.6,4520.1,473.7,1158.6,921.6,-1491.3,-6154.8,-2655.9,36.6,-7.2,-6.0,-515.4,90.6,-0.6,489.0,-406.5,-1239.3,0,2472,268435456,158,0, 
1.3767,-394.8,-802.2,-321.9,417.0,216.0,-1181.1,934.5,-465.0,30010.5,456.3,1137.3,904.2,-1506.3,-6015.6,8634.0,42.9,-7.2,-5.7,-527.1,78.0,-0.6,465.6,-90.6,-1196.7,0,2478,268435456,159,0, 
1.3800,-393.9,-792.9,-317.1,421.8,222.6,-1205.1,934.8,-476.1,22007.7,463.5,1142.4,914.4,-1524.3,-6178.5,9830.1,31.5,-7.5,-5.7,-522.6,91.2,-0.6,480.6,-367.8,-1245.0,0,2484,268435456,160,0, 
1.3833,-393.9,-762.9,-283.8,452.1,253.5,-1256.4,933.3,-486.9,-8373.3,496.5,1180.5,944.1,-1500.6,-6438.6,6171.0,18.6,-7.2,-6.0,-492.9,114.3,-0.3,515.4,-909.6,-1319.4,0,2490,268435456,161,0, 
1.3867,-393.9,-759.3,-281.7,456.3,250.2,-1248.0,939.0,-481.2,-19636.5,505.2,1182.0,945.3,-1484.1,-6424.2,-6118.5,25.8,-6.9,-6.0,-496.8,109.8,-0.3,522.0,-902.1,-1307.1,0,2496,268435456,162,0, 
1.3900,-400.2,-786.9,-309.9,432.0,225.3,-1205.4,930.9,-473.4,4446.0,468.3,1146.0,914.7,-1487.1,-6177.3,-2688.6,33.3,-7.2,-6.0,-517.5,96.0,-0.9,478.8,-412.2,-1239.6,0,2502,268435456,163,0, 
1.3933,-398.7,-798.0,-332.7,412.2,202.5,-1183.2,925.8,-469.8,30084.6,455.7,1131.6,897.9,-1511.4,-6028.2,8629.5,41.7,-7.5,-6.0,-532.5,68.7,-0.3,468.6,-67.2,-1194.9,0,2508,268435456,164,0, 
1.3967,-401.4,-799.2,-316.2,421.5,217.8,-1215.3,926.7,-483.3,22304.1,463.2,1146.0,915.6,-1518.6,-6206.7,9830.1,31.2,-7.2,-6.3,-520.5,84.6,-0.6,485.7,-393.9,-1248.3,0,2514,268435456,165,0, 
1.4000,-392.7,-760.8,-280.2,454.2,254.1,-1246.2,930.9,-484.8,-8299.2,504.3,1182.0,945.3,-1503.9,-6461.7,6239.1,19.5,-6.9,-6.0,-494.7,106.2,-0.9,507.0,-916.5,-1311.9,0,2520,268435456,166,0, 
1.4033,-391.8,-758.7,-282.9,456.9,256.5,-1243.2,937.5,-479.1,-19414.2,502.2,1179.6,953.7,-1480.8,-6428.1,-6011.1,25.8,-6.9,-5.7,-492.6,109.8,-0.3,507.0,-903.0,-1308.9,0,2526,268435456,167,0, 
1.4067,-396.0,-789.6,-313.5,434.4,227.4,-1200.9,937.8,-465.3,4520.1,465.0,1142.4,917.1,-1490.7,-6179.1,-2568.6,40.5,-6.9,-6.0,-528.6,83.1,-0.6,477.0,-400.2,-1233.9,0,2532,268435456,168,0, 
1.4100,-398.7,-805.5,-325.5,416.1,211.5,-1176.9,926.1,-466.5,30455.1,448.2,1140.3,901.5,-1506.9,-6031.5,8722.8,43.2,-6.9,-5.7,-533.7,74.1,-0.6,463.5,-78.6,-1197.3,0,2538,268435456,169,0, 
1.4133,-396.6,-794.1,-312.9,431.7,227.4,-1212.6,924.0,-478.5,22748.7,463.2,1158.0,925.2,-1517.7,-6199.2,9830.1,31.5,-6.9,-6.3,-516.3,81.3,-0.6,472.2,-385.2,-1249.8,0,2544,268435456,170,0, 
1.4167,-393.0,-758.1,-278.4,459.9,262.8,-1236.3,931.2,-482.1,-7780.5,495.3,1184.4,955.2,-1517.4,-6443.1,6465.0,19.8,-6.6,-6.0,-499.8,118.5,-0.6,513.3,-879.3,-1302.6,0,2550,268435456,171,0, 
1.4200,-392.4,-757.2,-284.4,457.2,252.3,-1243.5,933.9,-481.5,-18747.3,495.9,1173.0,945.3,-1501.5,-6426.0,-5659.8,25.8,-6.9,-5.7,-505.5,105.0,-0.9,510.0,-891.6,-1300.5,0,2556,268435456,172,0, 
1.4233,-395.7,-783.0,-310.8,435.0,233.1,-1193.4,935.4,-468.3,5409.3,470.4,1150.2,921.0,-1506.0,-6162.0,-2065.8,36.3,-6.6,-5.7,-516.9,87.6,-0.9,485.4,-387.3,-1227.9,0,2562,268435456,173,0, 
1.4267,-396.3,-800.1,-323.7,420.0,210.9,-1173.9,929.1,-469.8,31492.5,452.7,1143.9,903.9,-1524.0,-6012.3,9032.4,38.7,-6.6,-6.3,-524.4,74.4,-0.6,465.6,-56.4,-1190.4,0,2568,268435456,174,0, 
1.4300,-396.0,-794.4,-313.2,428.4,223.2,-1210.5,922.8,-479.4,24008.4,464.4,1155.3,921.9,-1531.8,-6174.3,9830.1,30.0,-6.9,-5.4,-516.6,88.8,-0.9,486.3,-344.4,-1227.3,0,2574,268435456,175,0, 
1.4333,-397.2,-766.8,-292.8,449.7,249.9,-1241.7,926.7,-489.0,-5557.5,493.2,1169.7,944.1,-1513.8,-6417.9,7506.0,15.3,-6.6,-6.3,-502.8,106.8,-0.9,511.5,-875.1,-1304.4,0,2580,268435456,176,0, 
1.4367,-396.0,-760.5,-284.4,453.9,255.3,-1235.4,933.6,-477.6,-16079.7,493.8,1175.1,950.1,-1492.8,-6376.5,-4049.7,21.9,-6.9,-6.0,-501.0,110.4,-1.2,505.8,-843.3,-1296.3,0,2586,268435456,177,0, 
1.4400,-400.5,-792.6,-314.4,429.3,219.0,-1203.3,927.0,-473.4,9707.1,453.9,1143.6,914.4,-1494.0,-6113.1,441.6,29.7,-6.9,-5.7,-524.1,77.1,-0.6,475.5,-345.3,-1225.8,0,2592,268435456,178,0, 
1.4433,-405.0,-813.9,-342.3,401.7,193.2,-1183.8,920.4,-477.3,34901.1,438.6,1118.4,888.0,-1514.4,-5970.9,9830.1,34.2,-6.9,-6.3,-550.2,43.5,-0.9,455.4,-47.4,-1197.6,0,2598,268435456,179,0, 
1.4467,-403.2,-804.0,-324.6,417.3,214.2,-1219.5,915.9,-489.0,26379.6,461.4,1139.4,911.7,-1515.9,-6111.3,9758.4,28.5,-6.6,-6.0,-535.8,76.2,-0.9,474.3,-345.9,-1242.3,0,2604,268435456,180,0, 
1.4500,-400.5,-769.2,-294.6,445.5,244.5,-1251.9,922.8,-494.7,-4223.7,491.7,1165.2,942.0,-1503.6,-6343.2,8445.9,20.4,-7.2,-5.7,-508.8,96.9,-0.3,506.7,-856.8,-1309.8,0,2610,268435456,181,0, 
1.4533,-395.1,-801.9,-282.3,456.3,252.0,-1244.7,934.8,-485.4,-15486.9,491.7,1172.1,942.3,-1481.1,-6315.9,-2677.8,25.2,-6.9,-5.7,-502.8,102.3,-0.6,508.5,-864.0,-1305.0,0,2616,268435456,182,0, 
1.4567,-394.2,-816.6,-309.0,435.3,225.0,-1206.3,933.0,-469.5,8002.8,467.7,1149.0,912.9,-1491.3,-6044.4,524.4,37.8,-6.9,-5.7,-530.4,86.4,-0.9,477.6,-362.4,-1233.6,0,2622,268435456,183,0, 
1.4600,-396.9,-865.2,-335.1,411.0,206.1,-1186.5,925.2,-476.1,33863.7,450.9,1127.7,899.1,-1496.1,-5895.0,9744.9,40.8,-6.6,-5.7,-536.7,71.4,-0.9,453.3,-45.3,-1193.4,0,2628,268435456,184,0, 
1.4633,-398.4,-844.2,-318.3,421.8,216.9,-1218.0,919.5,-488.7,25638.6,466.8,1143.3,912.0,-1517.7,-6060.0,9830.1,27.3,-7.2,-6.3,-532.2,75.6,-0.9,477.9,-374.1,-1245.6,0,2634,268435456,185,0, 
1.4667,-396.6,-819.0,-288.9,453.0,254.7,-1243.5,933.6,-489.0,-5409.3,497.1,1179.6,949.2,-1507.2,-6295.2,8111.4,21.6,-6.9,-6.3,-502.5,108.9,-0.3,507.9,-885.3,-1307.1,0,2640,268435456,186,0, 
1.4700,-390.6,-800.1,-287.4,454.5,252.0,-1248.6,934.5,-484.2,-16820.7,501.0,1173.9,943.5,-1480.8,-6282.9,-3410.7,25.2,-6.9,-5.7,-505.5,96.6,-0.6,506.1,-893.4,-1303.2,0,2646,268435456,187,0, 
1.4733,-393.6,-836.4,-319.2,426.3,219.0,-1205.1,933.0,-476.1,6891.3,465.0,1146.3,910.2,-1500.3,-6027.6,-322.8,41.1,-6.9,-5.4,-517.2,73.2,-0.6,477.0,-392.1,-1236.0,0,2652,268435456,188,0, 
1.4767,-395.1,-846.9,-334.2,408.9,197.4,-1194.3,922.8,-475.5,32826.3,445.5,1131.6,893.1,-1514.4,-5895.0,9537.0,39.9,-7.2,-6.3,-538.8,58.2,-0.6,458.4,-89.4,-1198.2,0,2658,268435456,189,0, 
1.4800,-395.1,-837.6,-324.6,414.0,214.8,-1218.6,920.1,-487.8,24527.1,460.8,1140.0,910.2,-1522.8,-6058.2,9830.1,30.3,-6.6,-6.0,-530.1,78.3,-0.6,477.6,-390.9,-1240.5,0,2664,268435456,190,0, 
1.4833,-387.6,-804.0,-286.8,449.1,254.4,-1249.8,930.9,-489.0,-6224.4,500.1,1172.7,948.0,-1505.7,-6286.5,7677.9,23.7,-6.6,-6.3,-499.2,114.3,-0.6,512.1,-878.1,-1306.8,0,2670,268435456,191,0, 
1.4867,-389.7,-807.9,-284.1,454.2,260.7,-1226.7,934.2,-483.0,-17265.3,496.8,1175.7,947.4,-1491.0,-6280.2,-4019.1,24.9,-6.6,-5.7,-500.7,111.9,-0.9,509.4,-903.0,-1304.7,0,2676,268435456,192,0, 
1.4900,-390.9,-828.3,-312.0,425.4,220.5,-1221.9,931.8,-478.5,6150.3,464.7,1142.1,913.5,-1493.4,-6037.8,-765.6,37.5,-6.9,-6.0,-531.0,74.7,-0.6,481.2,-399.9,-1235.7,0,2682,268435456,193,0, 
1.4933,-395.4,-855.6,-335.7,403.2,194.4,-1194.3,928.5,-480.3,31788.9,443.1,1120.5,886.5,-1523.1,-5895.0,9333.3,43.5,-6.9,-6.0,-547.8,51.6,-0.6,454.5,-71.1,-1198.5,0,2688,268435456,194,0, 
1.4967,-394.2,-837.6,-315.6,417.9,219.0,-1228.2,921.0,-493.5,23934.3,460.2,1150.2,915.3,-1531.5,-6067.2,9830.1,34.2,-6.9,-5.4,-523.2,79.8,-0.9,481.2,-377.7,-1243.8,0,2694,268435456,195,0, 
1.5000,-397.2,-815.7,-293.1,441.6,247.2,-1257.3,928.5,-503.7,-6743.1,494.1,1178.1,948.6,-1505.1,-6314.1,7308.0,26.7,-6.6,-5.7,-502.8,101.4,-1.2,515.7,-907.2,-1306.8,0,2700,268435456,196,0, 
1.5033,-393.3,-804.6,-285.6,450.6,255.0,-1248.3,938.4,-492.9,-18376.8,501.3,1175.7,951.0,-1493.4,-6310.8,-4686.9,28.2,-6.9,-5.7,-499.2,105.3,-0.9,511.5,-914.7,-1300.2,0,2706,268435456,197,0, 
1.5067,-398.4,-834.0,-318.6,424.8,222.0,-1205.4,942.0,-480.6,4742.4,464.1,1143.9,917.4,-1489.5,-6046.8,-1720.8,48.3,-6.6,-6.0,-530.7,78.0,-1.2,480.6,-387.3,-1231.5,0,2712,268435456,198,0, 
1.5100,-397.8,-847.2,-332.4,407.7,204.9,-1188.6,932.4,-476.7,30677.4,453.0,1133.7,900.3,-1496.7,-5911.2,8943.6,45.3,-7.2,-5.7,-543.9,61.8,-0.6,467.1,-67.5,-1197.3,0,2718,268435456,199,0, 
1.5133,-399.3,-834.6,-319.8,418.5,219.0,-1210.2,929.1,-485.7,22526.4,471.3,1149.3,912.6,-1504.5,-6095.7,9830.1,33.3,-6.9,-5.7,-528.3,72.0,-1.2,484.2,-390.0,-1234.8,0,2724,268435456,200,0, 
1.5167,-393.9,-806.7,-289.2,449.7,250.8,-1246.2,933.9,-491.7,-8299.2,504.6,1179.3,940.2,-1485.9,-6343.2,6537.9,20.1,-6.9,-6.0,-505.5,87.9,-0.9,512.7,-900.3,-1311.9,0,2730,268435456,201,0, 
1.5200,-388.8,-794.1,-288.9,455.1,255.3,-1245.3,939.6,-483.0,-19562.4,498.6,1173.9,950.4,-1478.1,-6336.6,-5793.3,34.2,-6.9,-5.4,-512.1,110.4,-0.6,513.3,-908.4,-1310.7,0,2736,268435456,202,0, 
1.5233,-392.4,-827.4,-316.8,426.6,224.1,-1207.8,937.5,-475.8,4149.6,465.3,1139.1,913.5,-1488.3,-6092.4,-2657.7,45.3,-7.2,-6.0,-539.1,80.1,-1.2,475.5,-395.7,-1243.8,0,2742,268435456,203,0, 
1.5267,-394.8,-847.8,-332.7,408.3,201.0,-1192.8,932.1,-477.0,29862.3,449.7,1127.7,894.0,-1506.0,-5955.9,8627.1,54.0,-6.9,-6.0,-548.4,59.4,-0.3,462.9,-75.9,-1200.3,0,2748,268435456,204,0, 
1.5300,-393.9,-831.6,-318.0,419.4,214.2,-1220.1,930.9,-485.1,22378.2,468.3,1147.8,911.7,-1525.8,-6143.4,9830.1,42.3,-7.2,-6.0,-535.8,71.1,-0.6,481.5,-394.2,-1250.4,0,2754,268435456,205,0, 
1.5333,-393.0,-802.2,-296.7,441.9,240.9,-1249.8,933.3,-493.5,-8373.3,492.0,1164.3,935.1,-1516.5,-6389.1,6312.0,35.4,-6.9,-5.7,-519.0,82.5,-0.6,508.8,-900.6,-1321.8,0,2760,268435456,206,0, 
1.5367,-393.0,-804.3,-284.7,449.4,249.9,-1248.3,942.0,-488.1,-19710.6,503.4,1173.9,942.6,-1506.0,-6389.7,-5991.3,40.5,-6.6,-5.7,-511.2,96.3,-0.6,512.1,-906.3,-1306.5,0,2766,268435456,207,0, 
1.5400,-396.0,-822.9,-319.2,419.1,216.0,-1209.9,936.3,-479.1,4001.4,466.8,1137.9,906.9,-1508.1,-6142.2,-2769.0,54.6,-6.6,-5.7,-539.4,68.1,-0.6,475.2,-402.6,-1246.5,0,2772,268435456,208,0, 
1.5433,-398.7,-845.4,-340.8,398.4,199.5,-1197.6,929.1,-481.8,30084.6,433.8,1120.8,885.0,-1520.4,-6000.3,8599.8,53.4,-6.9,-5.7,-568.2,63.6,-0.9,454.5,-87.6,-1206.0,0,2778,268435456,209,0, 
1.5467,-398.7,-837.6,-331.8,403.8,204.6,-1231.5,918.9,-497.7,22600.5,458.4,1133.4,894.3,-1534.5,-6165.6,9830.1,42.3,-7.2,-6.0,-552.3,54.3,-1.2,470.4,-385.5,-1260.9,0,2784,268435456,210,0, 
1.5500,-394.8,-810.3,-297.3,433.5,242.1,-1258.2,926.7,-502.8,-8076.9,483.0,1160.4,935.1,-1517.4,-6413.1,6356.7,35.1,-6.6,-5.7,-529.8,93.3,-0.6,494.7,-892.8,-1323.3,0,2790,268435456,211,0, 
1.5533,-395.1,-800.7,-294.0,443.1,245.1,-1254.6,932.7,-498.0,-19340.1,483.3,1166.4,936.3,-1497.9,-6401.1,-5861.4,36.6,-6.9,-5.7,-521.4,78.9,-0.6,505.8,-900.3,-1318.5,0,2796,268435456,212,0, 
1.5567,-399.9,-829.2,-321.3,417.3,216.9,-1212.3,931.5,-488.4,4446.0,457.2,1133.7,899.7,-1501.8,-6154.2,-2578.8,47.1,-6.9,-6.0,-547.2,70.5,-0.6,472.8,-403.8,-1249.5,0,2802,268435456,213,0, 
1.5600,-400.5,-851.4,-347.4,395.1,193.2,-1188.3,923.7,-488.4,30306.9,445.2,1123.8,879.6,-1522.8,-6011.1,8698.8,52.2,-6.9,-5.4,-549.6,42.6,-0.9,460.2,-77.1,-1200.3,0,2808,268435456,214,0, 
1.5633,-396.0,-819.3,-315.9,414.6,217.5,-1214.7,924.6,-489.6,22674.6,462.0,1142.4,906.6,-1529.4,-6167.4,9830.1,43.5,-7.5,-5.7,-540.3,72.6,-0.6,473.1,-356.4,-1248.6,0,2814,268435456,215,0, 
1.5667,-395.7,-799.2,-293.4,438.3,243.9,-1251.3,933.0,-499.8,-7780.5,489.0,1168.8,934.8,-1510.5,-6425.7,6553.5,39.9,-6.6,-5.7,-518.1,90.9,-0.6,500.1,-874.5,-1318.8,0,2820,268435456,216,0, 
1.5700,-397.8,-809.1,-293.4,443.4,252.0,-1248.9,941.7,-501.3,-18895.5,494.4,1167.9,944.7,-1483.2,-6414.0,-5574.0,42.3,-6.9,-5.7,-506.1,99.3,-0.3,507.0,-877.2,-1311.3,0,2826,268435456,217,0, 
1.5733,-400.2,-820.2,-315.3,421.8,221.1,-1208.4,938.7,-486.9,5112.9,464.4,1137.9,910.2,-1495.2,-6168.0,-2133.9,45.0,-6.9,-5.7,-533.7,69.6,-0.9,468.9,-399.9,-1246.2,0,2832,268435456,218,0, 
1.5767,-405.3,-842.4,-336.6,403.5,200.4,-1191.0,929.7,-486.3,31122.0,443.1,1127.1,891.0,-1517.4,-6019.2,8897.1,49.8,-6.6,-6.0,-549.0,54.9,-0.6,458.4,-72.9,-1212.3,0,2838,268435456,219,0, 
1.5800,-401.1,-828.9,-318.6,416.7,222.0,-1203.6,929.1,-494.1,23341.5,461.7,1143.9,911.4,-1529.1,-6188.1,9830.1,43.5,-6.9,-6.0,-534.9,74.4,-0.6,475.5,-377.7,-1244.1,0,2844,268435456,220,0, 
1.5833,-392.4,-795.0,-291.0,444.6,249.0,-1247.4,938.1,-501.0,-7113.6,499.8,1170.3,942.3,-1516.2,-6414.6,6900.3,34.5,-6.6,-5.7,-510.0,96.9,-1.2,506.4,-861.0,-1314.6,0,2850,268435456,221,0, 
1.5867,-393.6,-796.5,-288.6,446.7,253.5,-1237.8,939.9,-490.2,-18450.9,490.2,1165.5,938.7,-1500.0,-6396.9,-5146.2,40.5,-7.2,-5.7,-513.6,93.6,-1.2,495.0,-871.8,-1312.5,0,2856,268435456,222,0, 
1.5900,-401.1,-819.6,-318.0,420.9,219.3,-1211.1,935.1,-485.4,5705.7,454.5,1141.5,914.1,-1508.7,-6159.0,-1759.8,47.4,-6.3,-5.7,-533.7,68.1,-0.6,472.5,-399.3,-1248.0,0,2862,268435456,223,0, 
1.5933,-403.5,-841.2,-340.5,398.7,203.1,-1182.6,926.4,-485.1,31492.5,440.7,1121.1,892.2,-1521.6,-6015.6,9085.5,48.9,-7.2,-6.0,-552.3,69.9,0.0,447.9,-89.7,-1209.0,0,2868,268435456,224,0, 
1.5967,-404.7,-831.9,-326.4,410.1,214.8,-1218.0,919.2,-499.5,24156.6,455.4,1136.7,908.7,-1531.5,-6176.1,9830.1,42.0,-7.2,-6.0,-545.7,70.2,-0.6,459.6,-384.0,-1254.0,0,2874,268435456,225,0, 
1.6000,-400.8,-803.7,-302.7,431.7,240.0,-1264.8,923.4,-511.2,-6372.6,495.3,1163.4,937.2,-1505.1,-6405.0,7308.0,25.8,-6.6,-6.0,-518.7,90.3,-0.9,510.0,-877.5,-1316.4,0,2880,268435456,226,0, 
1.6033,-396.6,-795.9,-301.8,438.9,247.5,-1251.3,929.4,-506.1,-17561.7,490.8,1164.3,938.1,-1495.5,-6385.8,-4535.7,31.8,-6.9,-6.0,-520.8,92.4,-0.9,494.4,-892.2,-1318.2,0,2886,268435456,227,0, 
1.6067,-402.3,-822.6,-327.3,412.5,212.4,-1217.4,925.8,-496.2,6150.3,464.4,1140.9,905.1,-1498.8,-6138.3,-1213.2,40.2,-7.2,-5.7,-540.9,63.0,-0.6,465.3,-387.6,-1248.0,0,2892,268435456,228,0, 
1.6100,-406.8,-839.7,-351.9,393.9,199.5,-1196.4,916.5,-494.1,32233.5,443.4,1113.9,885.9,-1524.9,-5994.6,9240.3,38.4,-6.9,-6.0,-567.0,48.9,-0.6,447.3,-71.1,-1217.4,0,2898,268435456,229,0, 
1.6133,-406.2,-831.6,-328.5,408.6,212.7,-1224.9,917.7,-502.8,24527.1,465.6,1134.3,906.6,-1530.6,-6143.4,9830.1,37.8,-6.3,-6.0,-544.5,66.6,-0.6,470.4,-371.4,-1260.3,0,2904,268435456,230,0, 
1.6167,-400.8,-799.2,-302.1,433.8,237.9,-1255.8,923.4,-507.3,-6076.2,486.9,1163.1,932.7,-1513.5,-6371.7,7531.2,28.2,-6.6,-5.7,-513.6,82.2,-0.9,500.7,-855.6,-1322.7,0,2910,268435456,231,0, 
1.6200,-396.0,-794.1,-286.5,437.4,243.3,-1251.6,931.5,-500.1,-17339.4,484.2,1158.6,930.3,-1500.9,-6367.2,-4208.7,30.3,-6.9,-5.7,-519.3,87.0,-0.3,496.8,-877.2,-1319.4,0,2916,268435456,232,0, 
1.6233,-402.0,-822.3,-332.1,409.5,210.3,-1207.8,927.6,-496.5,6372.6,451.8,1118.1,896.1,-1503.0,-6113.4,-988.2,45.3,-6.9,-6.0,-557.7,62.1,-0.6,458.4,-372.9,-1254.9,0,2922,268435456,233,0, 
1.6267,-407.4,-847.8,-338.7,393.3,190.2,-1206.0,920.1,-494.7,32307.6,443.1,1122.0,888.0,-1518.9,-5967.0,9330.3,48.9,-6.9,-6.0,-551.1,57.3,-0.9,460.8,-58.5,-1211.1,0,2928,268435456,234,0, 
1.6300,-407.1,-830.4,-328.5,403.8,209.1,-1220.1,916.2,-507.6,24749.4,454.2,1130.7,901.5,-1537.5,-6121.2,9830.1,36.9,-6.9,-5.7,-536.4,64.8,-0.6,460.8,-365.1,-1253.4,0,2934,0,235,0, 
1.6333,-402.6,-800.4,-296.4,432.3,240.3,-1259.4,922.8,-514.5,-5928.0,486.6,1153.2,934.5,-1533.9,-6360.9,7679.4,29.1,-6.9,-6.0,-515.4,92.7,-0.6,498.3,-870.9,-1322.1,0,2940,268435456,236,0, 
1.6367,-397.2,-797.7,-294.3,437.1,240.9,-1249.5,928.8,-508.5,-17265.3,488.7,1158.6,931.5,-1508.4,-6343.8,-4035.6,33.0,-7.2,-6.0,-514.5,97.5,-0.6,493.5,-884.7,-1318.2,0,2946,268435456,237,0, 
1.6400,-400.5,-820.2,-318.3,421.5,219.3,-1205.4,930.6,-495.3,6298.5,462.6,1138.8,908.7,-1503.0,-6096.9,-888.9,49.2,-6.9,-5.7,-537.6,76.8,-0.9,476.1,-380.1,-1239.0,0,2952,268435456,238,0, 
1.6433,-404.4,-830.4,-340.5,398.7,198.0,-1199.7,918.9,-497.7,32307.6,439.8,1119.9,890.1,-1534.8,-5956.5,9352.8,49.5,-7.2,-6.0,-558.0,63.0,-0.6,448.2,-68.7,-1208.1,0,2958,268435456,239,0, 
1.6467,-401.7,-830.7,-325.2,411.3,218.1,-1203.3,921.0,-504.6,24897.6,449.4,1137.6,904.5,-1531.2,-6109.5,9830.1,42.3,-7.2,-6.0,-542.4,81.9,-0.6,473.1,-358.2,-1251.0,0,2964,268435456,240,0, 
1.6500,-401.7,-810.3,-299.7,429.3,235.5,-1259.7,920.7,-522.0,-5779.8,481.2,1161.6,928.5,-1507.8,-6349.8,7689.3,24.0,-6.6,-5.7,-522.3,87.0,-0.9,500.1,-860.4,-1319.1,0,2970,268435456,241,0, 
1.6533,-394.8,-788.4,-285.0,445.2,253.8,-1250.4,927.6,-507.9,-17117.1,489.0,1170.0,945.6,-1496.1,-6339.3,-4026.3,29.1,-6.3,-5.4,-510.6,108.9,-0.9,501.0,-885.6,-1312.5,0,2976,268435456,242,0, 
1.6567,-399.9,-827.7,-333.9,407.4,207.9,-1215.0,923.4,-504.0,6224.4,448.5,1110.0,894.3,-1506.6,-6092.4,-922.5,39.9,-6.9,-5.4,-564.6,59.1,-1.2,470.1,-383.7,-1251.9,0,2982,268435456,243,0, 
1.6600,-402.9,-849.3,-357.9,378.0,179.1,-1192.8,916.2,-504.9,32381.7,426.0,1065.0,853.2,-1543.2,-5950.2,9348.9,45.9,-7.2,-5.7,-615.0,39.0,-1.2,443.1,-70.5,-1211.1,0,2988,268435456,244,0, 
1.6633,-399.6,-822.3,-326.4,395.4,193.8,-1236.3,910.5,-519.9,24897.6,462.3,1115.7,881.1,-1537.5,-6096.6,9830.1,32.4,-7.5,-6.0,-547.8,49.2,-0.9,458.4,-372.6,-1264.2,0,2994,268435456,245,0, 
1.6667,-394.5,-789.3,-278.7,439.8,243.0,-1255.8,920.7,-525.0,-5853.9,504.3,1188.6,952.5,-1509.9,-6343.2,7710.0,26.4,-6.9,-5.7,-478.2,109.2,-0.6,506.7,-871.2,-1321.5,0,3000,268435456,246,0, 
1.6700,-393.6,-782.1,-274.8,449.4,251.1,-1250.1,926.4,-515.4,-17339.4,501.0,1191.0,954.6,-1498.8,-6334.2,-4006.8,30.9,-6.6,-6.0,-482.7,105.9,-0.6,507.3,-893.4,-1313.7,0,3006,268435456,247,0, 
1.6733,-401.4,-823.5,-307.5,423.0,222.3,-1212.0,921.6,-511.5,6002.1,465.3,1167.3,924.0,-1516.2,-6088.8,-962.1,39.3,-6.9,-5.7,-508.8,87.3,-0.9,477.9,-401.1,-1246.2,0,3012,268435456,248,0, 
1.6767,-398.4,-832.5,-332.7,402.9,198.6,-1190.4,918.6,-506.7,31714.8,447.6,1140.0,909.0,-1518.0,-5925.9,9302.1,45.6,-6.6,-6.0,-527.1,70.8,-0.9,467.1,-57.3,-1199.4,0,3018,268435456,249,0, 
1.6800,-400.2,-818.1,-307.8,416.4,217.8,-1214.7,912.9,-521.1,24601.2,463.5,1170.6,936.6,-1529.7,-6103.2,9830.1,34.2,-6.9,-5.4,-508.5,90.0,-0.9,477.3,-364.8,-1246.8,0,3024,268435456,250,0, 
1.6833,-396.3,-786.9,-281.1,443.7,248.7,-1251.0,920.4,-526.2,-5853.9,491.4,1199.4,963.9,-1523.7,-6348.6,7629.6,22.8,-7.2,-6.3,-475.5,112.5,-0.9,506.4,-888.3,-1316.7,0,3030,268435456,251,0, 
1.6867,-397.5,-788.7,-272.1,452.7,248.7,-1244.1,925.8,-521.4,-17561.7,494.1,1195.8,962.1,-1501.5,-6331.5,-4140.3,22.2,-6.9,-5.7,-477.3,104.7,-0.6,502.5,-908.7,-1319.7,0,3036,268435456,252,0, 
1.6900,-399.0,-819.3,-302.4,424.8,221.7,-1209.0,923.7,-509.7,6002.1,470.4,1170.9,936.3,-1506.3,-6078.3,-1115.4,36.3,-6.9,-5.7,-503.1,93.0,-0.6,470.4,-400.8,-1249.2,0,3042,268435456,253,0, 
1.6933,-401.7,-837.9,-319.8,404.4,195.6,-1205.1,912.0,-513.0,31788.9,451.5,1151.4,908.7,-1522.8,-5935.8,9266.4,37.2,-6.9,-6.0,-525.3,62.7,-0.6,454.2,-77.4,-1207.2,0,3048,268435456,254,0, 
1.6967,-403.8,-816.3,-310.8,419.1,216.6,-1215.6,910.2,-524.4,24304.8,465.0,1163.7,927.0,-1538.1,-6095.7,9830.1,27.0,-6.9,-5.7,-527.4,85.5,-0.6,470.4,-371.1,-1256.7,0,3054,268435456,255,0, 
1.7000,-399.9,-796.5,-286.2,440.7,241.8,-1253.1,915.3,-534.6,-6076.2,493.2,1181.7,946.2,-1513.8,-6341.1,7533.9,24.3,-6.6,-6.0,-509.7,95.4,-0.9,498.6,-887.7,-1329.9,0,3060,268435456,0,0, 
1.7033,-396.9,-788.1,-283.2,443.1,242.4,-1258.2,924.9,-526.8,-18080.4,492.0,1175.4,942.0,-1499.4,-6321.6,-4364.4,33.0,-7.2,-6.0,-517.8,99.6,-0.6,497.7,-884.1,-1318.8,0,3066,268435456,1,0, 
1.7067,-396.3,-818.7,-309.6,422.7,210.9,-1215.6,922.5,-515.1,5483.4,467.7,1152.9,917.7,-1493.4,-6066.9,-1371.3,44.1,-6.9,-5.7,-530.4,77.1,-0.6,474.9,-387.0,-1246.8,0,3072,268435456,2,0, 
1.7100,-402.0,-834.3,-331.5,402.3,194.1,-1196.1,918.3,-516.9,31714.8,439.2,1134.9,900.6,-1516.2,-5932.8,9184.5,48.6,-6.9,-6.3,-555.6,58.2,-0.6,453.3,-89.1,-1207.5,0,3078,268435456,3,0, 
1.7133,-400.5,-825.0,-320.7,413.7,211.2,-1214.7,917.7,-527.7,24378.9,464.1,1146.6,917.1,-1518.0,-6093.6,9830.1,36.9,-6.9,-6.0,-543.3,79.2,-0.6,469.2,-370.5,-1252.5,0,3084,268435456,4,0, 
1.7167,-400.5,-794.1,-285.6,442.8,243.3,-1250.1,920.1,-531.3,-6446.7,495.6,1181.1,948.3,-1513.2,-6334.5,7370.1,27.3,-6.6,-5.4,-516.3,99.0,-0.3,498.9,-867.9,-1320.0,0,3090,268435456,5,0, 
1.7200,-399.0,-789.6,-281.1,448.5,247.8,-1255.2,923.4,-525.3,-18080.4,503.7,1182.3,954.3,-1502.1,-6327.0,-4531.2,31.5,-6.6,-6.0,-511.2,113.4,-0.6,506.1,-881.7,-1313.7,0,3096,268435456,6,0, 
1.7233,-397.8,-796.5,-305.7,426.9,214.5,-1211.1,924.6,-513.3,5187.0,476.7,1154.7,916.5,-1492.5,-6076.5,-1521.3,48.9,-6.9,-6.3,-545.1,75.0,-0.3,465.6,-381.6,-1247.7,0,3102,268435456,7,0, 
1.7267,-402.6,-840.6,-333.0,404.1,195.3,-1197.9,917.7,-519.9,31270.2,465.6,1141.8,903.9,-1511.1,-5929.8,9092.7,54.3,-6.9,-5.7,-546.6,69.3,-0.9,448.8,-76.5,-1205.7,0,3108,268435456,8,0, 
1.7300,-401.4,-821.1,-316.8,415.5,202.5,-1230.3,914.4,-532.8,24008.4,478.5,1149.9,917.4,-1524.9,-6097.2,9830.1,42.3,-6.9,-6.0,-539.1,75.9,-0.9,465.6,-382.8,-1260.9,0,3114,268435456,9,0, 
1.7333,-396.0,-790.2,-286.5,441.6,237.9,-1262.4,918.9,-534.6,-6669.0,508.5,1175.1,943.5,-1510.8,-6333.6,7287.3,30.0,-6.6,-6.0,-518.1,94.8,-0.9,489.6,-892.2,-1328.1,0,3120,268435456,10,0, 
1.7367,-392.4,-784.2,-283.8,451.8,243.0,-1245.0,930.9,-524.1,-18154.5,508.8,1189.8,950.4,-1490.4,-6334.5,-4663.8,33.3,-6.9,-5.7,-516.6,101.7,-0.6,492.9,-910.2,-1320.6,0,3126,268435456,11,0, 
1.7400,-395.7,-809.7,-306.0,426.0,222.3,-1216.5,930.6,-514.8,5187.0,474.6,1161.0,927.6,-1503.6,-6099.6,-1616.4,42.3,-6.9,-5.7,-539.1,83.7,-0.6,476.1,-425.1,-1245.6,0,3132,268435456,12,0, 
1.7433,-395.4,-825.3,-326.1,406.2,194.7,-1197.6,922.8,-516.3,31270.2,448.5,1143.0,907.2,-1521.3,-5944.8,9057.6,47.1,-6.6,-6.0,-559.2,61.2,-0.6,452.7,-95.7,-1205.4,0,3138,268435456,13,0, 
1.7467,-405.6,-831.9,-312.0,418.2,213.9,-1214.1,922.2,-527.4,23860.2,466.2,1149.9,921.3,-1529.1,-6110.4,9830.1,42.3,-6.9,-5.4,-547.8,77.4,-0.3,480.9,-390.0,-1244.1,0,3144,268435456,14,0, 
1.7500,-397.5,-790.2,-285.9,448.2,246.3,-1256.4,926.1,-531.9,-6669.0,493.8,1177.5,950.1,-1522.2,-6356.7,7217.1,30.0,-6.9,-5.4,-517.8,103.2,-0.6,508.5,-895.2,-1321.5,0,3150,268435456,15,0, 
1.7533,-395.1,-787.5,-287.7,451.5,242.4,-1238.4,934.5,-524.4,-18525.0,493.2,1191.9,952.8,-1498.2,-6349.8,-4773.3,35.1,-6.6,-5.7,-507.3,107.4,-0.6,508.8,-921.9,-1320.3,0,3156,268435456,16,0, 
1.7567,-402.9,-809.7,-317.4,430.2,220.2,-1215.9,929.4,-517.8,4964.7,468.3,1159.2,934.5,-1493.7,-6105.3,-1841.7,40.8,-6.9,-6.0,-533.1,92.7,-0.6,483.9,-420.6,-1247.7,0,3162,268435456,17,0, 
1.7600,-408.6,-840.6,-337.2,407.1,196.8,-1197.0,919.2,-522.0,30825.6,449.4,1139.1,908.4,-1516.2,-5966.4,8953.5,42.6,-6.6,-5.7,-551.4,72.0,-0.6,458.1,-97.8,-1212.0,0,3168,268435456,18,0, 
1.7633,-407.4,-813.9,-324.3,417.3,213.3,-1222.2,918.6,-529.2,23637.9,462.6,1158.9,918.3,-1534.8,-6130.8,9830.1,30.0,-6.9,-5.7,-546.0,77.7,-1.2,468.6,-392.4,-1256.4,0,3174,268435456,19,0, 
1.7667,-405.9,-798.3,-294.6,442.8,237.0,-1264.8,919.5,-537.0,-7039.5,504.0,1186.5,952.5,-1518.6,-6373.2,6986.4,18.6,-6.3,-6.3,-518.7,109.2,-0.6,499.2,-889.8,-1324.8,0,3180,268435456,20,0, 
1.7700,-404.4,-787.5,-281.4,453.0,240.9,-1252.8,929.4,-523.5,-18969.6,495.6,1188.9,948.9,-1504.2,-6363.3,-5134.2,23.1,-6.9,-6.0,-516.9,102.3,-0.9,496.8,-907.8,-1320.9,0,3186,268435456,21,0, 
1.7733,-412.2,-816.6,-312.9,424.8,219.3,-1222.8,925.2,-518.1,4371.9,463.5,1163.7,927.6,-1497.0,-6123.9,-2223.9,33.3,-6.9,-5.7,-543.3,96.6,-0.9,472.8,-406.2,-1254.3,0,3192,268435456,22,0, 
1.7767,-410.4,-833.1,-333.0,406.5,192.3,-1202.1,916.5,-519.6,30381.0,437.4,1141.8,903.9,-1523.7,-5982.9,8784.6,39.9,-6.6,-6.0,-563.7,61.8,-0.9,449.7,-79.8,-1212.0,0,3198,268435456,23,0, 
1.7800,-414.0,-827.1,-326.1,409.2,208.8,-1226.7,909.6,-537.3,23193.3,449.7,1157.4,915.3,-1537.2,-6151.2,9830.1,28.2,-7.2,-6.3,-555.6,75.6,-0.3,464.7,-384.6,-1259.7,0,3204,268435456,24,0, 
1.7833,-408.3,-799.2,-294.6,436.5,241.2,-1255.2,920.1,-540.0,-7261.8,489.6,1185.6,949.2,-1517.7,-6383.7,6824.4,25.5,-6.9,-5.7,-534.9,104.7,-0.9,495.6,-889.5,-1318.2,0,3210,268435456,25,0, 
1.7867,-402.0,-794.1,-291.9,441.9,234.6,-1259.4,918.3,-537.6,-19117.8,488.7,1191.3,945.0,-1499.7,-6386.7,-5311.8,30.3,-7.2,-6.0,-531.9,92.7,-0.6,505.8,-911.4,-1325.7,0,3216,268435456,26,0, 
1.7900,-408.0,-818.1,-318.6,416.7,210.3,-1222.5,918.3,-529.8,4223.7,457.8,1159.8,920.1,-1501.2,-6141.6,-2425.5,42.0,-6.6,-6.0,-550.2,82.8,-0.6,462.3,-417.3,-1254.0,0,3222,268435456,27,0, 
1.7933,-412.2,-836.4,-336.0,399.6,196.2,-1193.7,914.1,-531.3,30306.9,438.9,1142.1,899.4,-1524.0,-6013.5,8701.5,41.1,-6.6,-5.7,-567.3,63.6,-0.6,442.2,-103.8,-1222.5,0,3228,268435456,28,0, 
1.7967,-411.0,-821.7,-319.5,409.8,204.6,-1224.3,905.4,-539.1,23193.3,467.1,1161.9,916.8,-1536.6,-6165.9,9830.1,30.0,-6.9,-6.3,-548.7,75.3,-0.6,467.1,-402.3,-1265.1,0,3234,268435456,29,0, 
1.8000,-406.2,-791.1,-296.4,436.5,238.2,-1258.8,913.2,-546.9,-7261.8,496.8,1179.0,945.3,-1517.7,-6400.2,6762.6,20.1,-7.2,-5.4,-527.7,100.8,-1.2,496.8,-887.4,-1331.4,0,3240,268435456,30,0, 
1.8033,-409.2,-789.9,-291.9,438.9,242.1,-1255.5,920.7,-542.4,-19191.9,488.4,1183.2,948.6,-1503.3,-6405.0,-5397.3,22.2,-6.6,-5.7,-520.5,105.0,-0.6,495.3,-911.4,-1323.9,0,3246,268435456,31,0, 
1.8067,-409.8,-816.0,-318.3,416.1,208.8,-1213.8,920.7,-533.4,4075.5,458.4,1154.4,915.3,-1511.1,-6150.9,-2520.3,37.5,-6.9,-5.4,-546.9,76.8,-0.3,474.9,-409.2,-1253.7,0,3252,268435456,32,0, 
1.8100,-415.5,-838.8,-340.5,388.8,186.3,-1206.6,910.5,-533.4,30084.6,438.3,1132.2,891.3,-1528.2,-6006.6,8657.1,39.9,-6.6,-5.7,-567.6,62.7,-0.6,442.2,-77.1,-1217.4,0,3258,268435456,33,0, 
1.8133,-415.8,-825.3,-326.1,407.1,204.9,-1231.8,908.1,-540.9,22971.0,467.7,1155.9,917.7,-1529.7,-6171.9,9830.1,33.0,-6.3,-5.7,-550.8,74.1,-0.9,472.8,-372.3,-1258.5,0,3264,268435456,34,0, 
1.8167,-409.2,-793.2,-298.5,435.6,238.8,-1263.0,918.9,-545.1,-7632.3,487.8,1188.0,952.8,-1513.2,-6408.6,6642.3,27.9,-6.9,-6.0,-519.6,101.4,-0.9,503.1,-866.7,-1321.5,0,3270,268435456,35,0, 
1.8200,-406.8,-775.8,-288.6,442.2,243.3,-1257.6,923.1,-538.8,-19562.4,487.8,1184.4,948.9,-1503.6,-6404.1,-5637.0,23.7,-6.6,-5.7,-524.7,108.9,-0.9,498.3,-887.4,-1324.5,0,3276,268435456,36,0, 
1.8233,-411.0,-823.5,-320.7,415.8,209.7,-1222.2,925.2,-534.0,3779.1,464.1,1167.0,922.8,-1497.9,-6160.8,-2760.0,36.0,-6.6,-5.7,-539.4,70.8,-0.6,465.3,-401.4,-1253.4,0,3282,268435456,37,0, 
1.8267,-413.7,-833.4,-333.9,402.0,195.6,-1200.3,916.8,-535.2,30010.5,436.8,1157.1,907.5,-1527.6,-6033.9,8581.2,38.7,-6.9,-6.0,-551.1,62.4,-0.6,452.4,-84.3,-1214.1,0,3288,268435456,38,0, 
1.8300,-414.3,-828.9,-334.8,402.9,204.3,-1230.0,913.8,-548.7,22822.8,454.8,1159.5,919.8,-1539.3,-6188.4,9830.1,36.3,-6.6,-5.7,-552.9,72.0,-0.9,466.8,-376.8,-1259.1,0,3294,268435456,39,0, 
1.8333,-410.4,-798.9,-305.4,429.3,231.6,-1264.5,915.9,-555.0,-7410.0,477.3,1184.7,947.4,-1519.8,-6438.6,6554.1,22.5,-6.3,-6.0,-528.6,93.6,-0.9,492.9,-890.1,-1329.9,0,3300,268435456,40,0, 
1.8367,-411.9,-799.2,-300.6,435.9,233.1,-1262.1,923.1,-547.2,-19562.4,488.7,1178.1,945.9,-1497.6,-6429.0,-5713.2,25.8,-6.9,-5.7,-531.3,96.0,-0.9,489.3,-899.1,-1323.0,0,3306,268435456,41,0, 
1.8400,-408.0,-810.6,-317.4,418.2,211.5,-1226.4,926.1,-534.9,3556.8,464.1,1170.0,924.3,-1494.0,-6188.1,-2910.9,36.3,-6.9,-6.3,-538.5,83.4,-0.9,466.8,-411.0,-1255.5,0,3312,268435456,42,0, 
1.8433,-412.5,-828.3,-339.6,399.0,191.7,-1204.2,918.6,-531.6,29565.9,445.2,1140.6,904.2,-1522.5,-6041.7,8466.3,40.8,-6.6,-5.4,-563.4,63.3,-0.9,447.3,-84.0,-1218.0,0,3318,268435456,43,0, 
1.8467,-412.2,-823.2,-321.0,409.5,208.8,-1220.7,917.1,-540.0,22452.3,458.4,1161.3,920.7,-1536.9,-6201.6,9830.1,31.2,-6.9,-5.7,-541.5,80.7,-0.9,458.4,-383.4,-1262.1,0,3324,268435456,44,0, 
1.8500,-412.2,-803.4,-295.2,435.3,232.5,-1255.8,922.8,-546.3,-7928.7,483.3,1190.1,951.9,-1523.1,-6453.9,6332.4,22.2,-7.2,-5.7,-515.1,102.0,-0.3,496.5,-885.6,-1323.9,0,3330,268435456,45,0, 
1.8533,-402.6,-778.8,-285.3,447.6,242.4,-1265.1,925.5,-539.4,-19932.9,487.2,1203.3,960.9,-1493.4,-6449.4,-5998.5,26.1,-6.6,-5.7,-506.7,114.0,-0.9,499.2,-909.6,-1328.4,0,3336,268435456,46,0, 
1.8567,-411.3,-814.2,-311.4,422.7,212.4,-1215.3,922.5,-527.7,3112.2,447.3,1165.5,932.1,-1496.4,-6190.5,-3252.3,40.2,-7.2,-5.4,-541.5,87.0,-0.6,461.1,-411.6,-1260.0,0,3342,268435456,47,0, 
1.8600,-414.3,-838.2,-335.7,404.4,194.4,-1201.5,913.8,-532.8,28973.1,437.7,1161.0,916.5,-1508.1,-6053.7,8267.4,46.8,-6.9,-5.7,-546.9,80.4,-0.9,438.0,-81.6,-1221.6,0,3348,268435456,48,0, 
1.8633,-411.9,-824.7,-315.9,422.7,223.2,-1204.8,913.2,-536.1,21859.5,454.2,1183.2,942.9,-1519.5,-6210.3,9830.1,37.8,-6.6,-5.7,-535.5,102.6,-0.6,456.9,-352.2,-1256.7,0,3354,268435456,49,0, 
1.8667,-406.5,-787.8,-285.6,447.6,248.1,-1267.5,917.1,-545.1,-8447.4,479.4,1214.4,981.6,-1515.3,-6464.4,5993.1,30.3,-6.6,-6.0,-514.8,124.8,-0.6,490.2,-853.8,-1323.6,0,3360,268435456,50,0, 
1.8700,-401.1,-785.1,-273.6,459.0,258.9,-1246.8,925.5,-534.0,-20303.4,492.0,1225.2,990.0,-1490.7,-6468.9,-6374.1,36.6,-6.9,-5.7,-494.1,128.4,-0.6,504.0,-893.4,-1314.6,0,3366,268435456,51,0, 
1.8733,-406.5,-808.2,-302.1,436.2,230.1,-1212.9,918.9,-527.1,2741.7,450.6,1196.1,962.7,-1497.0,-6235.5,-3567.9,45.6,-6.9,-5.7,-518.4,110.4,-0.3,459.3,-420.0,-1248.9,0,3372,268435456,52,0, 
1.8767,-405.0,-830.1,-316.2,414.6,205.2,-1194.0,911.7,-521.7,28602.6,437.1,1190.4,943.2,-1525.2,-6072.9,8117.4,52.5,-6.9,-5.7,-529.8,89.1,-0.9,447.6,-70.2,-1207.2,0,3378,268435456,53,0, 
1.8800,-411.9,-819.6,-306.3,427.8,222.0,-1222.8,905.1,-534.9,21785.4,448.8,1208.7,967.2,-1542.9,-6244.5,9830.1,38.4,-6.9,-5.7,-520.2,111.0,-0.6,461.1,-380.7,-1259.4,0,3384,268435456,54,0, 
1.8833,-402.3,-788.1,-278.7,455.7,250.5,-1256.1,919.5,-534.6,-8892.0,483.9,1234.5,997.5,-1520.4,-6487.5,5804.1,34.2,-6.9,-6.3,-500.4,132.9,-1.2,485.7,-891.3,-1318.8,0,3390,268435456,55,0, 
1.8867,-400.8,-782.4,-282.3,459.6,255.6,-1251.9,926.1,-531.3,-20822.1,478.8,1229.7,1000.5,-1499.1,-6476.4,-6728.4,35.4,-6.9,-6.0,-498.3,135.6,-0.9,478.2,-905.7,-1321.2,0,3396,268435456,56,0, 
1.8900,-399.0,-801.0,-281.7,451.8,239.7,-1212.9,923.7,-516.0,2148.9,463.5,1235.1,994.2,-1497.6,-6237.0,-4023.3,48.9,-6.9,-6.0,-485.4,125.4,-0.9,463.8,-416.1,-1247.1,0,3402,268435456,57,0, 
1.8933,-406.2,-825.9,-302.1,436.5,228.9,-1186.2,918.3,-514.8,28158.0,440.7,1241.1,994.5,-1521.9,-6109.8,7859.4,52.2,-6.9,-5.4,-490.2,117.3,-0.6,449.1,-89.1,-1197.9,0,3408,268435456,58,0, 
1.8967,-405.6,-816.0,-298.5,443.4,240.0,-1227.6,911.7,-528.6,21118.5,451.5,1246.2,1005.6,-1542.9,-6270.6,9830.1,42.6,-6.9,-6.3,-491.7,129.9,-0.6,453.3,-389.1,-1250.1,0,3414,268435456,59,0, 
1.9000,-402.6,-787.2,-262.8,472.2,267.0,-1253.1,918.3,-534.6,-9262.5,478.5,1275.6,1039.5,-1527.6,-6524.1,5451.0,31.8,-6.9,-5.7,-467.4,160.5,-0.6,482.7,-893.7,-1317.6,0,3420,268435456,60,0, 
1.9033,-399.0,-778.8,-254.4,483.0,274.8,-1251.6,925.2,-527.1,-21340.8,480.0,1287.0,1046.1,-1505.4,-6518.7,-7097.4,39.0,-6.9,-6.0,-446.1,162.6,-0.6,496.5,-927.3,-1313.7,0,3426,268435456,61,0, 
1.9067,-402.3,-802.5,-286.8,458.4,243.0,-1215.6,925.5,-518.1,1556.1,444.3,1263.6,1019.1,-1511.4,-6291.0,-4469.1,48.3,-6.9,-5.7,-470.1,139.2,-0.3,450.9,-453.9,-1246.5,0,3432,268435456,62,0, 
1.9100,-400.8,-805.2,-295.5,447.9,234.9,-1189.8,916.8,-509.1,27120.6,434.4,1253.1,1010.4,-1531.5,-6147.9,7542.6,46.5,-7.2,-5.7,-483.3,138.3,-0.9,432.9,-120.6,-1210.2,0,3438,268435456,63,0, 
1.9133,-402.6,-817.2,-285.0,452.1,242.4,-1217.7,917.7,-525.9,20081.1,453.0,1268.1,1025.1,-1535.4,-6315.0,9830.1,39.3,-6.9,-5.7,-464.4,143.7,-0.3,454.5,-412.8,-1255.8,0,3444,268435456,64,0, 
1.9167,-396.3,-779.7,-254.1,487.2,280.8,-1242.9,927.0,-527.4,-10818.6,486.3,1307.7,1063.2,-1516.8,-6561.6,4690.8,32.4,-6.6,-5.7,-430.5,174.6,-0.9,487.5,-915.6,-1310.7,0,3450,268435456,65,0, 
1.9200,-390.9,-771.0,-248.4,493.5,280.8,-1248.0,935.4,-522.6,-23341.5,480.3,1317.9,1071.6,-1492.5,-6563.1,-8294.1,39.0,-7.2,-5.7,-423.3,173.1,-0.9,488.4,-923.4,-1302.3,0,3456,268435456,66,0, 
1.9233,-396.6,-797.7,-264.9,477.6,264.6,-1193.7,933.0,-508.5,-963.3,452.7,1296.9,1048.2,-1506.0,-6337.8,-6009.0,46.2,-6.9,-5.7,-439.2,157.2,-0.6,458.4,-447.3,-1245.0,0,3462,268435456,67,0, 
1.9267,-398.7,-814.2,-283.8,458.4,243.9,-1189.2,928.8,-509.4,24527.1,435.3,1284.6,1034.7,-1528.2,-6220.2,6236.1,51.0,-6.6,-6.0,-454.2,145.8,-0.6,440.7,-143.1,-1200.6,0,3468,268435456,68,0, 
1.9300,-397.2,-803.4,-273.0,469.2,259.8,-1205.4,929.1,-516.0,16672.5,456.0,1294.8,1045.2,-1538.4,-6401.4,9830.1,42.0,-6.9,-5.7,-441.3,158.4,-0.9,460.2,-445.8,-1245.3,0,3474,268435456,69,0, 
1.9333,-391.5,-774.6,-238.8,495.6,285.6,-1245.9,933.3,-524.4,-14894.1,476.4,1323.0,1074.6,-1519.2,-6661.5,1715.1,34.5,-6.6,-6.0,-423.9,179.7,-0.9,486.6,-952.2,-1317.0,0,3480,268435456,70,0, 
1.9367,-393.3,-775.8,-237.9,502.8,291.0,-1248.0,939.6,-519.3,-27935.7,481.2,1334.1,1085.1,-1490.4,-6676.5,-9765.0,39.6,-6.9,-5.4,-408.3,186.0,-0.6,496.2,-963.9,-1312.8,0,3486,268435456,71,0, 
1.9400,-392.1,-787.2,-268.5,478.5,265.5,-1206.3,937.2,-504.3,-5335.2,448.5,1291.8,1048.5,-1499.7,-6471.6,-8513.7,48.0,-7.2,-5.7,-450.6,158.7,-0.6,463.5,-502.5,-1244.4,0,3492,268435456,72,0, 
1.9433,-400.2,-819.9,-285.0,460.2,246.9,-1181.4,929.7,-505.5,19710.6,430.2,1281.0,1034.7,-1515.6,-6357.3,2883.6,54.9,-6.9,-6.0,-462.6,149.4,-0.6,442.5,-166.8,-1201.5,0,3498,268435456,73,0, 
1.9467,-398.7,-801.0,-282.3,467.7,265.5,-1207.2,922.5,-518.4,12300.6,447.3,1293.9,1053.0,-1532.7,-6554.4,9260.1,43.5,-6.9,-6.3,-453.6,176.1,-0.9,449.7,-462.0,-1251.9,0,3504,268435456,74,0, 
1.9500,-397.2,-780.9,-254.7,490.8,287.1,-1242.3,927.0,-522.6,-18525.0,479.1,1318.5,1074.6,-1512.3,-6825.0,-1941.9,29.4,-6.6,-5.7,-430.5,180.0,-0.9,488.4,-966.9,-1320.6,0,3510,268435456,75,0, 
1.9533,-396.0,-774.6,-249.6,496.5,284.4,-1241.4,936.6,-516.0,-31344.3,479.1,1313.7,1074.6,-1492.2,-6863.4,-9830.1,32.4,-6.9,-6.3,-431.7,191.7,-0.9,483.3,-996.6,-1315.5,0,3516,268435456,76,0, 
1.9567,-396.0,-792.0,-270.6,478.8,268.5,-1200.3,934.2,-504.6,-9188.4,458.1,1293.3,1053.3,-1497.3,-6649.5,-9588.3,48.3,-6.9,-6.0,-453.0,173.4,-0.6,469.2,-498.9,-1243.5,0,3522,805306368,77,0, 
1.9600,-395.7,-813.9,-292.2,460.2,253.2,-1178.7,930.0,-505.8,16302.0,438.9,1266.9,1033.2,-1523.7,-6536.1,-263.7,49.2,-6.9,-5.4,-477.0,163.2,-0.9,446.7,-182.4,-1203.0,0,3528,805306368,78,0, 
1.9633,-402.3,-806.4,-286.5,460.2,251.7,-1213.8,921.0,-519.3,8817.9,450.9,1268.7,1038.6,-1530.9,-6733.2,6422.7,37.2,-7.2,-6.0,-479.7,155.1,-1.2,459.6,-475.8,-1249.2,0,3534,805306368,79,0, 
1.9667,-396.3,-783.6,-264.0,483.0,284.4,-1241.4,931.2,-521.1,-22007.7,475.5,1284.9,1059.0,-1523.4,-7019.7,-4579.5,30.0,-7.2,-5.7,-458.4,180.3,-1.2,487.5,-975.9,-1317.3,0,3540,805306368,80,0, 
1.9700,-396.9,-777.3,-258.9,484.8,280.5,-1247.7,937.5,-517.5,-34604.7,481.2,1286.7,1053.9,-1500.0,-7057.2,-9830.1,35.1,-7.2,-6.3,-459.0,177.9,-0.9,489.9,-1007.1,-1318.5,0,3546,805306368,81,0, 
1.9733,-395.1,-792.9,-278.1,465.9,259.8,-1206.0,934.2,-506.1,-12374.7,461.1,1263.6,1032.6,-1492.8,-6848.1,-9830.1,47.7,-7.2,-5.7,-476.1,158.4,-0.9,464.7,-525.9,-1247.7,0,3552,805306368,82,0, 
1.9767,-405.0,-827.1,-303.0,444.3,232.5,-1191.0,926.1,-507.3,13338.0,433.8,1242.6,1009.2,-1505.1,-6743.7,-2956.5,50.4,-6.9,-6.0,-493.8,136.2,-0.6,444.3,-198.6,-1210.8,0,3558,805306368,83,0, 
1.9800,-402.0,-805.8,-288.9,454.5,242.7,-1211.7,923.7,-516.0,5779.8,450.9,1260.3,1017.0,-1515.3,-6934.5,3803.4,45.0,-6.9,-6.0,-477.0,141.9,-0.9,466.2,-465.3,-1247.1,0,3564,805306368,84,0, 
1.9833,-397.5,-777.9,-258.0,486.9,276.0,-1243.5,931.5,-518.7,-24749.4,488.7,1286.1,1052.1,-1504.8,-7213.2,-6603.9,35.7,-6.9,-5.7,-453.9,176.7,-0.3,496.5,-961.2,-1313.4,0,3570,805306368,85,0, 
1.9867,-400.2,-775.2,-259.5,486.6,278.7,-1246.5,935.4,-513.9,-37346.4,484.5,1276.8,1047.9,-1489.5,-7262.4,-9830.1,36.6,-7.2,-5.7,-463.2,165.6,-0.6,499.2,-999.9,-1317.3,0,3576,805306368,86,0, 
1.9900,-400.5,-801.3,-282.6,464.4,256.2,-1200.0,936.6,-499.8,-15042.3,455.1,1246.2,1017.9,-1490.4,-7047.9,-9830.1,51.6,-6.9,-5.4,-489.0,151.5,-0.9,467.7,-509.4,-1241.1,0,3582,805306368,87,0, 
1.9933,-402.9,-819.6,-308.4,443.4,233.7,-1176.3,928.2,-499.5,10744.5,443.1,1222.8,997.2,-1518.9,-6951.0,-4944.0,54.9,-6.3,-6.0,-512.1,136.2,-0.6,453.3,-183.3,-1204.5,0,3588,805306368,88,0, 
1.9967,-399.3,-806.7,-292.5,453.0,245.4,-1226.1,924.9,-511.2,3927.3,461.4,1242.9,1014.0,-1536.0,-7134.0,1722.6,49.2,-7.2,-6.0,-496.5,153.0,-0.9,476.1,-483.3,-1250.1,0,3594,805306368,89,0, 
2.0000,-393.9,-783.0,-264.6,483.3,278.1,-1244.1,932.7,-511.8,-26601.9,491.4,1268.1,1040.7,-1515.3,-7419.6,-7756.8,39.3,-6.9,-6.0,-476.7,168.9,-1.2,511.8,-980.1,-1315.5,0,3600,805306368,90,0, 
2.0033,-392.7,-770.7,-258.3,482.7,276.3,-1253.1,939.0,-503.1,-39198.9,493.5,1264.8,1040.4,-1493.1,-7456.5,-9830.1,43.8,-7.2,-5.7,-480.6,170.7,-0.9,496.2,-1015.5,-1314.3,0,3606,805306368,91,0, 
2.0067,-394.2,-799.5,-285.3,460.2,249.6,-1207.8,937.5,-493.5,-16598.4,462.6,1240.2,1008.6,-1494.3,-7242.0,-9830.1,61.2,-7.2,-6.0,-503.4,151.5,-0.6,478.8,-506.4,-1242.6,0,3612,805306368,92,0, 
2.0100,-402.9,-826.5,-308.1,441.0,232.8,-1180.8,930.6,-495.3,9262.5,447.0,1215.9,992.1,-1508.4,-7135.8,-6063.9,58.8,-6.6,-6.0,-519.0,138.6,-1.2,459.0,-172.2,-1197.6,0,3618,805306368,93,0, 
2.0133,-397.8,-810.6,-299.1,447.9,249.0,-1206.3,930.0,-503.1,2297.1,464.1,1227.6,1002.6,-1513.8,-7332.3,90.6,51.9,-6.9,-5.7,-506.7,153.6,-0.9,470.7,-459.3,-1250.1,0,3624,805306368,94,0, 
2.0167,-396.6,-784.5,-266.7,475.8,271.5,-1237.8,939.6,-506.4,-28083.9,496.8,1255.8,1033.5,-1502.4,-7607.7,-8469.6,36.9,-6.9,-6.6,-478.8,163.5,-1.2,499.5,-980.7,-1311.3,0,3630,805306368,95,0, 
2.0200,-396.3,-777.6,-266.4,478.2,267.6,-1250.7,940.8,-498.0,-40532.7,496.8,1248.6,1030.5,-1484.7,-7641.9,-9811.5,37.2,-6.6,-5.7,-483.6,163.2,-0.3,516.3,-1008.3,-1310.7,0,3636,805306368,96,0, 
2.0233,-392.4,-800.4,-283.5,465.6,250.8,-1198.8,945.3,-478.2,-18302.7,471.6,1234.8,1007.1,-1474.5,-7422.3,-9830.1,54.3,-6.6,-6.0,-498.3,146.7,-1.2,479.1,-504.6,-1227.3,0,3642,805306368,97,0, 
2.0267,-397.8,-818.7,-310.2,443.7,228.0,-1183.2,936.6,-480.3,7558.2,440.4,1224.0,984.9,-1501.8,-7313.7,-7082.1,57.6,-7.2,-5.7,-514.2,131.7,-0.6,467.1,-171.9,-1205.4,0,3648,805306368,98,0, 
2.0300,-393.6,-797.1,-291.9,450.9,241.5,-1197.0,933.6,-487.2,889.2,454.5,1227.9,997.5,-1517.1,-7493.7,-1518.3,46.5,-6.3,-5.7,-514.8,135.6,-0.6,480.0,-453.3,-1242.3,0,3654,805306368,99,0, 
2.0333,-392.7,-783.3,-272.1,472.8,269.4,-1254.9,930.9,-498.6,-29269.5,488.7,1243.8,1028.1,-1501.2,-7780.2,-9027.9,33.0,-6.9,-5.4,-489.3,168.6,-0.6,506.7,-972.0,-1311.0,0,3660,805306368,100,0, 
2.0367,-390.9,-785.7,-266.7,475.5,275.1,-1237.5,943.2,-490.8,-41718.3,488.4,1245.0,1024.2,-1474.5,-7801.8,-9741.6,39.3,-7.2,-5.7,-487.2,162.6,-0.9,509.1,-987.9,-1305.0,0,3666,805306368,101,0, 
2.0400,-393.9,-800.1,-294.9,452.4,240.0,-1211.1,936.9,-481.8,-19191.9,456.9,1217.4,991.2,-1489.8,-7580.7,-9830.1,48.6,-6.9,-6.0,-519.3,132.9,-0.3,473.4,-494.1,-1239.0,0,3672,805306368,102,0, 
2.0433,-400.5,-828.6,-320.1,429.0,223.8,-1181.1,932.7,-482.1,6891.3,441.0,1194.0,966.3,-1511.1,-7465.8,-7575.6,51.9,-6.6,-6.0,-534.9,109.2,-0.9,451.5,-173.1,-1207.2,0,3678,805306368,103,0, 
2.0467,-400.2,-816.9,-304.2,436.2,231.6,-1219.8,928.5,-496.5,148.2,451.5,1203.6,982.5,-1534.5,-7658.1,-2397.3,44.1,-6.6,-5.7,-528.6,133.2,-0.9,466.8,-454.5,-1242.9,0,3684,805306368,104,0, 
2.0500,-396.6,-787.2,-277.2,463.2,258.9,-1247.7,935.1,-498.3,-30084.6,481.5,1229.4,1013.1,-1515.9,-7929.9,-9254.7,36.9,-7.2,-6.0,-504.3,150.6,-0.6,498.9,-948.9,-1313.7,0,3690,805306368,105,0, 
2.0533,-399.3,-781.8,-280.2,464.4,257.4,-1255.8,934.2,-498.6,-42311.1,474.3,1221.0,1001.7,-1500.0,-7966.5,-9716.1,34.8,-6.9,-5.7,-516.6,142.5,-0.6,501.3,-993.3,-1314.6,0,3696,805306368,106,0, 
2.0567,-401.7,-808.8,-303.6,444.9,229.2,-1212.9,937.5,-482.7,-19636.5,450.6,1202.1,972.9,-1498.5,-7747.8,-9830.1,50.1,-6.9,-5.7,-534.6,126.0,-0.6,464.1,-509.1,-1246.5,0,3702,805306368,107,0, 
2.0600,-400.5,-826.8,-324.0,417.3,205.5,-1191.6,927.9,-480.0,6372.6,428.1,1182.0,951.6,-1526.7,-7620.3,-7839.6,52.8,-6.9,-6.3,-548.1,96.3,-0.9,443.1,-185.7,-1209.9,0,3708,805306368,108,0, 
2.0633,-405.3,-816.0,-311.4,427.8,224.7,-1230.0,919.2,-492.6,-222.3,446.7,1195.5,966.9,-1530.6,-7794.9,-2925.9,37.5,-6.9,-5.7,-540.0,117.3,-0.6,462.9,-479.4,-1254.0,0,3714,805306368,109,0, 
2.0667,-405.0,-794.1,-285.0,450.9,250.5,-1254.3,927.9,-498.3,-30529.2,480.6,1219.2,994.5,-1516.5,-8066.1,-9372.0,30.6,-6.9,-5.7,-515.1,132.6,-0.3,491.7,-976.2,-1323.0,0,3720,805306368,110,0, 
2.0700,-403.8,-791.1,-286.2,454.8,255.3,-1254.3,931.8,-492.0,-42681.6,472.2,1223.1,996.9,-1497.6,-8081.1,-9709.5,32.7,-6.9,-5.4,-513.0,142.2,-0.6,502.2,-995.7,-1318.5,0,3726,805306368,111,0, 
2.0733,-405.0,-808.5,-303.6,435.0,228.9,-1215.6,929.4,-478.2,-20303.4,447.9,1197.3,976.2,-1496.7,-7848.9,-9830.1,42.9,-6.9,-5.7,-529.8,118.5,-0.6,468.9,-501.6,-1249.5,0,3732,805306368,112,0, 
2.0767,-411.3,-830.1,-325.8,412.5,207.9,-1189.2,918.9,-480.0,6150.3,430.2,1173.0,947.4,-1526.1,-7738.5,-8040.0,44.4,-6.6,-6.0,-544.2,96.0,-0.9,454.5,-174.9,-1205.4,0,3738,805306368,113,0, 
2.0800,-410.4,-819.3,-315.3,426.6,222.9,-1218.6,916.5,-488.4,-370.5,456.9,1187.1,969.0,-1535.7,-7907.4,-3248.4,32.1,-7.2,-6.0,-534.3,110.4,-0.6,461.1,-464.7,-1249.2,0,3744,805306368,114,0, 
2.0833,-403.5,-784.5,-275.1,457.8,258.3,-1250.4,926.7,-487.5,-30455.1,484.5,1229.4,1002.3,-1517.7,-8161.8,-9431.4,27.6,-6.9,-5.7,-493.8,147.3,-0.6,504.9,-943.8,-1306.8,0,3750,805306368,115,0, 
2.0867,-400.5,-778.2,-271.5,463.8,261.6,-1243.8,933.0,-483.6,-42533.4,494.4,1230.0,1001.7,-1492.2,-8172.3,-9698.4,31.8,-7.2,-5.7,-495.9,131.1,-0.6,498.6,-963.6,-1306.8,0,3756,805306368,116,0, 
2.0900,-400.2,-801.6,-291.0,446.1,239.4,-1189.5,936.0,-463.8,-19784.7,461.4,1205.1,977.4,-1501.2,-7940.7,-9830.1,42.0,-6.6,-6.3,-512.4,120.0,-0.6,475.2,-467.1,-1229.4,0,3762,805306368,117,0, 
2.0933,-403.8,-833.7,-319.8,417.9,209.7,-1192.8,921.9,-473.1,6669.0,442.8,1184.4,953.7,-1526.7,-7812.3,-7927.5,46.8,-6.6,-5.7,-535.5,96.9,-0.3,454.2,-150.9,-1201.2,0,3768,805306368,118,0, 
2.0967,-404.1,-809.4,-308.1,427.2,224.4,-1210.2,915.6,-482.4,592.8,457.8,1191.0,963.3,-1532.1,-7974.6,-2748.3,36.3,-6.6,-6.0,-533.1,113.4,-0.6,469.2,-425.4,-1247.4,0,3774,805306368,119,0, 
2.1000,-402.9,-790.5,-280.2,451.5,250.2,-1239.0,923.4,-488.7,-29121.3,487.8,1215.0,992.1,-1515.6,-8233.2,-9285.0,29.7,-7.2,-5.7,-511.5,137.7,-0.3,495.6,-929.4,-1307.7,0,3780,805306368,120,0, 
2.1033,-399.9,-784.5,-274.2,457.8,259.5,-1254.6,926.4,-484.2,-41125.5,495.9,1224.3,996.3,-1496.4,-8229.6,-9683.1,31.5,-7.2,-5.7,-499.8,144.0,-0.6,503.1,-951.9,-1298.7,0,3786,805306368,121,0, 
2.1067,-399.6,-807.9,-300.0,434.4,228.0,-1203.0,928.2,-474.0,-18154.5,462.3,1194.3,970.8,-1491.9,-7987.5,-9830.1,41.7,-7.5,-5.7,-525.0,122.7,-0.9,467.1,-456.0,-1231.5,0,3792,805306368,122,0, 
2.1100,-405.6,-828.6,-317.4,414.0,205.5,-1187.4,917.4,-477.6,8743.8,440.1,1172.4,944.1,-1508.4,-7850.7,-7224.9,42.9,-7.2,-5.7,-542.1,99.0,-1.2,446.7,-130.5,-1188.0,0,3798,805306368,123,0, 
