Time,P3,C3,F3,Fz,F4,C4,P4,Cz,CM,A1,Fp1,Fp2,T3,T5,O1,O2,X3,X2,F7,F8,X1,A2,T6,T4,Trigger,Time_Offset,ADC_Status,ADC_Sequence,Event,Comments
0.0033,74.1,-918.3,231.0,792.3,422.7,690.0,-446.4,246.0,1852.5,-1227.3,215.4,54.9,-1811.4,-2902.8,-1290.6,-162.6,-6.9,-6.0,-1059.0,-1721.1,-0.6,-531.6,-880.5,495.6,0,6,0,36,0, 
0.0067,71.1,-924.3,224.7,789.6,410.7,687.6,-443.4,238.8,1482.0,-1235.1,208.2,49.2,-1823.7,-2911.8,-1285.8,-155.4,-6.6,-6.0,-1068.3,-1731.0,-0.9,-536.4,-880.2,495.3,0,12,0,37,0, 
0.0100,76.2,-921.3,231.3,795.6,413.4,689.4,-443.1,246.0,1111.5,-1228.2,212.1,51.9,-1817.7,-2910.6,-1293.6,-154.5,-7.2,-6.0,-1057.5,-1726.5,-0.6,-528.9,-881.7,502.5,0,18,0,38,0, 
0.0133,76.8,-919.2,232.2,793.2,420.6,686.4,-448.5,248.7,1407.9,-1231.8,212.1,54.3,-1814.7,-2926.5,-1293.3,-160.2,-6.6,-5.7,-1060.8,-1725.3,-0.9,-539.7,-885.9,495.9,0,24,0,39,0, 
0.0167,73.5,-919.2,231.6,795.9,430.5,691.8,-441.6,250.2,1704.3,-1230.0,218.1,60.3,-1817.4,-2903.4,-1287.6,-165.3,-6.9,-5.1,-1058.4,-1721.7,-0.6,-525.3,-880.5,501.3,0,30,0,40,0, 
0.0200,79.8,-922.5,226.8,790.2,424.2,687.9,-445.2,249.0,1704.3,-1238.1,211.5,52.2,-1821.9,-2902.8,-1277.1,-169.8,-6.6,-5.7,-1065.9,-1727.7,-0.9,-532.2,-883.5,491.1,0,36,0,41,0, 
0.0233,80.1,-922.2,232.8,794.1,418.8,691.5,-440.1,251.1,1482.0,-1235.7,208.5,54.6,-1821.3,-2898.9,-1272.0,-172.2,-6.6,-5.7,-1061.4,-1724.4,-0.6,-530.1,-882.0,497.4,0,42,0,42,0, 
0.0267,79.5,-925.2,223.5,785.1,411.3,687.6,-438.6,248.4,1333.8,-1243.2,205.5,48.0,-1828.5,-2914.8,-1264.8,-164.4,-7.2,-6.0,-1072.8,-1734.6,-0.9,-543.0,-888.6,492.0,0,48,0,43,0, 
0.0300,80.7,-919.2,227.1,797.1,421.8,694.2,-436.2,259.5,1407.9,-1224.6,216.3,51.9,-1822.5,-2921.1,-1295.1,-165.9,-6.9,-6.0,-1056.6,-1728.6,-0.9,-525.3,-883.8,498.9,0,54,0,44,0, 
0.0333,85.2,-913.8,230.1,802.5,434.7,695.7,-439.8,258.3,1778.4,-1221.6,218.7,63.3,-1816.5,-2913.3,-1297.2,-168.0,-7.2,-5.7,-1051.8,-1717.8,-0.6,-513.9,-878.1,500.1,0,60,0,45,0, 
0.0367,78.9,-926.7,214.2,782.7,412.2,680.7,-444.9,247.8,1778.4,-1248.9,200.4,39.9,-1826.7,-2918.7,-1271.7,-161.1,-6.6,-6.3,-1070.4,-1739.7,-0.3,-546.0,-880.2,484.2,0,66,0,46,0, 
0.0400,75.9,-933.9,205.8,768.6,392.1,674.1,-451.2,237.6,1407.9,-1263.3,188.4,25.5,-1831.5,-2901.3,-1256.7,-158.7,-6.6,-5.7,-1084.8,-1753.5,-0.9,-557.7,-906.3,472.5,0,72,0,47,0, 
0.0433,74.4,-920.1,219.3,787.8,406.8,686.4,-442.2,249.3,1259.7,-1236.9,208.2,51.3,-1827.9,-2919.3,-1281.6,-169.8,-6.9,-5.7,-1062.0,-1732.8,-0.6,-533.1,-877.5,491.7,0,78,0,48,0, 
0.0467,73.8,-918.6,225.6,793.2,418.2,690.9,-445.8,253.5,1407.9,-1232.1,216.9,56.7,-1825.8,-2926.5,-1299.3,-167.1,-7.2,-6.0,-1055.7,-1727.4,-0.6,-533.4,-882.0,495.3,0,84,0,49,0, 
0.0500,66.9,-931.5,207.6,779.4,408.0,675.9,-458.1,241.5,1778.4,-1253.1,192.3,36.9,-1838.7,-2925.9,-1276.2,-172.8,-7.2,-6.0,-1074.9,-1748.4,-0.6,-555.9,-890.1,483.3,0,90,0,50,0, 
0.0533,81.0,-920.1,214.8,783.3,408.9,679.5,-447.9,249.6,1778.4,-1254.3,201.9,36.0,-1826.7,-2894.7,-1254.9,-172.2,-6.6,-5.7,-1075.2,-1749.9,-0.6,-556.2,-894.9,481.5,0,96,0,51,0, 
0.0567,76.2,-915.3,222.6,791.7,410.4,686.4,-452.1,255.0,1482.0,-1244.1,212.4,45.6,-1827.0,-2912.4,-1267.5,-183.0,-6.9,-6.0,-1062.9,-1740.9,-0.6,-550.5,-879.9,490.8,0,102,0,52,0, 
0.0600,75.6,-902.4,239.4,810.3,426.0,703.8,-442.5,266.7,1333.8,-1213.8,237.3,69.3,-1809.0,-2931.0,-1318.5,-174.9,-6.9,-6.3,-1035.0,-1715.4,-0.9,-518.7,-879.0,507.3,0,108,0,53,0, 
0.0633,73.5,-909.6,231.6,799.5,421.8,697.2,-441.0,258.0,1630.2,-1225.8,228.6,63.9,-1820.7,-2939.1,-1303.8,-168.9,-6.6,-6.0,-1044.9,-1719.9,-0.6,-525.9,-881.1,502.2,0,114,0,54,0, 
0.0667,80.7,-906.6,230.1,795.6,423.6,691.8,-449.1,259.8,1778.4,-1232.7,224.1,55.2,-1822.2,-2917.8,-1280.7,-168.6,-7.2,-5.7,-1053.9,-1727.1,-0.6,-530.4,-882.0,497.1,0,120,0,55,0, 
0.0700,78.0,-912.3,222.0,789.0,418.8,685.5,-449.4,254.1,1704.3,-1241.4,210.6,51.6,-1827.9,-2927.1,-1278.0,-160.2,-6.6,-6.3,-1058.4,-1731.0,-0.9,-528.6,-886.8,500.7,0,126,0,56,0, 
0.0733,86.1,-908.7,219.0,788.4,409.2,681.6,-437.4,255.6,1407.9,-1243.8,210.6,48.0,-1825.8,-2916.0,-1266.9,-161.7,-6.9,-6.0,-1064.4,-1739.4,-0.9,-546.9,-883.5,501.9,0,132,0,57,0, 
0.0767,85.2,-913.5,218.4,785.7,404.4,682.2,-445.8,255.0,1259.7,-1242.9,210.0,44.4,-1826.1,-2915.1,-1277.4,-165.6,-6.9,-5.7,-1068.0,-1740.3,-0.9,-548.4,-903.9,501.0,0,138,0,58,0, 
0.0800,83.1,-909.6,221.4,787.8,414.9,686.1,-449.1,254.1,1407.9,-1239.9,216.0,48.0,-1827.9,-2917.8,-1283.1,-188.7,-6.6,-6.0,-1063.5,-1736.4,-0.3,-539.7,-893.1,508.5,0,144,0,59,0, 
0.0833,78.3,-919.8,204.6,774.9,404.1,671.1,-453.6,244.2,1704.3,-1257.9,186.9,25.2,-1840.2,-2912.4,-1264.8,-184.8,-6.9,-6.0,-1086.0,-1758.9,-0.6,-567.6,-912.0,493.8,0,150,0,60,0, 
0.0867,75.3,-921.0,203.4,772.5,398.7,664.5,-456.3,240.9,1704.3,-1264.5,185.1,23.7,-1842.0,-2915.1,-1272.0,-181.2,-6.6,-6.0,-1092.0,-1756.5,-0.6,-571.5,-902.7,494.1,0,156,0,61,0, 
0.0900,79.2,-904.2,222.9,790.5,411.9,681.0,-441.6,254.1,1556.1,-1246.8,203.7,45.3,-1831.8,-2931.3,-1290.0,-172.8,-6.6,-6.0,-1071.9,-1734.6,-0.3,-549.9,-889.8,509.4,0,162,0,62,0, 
0.0933,84.0,-905.7,219.3,788.7,403.2,678.9,-446.7,255.3,1185.6,-1257.3,203.7,38.1,-1829.7,-2925.6,-1273.2,-159.6,-6.9,-5.7,-1073.7,-1740.9,-0.6,-554.1,-892.2,508.2,0,168,0,63,0, 
0.0967,83.4,-903.6,219.3,793.8,414.0,680.4,-434.7,257.4,1333.8,-1254.3,200.1,43.5,-1837.2,-2932.5,-1278.3,-152.7,-6.3,-6.0,-1077.6,-1736.7,-0.6,-544.8,-890.4,514.8,0,174,0,64,0, 
0.1000,82.8,-900.9,225.0,796.5,423.9,681.0,-438.0,261.6,1778.4,-1246.2,210.3,54.6,-1835.4,-2920.2,-1276.2,-175.8,-6.9,-5.7,-1074.0,-1728.9,-0.6,-543.0,-890.1,517.2,0,180,0,65,0, 
0.1033,85.2,-903.9,222.0,792.3,420.9,672.3,-442.5,257.1,1778.4,-1248.9,211.5,45.9,-1832.4,-2918.7,-1275.6,-185.4,-7.2,-6.0,-1072.5,-1731.9,-0.9,-549.3,-893.7,513.9,0,186,0,66,0, 
0.1067,83.4,-907.8,218.4,792.0,411.3,665.7,-442.8,255.3,1482.0,-1253.1,205.8,43.8,-1825.8,-2924.7,-1270.2,-180.3,-6.9,-6.0,-1076.1,-1735.2,-0.6,-547.2,-894.6,511.8,0,192,0,67,0, 
0.1100,80.4,-901.5,227.7,804.6,421.2,679.5,-430.8,267.0,1333.8,-1240.2,208.5,59.1,-1830.0,-2939.7,-1290.9,-172.5,-6.9,-5.7,-1066.8,-1721.4,-0.6,-533.1,-867.9,523.5,0,198,0,68,0, 
0.1133,88.5,-895.8,234.3,810.6,430.5,678.6,-431.7,270.3,1407.9,-1240.8,223.2,61.2,-1824.3,-2932.2,-1290.0,-160.5,-7.2,-6.0,-1060.2,-1721.4,-0.9,-536.4,-882.9,525.0,0,204,0,69,0, 
0.1167,84.0,-894.3,227.1,809.7,431.7,669.3,-432.6,267.6,1778.4,-1240.2,218.7,54.6,-1819.8,-2927.4,-1281.9,-158.7,-6.9,-6.0,-1066.8,-1724.1,-0.6,-543.3,-879.6,522.3,0,210,0,70,0, 
0.1200,83.4,-895.5,231.3,809.7,433.8,674.1,-429.9,265.5,1778.4,-1243.8,213.9,56.4,-1817.4,-2940.0,-1284.0,-165.0,-6.9,-6.0,-1069.8,-1722.3,-0.6,-539.4,-877.8,524.4,0,216,0,71,0, 
0.1233,75.3,-904.8,224.4,804.9,423.3,663.3,-433.5,262.2,1556.1,-1244.4,217.5,54.0,-1836.6,-2932.8,-1281.3,-159.9,-6.9,-6.0,-1065.3,-1725.3,-0.6,-537.6,-880.8,521.7,0,222,0,72,0, 
0.1267,78.9,-908.1,219.6,804.9,416.7,664.5,-437.4,257.1,1259.7,-1253.4,212.4,49.2,-1837.5,-2924.7,-1270.2,-165.3,-6.9,-6.0,-1072.5,-1731.9,-0.6,-545.1,-866.4,527.4,0,228,0,73,0, 
0.1300,84.6,-900.9,223.8,810.6,427.5,660.6,-436.5,257.7,1482.0,-1246.5,216.0,54.9,-1828.2,-2911.8,-1251.0,-161.4,-6.9,-6.0,-1068.0,-1725.9,-0.9,-544.2,-885.6,524.7,0,234,0,74,0, 
0.1333,72.9,-907.2,219.9,804.3,432.0,657.3,-441.6,258.0,1778.4,-1254.9,213.9,54.3,-1834.8,-2928.9,-1277.4,-160.8,-6.9,-6.0,-1070.7,-1726.8,-0.9,-547.5,-879.0,520.2,0,240,0,75,0, 
0.1367,72.0,-903.6,219.0,807.6,436.2,666.6,-438.0,261.3,1778.4,-1247.7,217.2,60.9,-1834.2,-2938.2,-1282.5,-165.6,-6.9,-6.0,-1063.8,-1723.2,-0.6,-544.8,-873.6,526.8,0,246,0,76,0, 
0.1400,73.8,-900.9,227.1,808.8,428.1,663.9,-435.0,259.8,1556.1,-1240.5,215.1,53.7,-1832.7,-2938.8,-1277.1,-161.4,-6.6,-5.7,-1062.9,-1726.2,-0.9,-543.9,-876.6,528.0,0,252,0,77,0, 
0.1433,80.1,-895.5,226.8,807.0,423.0,663.6,-437.1,262.8,1333.8,-1236.0,214.2,61.5,-1822.2,-2924.7,-1277.4,-158.7,-6.6,-6.0,-1060.5,-1720.8,-0.3,-541.2,-873.9,532.2,0,258,0,78,0, 
0.1467,75.9,-900.6,213.9,798.0,422.1,649.2,-438.6,257.7,1333.8,-1250.1,198.9,43.5,-1831.8,-2931.3,-1290.3,-172.8,-6.3,-6.3,-1077.6,-1744.2,-0.6,-549.3,-873.0,521.7,0,264,0,79,0, 
0.1500,81.6,-897.3,216.9,801.0,428.7,655.2,-432.6,264.3,1778.4,-1249.5,196.8,39.0,-1826.4,-2923.5,-1294.2,-169.8,-6.3,-6.0,-1085.4,-1746.3,-0.9,-547.8,-871.8,525.6,0,270,0,80,0, 
0.1533,75.3,-906.9,207.3,788.4,415.2,637.2,-436.8,247.5,1778.4,-1264.5,183.6,18.3,-1836.0,-2921.4,-1272.9,-167.7,-7.2,-6.3,-1098.0,-1757.4,-0.9,-555.9,-888.0,513.6,0,276,0,81,0, 
0.1567,76.8,-899.7,216.0,795.6,412.2,640.2,-445.2,253.8,1482.0,-1239.6,210.6,36.9,-1823.7,-2922.6,-1266.6,-165.3,-6.6,-6.0,-1060.2,-1743.3,-0.9,-537.9,-884.4,518.1,0,282,0,82,0, 
0.1600,80.1,-889.2,235.2,805.5,419.4,647.1,-435.9,261.3,1333.8,-1215.0,227.1,57.3,-1809.6,-2910.3,-1272.3,-161.1,-7.2,-5.7,-1035.6,-1724.4,-0.6,-512.1,-874.5,528.9,0,288,0,83,0, 
0.1633,81.3,-893.7,227.1,803.1,419.4,650.1,-435.3,259.8,1482.0,-1212.3,200.1,36.6,-1814.4,-2908.2,-1278.6,-161.1,-6.6,-5.7,-1050.3,-1743.0,-0.9,-500.4,-868.8,531.0,0,294,0,84,0, 
0.1667,79.8,-892.5,223.5,800.7,427.2,643.5,-438.0,263.1,1556.1,-1218.0,186.6,30.3,-1810.2,-2908.2,-1276.5,-159.9,-6.9,-6.0,-1063.2,-1745.7,-0.3,-505.2,-866.7,529.8,0,300,0,85,0, 
0.1700,76.2,-893.7,220.2,794.1,422.4,638.7,-446.1,256.2,1778.4,-1212.0,185.4,24.3,-1812.6,-2914.5,-1278.6,-162.3,-6.9,-5.7,-1065.6,-1755.3,-0.9,-509.1,-874.5,525.0,0,306,0,86,0, 
0.1733,80.7,-898.5,217.2,785.4,406.2,627.6,-450.3,248.4,1482.0,-1220.7,176.4,9.3,-1818.0,-2907.3,-1257.9,-160.5,-6.6,-6.3,-1076.7,-1770.0,-0.9,-515.4,-883.5,520.5,0,312,0,87,0, 
0.1767,84.0,-897.3,217.5,789.9,405.6,641.7,-450.6,250.5,1333.8,-1219.5,172.8,10.8,-1814.7,-2906.1,-1251.9,-150.6,-6.9,-6.3,-1076.7,-1765.8,-0.6,-504.0,-874.8,525.0,0,318,0,88,0, 
0.1800,78.6,-902.7,210.6,781.8,402.9,638.7,-449.7,248.1,1482.0,-1227.3,168.3,0.3,-1824.0,-2906.4,-1272.3,-139.8,-6.9,-6.0,-1082.7,-1775.1,-0.3,-529.5,-874.8,517.8,0,324,0,89,0, 
0.1833,82.2,-897.0,213.9,787.5,411.9,645.6,-445.5,256.2,1852.5,-1218.3,163.2,0.6,-1806.6,-2899.8,-1260.9,-152.7,-7.2,-6.0,-1083.3,-1775.7,-0.9,-528.9,-875.1,517.2,0,330,0,90,0, 
0.1867,74.7,-906.3,200.7,773.7,399.9,637.2,-453.9,244.2,1778.4,-1229.4,155.4,-5.7,-1821.0,-2910.6,-1250.1,-145.2,-7.2,-6.0,-1092.0,-1783.5,-0.6,-530.1,-882.9,511.5,0,336,0,91,0, 
0.1900,75.3,-908.1,196.2,771.0,389.1,642.3,-451.2,246.6,1482.0,-1235.1,146.7,-9.0,-1826.7,-2896.2,-1245.6,-128.1,-7.2,-5.7,-1098.3,-1784.7,-0.6,-536.7,-885.3,512.4,0,342,0,92,0, 
0.1933,87.6,-884.4,230.7,803.1,417.0,679.2,-432.6,266.4,1185.6,-1186.8,188.1,21.6,-1798.5,-2925.0,-1303.8,-163.5,-6.6,-6.3,-1059.6,-1753.5,-0.6,-489.9,-853.5,543.9,0,348,0,93,0, 
0.1967,80.4,-883.8,230.4,801.3,420.9,677.7,-434.1,263.4,1333.8,-1187.1,187.5,23.7,-1802.1,-2915.7,-1293.0,-177.6,-6.9,-5.7,-1057.5,-1746.9,-1.2,-487.2,-863.1,543.0,0,354,0,94,0, 
0.2000,80.7,-891.6,219.6,792.0,417.6,669.3,-438.3,262.2,1704.3,-1199.7,177.9,12.0,-1812.9,-2916.6,-1278.0,-155.1,-6.9,-6.3,-1071.3,-1762.5,-0.6,-510.0,-875.4,525.0,0,360,0,95,0, 
0.2033,85.8,-890.1,217.2,792.6,414.3,667.5,-439.8,261.3,1926.6,-1201.2,175.2,10.8,-1811.1,-2922.0,-1279.5,-158.1,-6.9,-5.7,-1071.9,-1761.6,-0.6,-512.1,-868.5,524.4,0,366,0,96,0, 
0.2067,85.2,-887.1,223.2,798.3,417.9,681.6,-435.6,261.6,1556.1,-1197.0,190.2,20.7,-1807.8,-2919.3,-1279.2,-156.6,-7.2,-5.7,-1060.8,-1753.8,0.0,-499.2,-866.7,535.5,0,372,0,97,0, 
0.2100,90.6,-879.6,224.1,797.1,414.0,677.4,-443.7,262.8,1259.7,-1197.0,190.5,21.0,-1801.2,-2914.5,-1263.9,-158.4,-6.9,-5.7,-1062.9,-1754.1,-0.9,-498.9,-872.4,533.7,0,378,0,98,0, 
0.2133,89.1,-882.0,217.8,794.1,416.1,676.8,-443.7,262.5,1333.8,-1203.0,184.2,9.3,-1800.9,-2901.6,-1263.3,-159.3,-6.9,-5.7,-1068.0,-1762.2,-0.6,-509.1,-864.9,530.1,0,384,0,99,0, 
0.2167,86.1,-885.3,216.3,788.4,412.8,675.6,-442.2,260.1,1630.2,-1214.7,172.2,4.5,-1813.5,-2900.1,-1247.7,-141.9,-6.9,-5.7,-1078.5,-1769.1,-0.9,-521.7,-869.7,524.7,0,390,0,100,0, 
0.2200,83.7,-892.5,204.9,779.7,407.1,674.1,-438.3,253.2,1778.4,-1223.4,170.1,-2.7,-1824.0,-2907.9,-1257.9,-137.7,-6.9,-5.4,-1085.4,-1778.4,-0.6,-528.6,-871.8,518.7,0,396,0,101,0, 
0.2233,88.5,-885.0,218.7,792.3,403.8,682.2,-445.2,256.2,1333.8,-1211.4,177.0,3.9,-1815.9,-2904.3,-1258.2,-154.5,-6.9,-5.7,-1075.5,-1770.9,-0.6,-516.9,-878.1,525.0,0,402,0,102,0, 
0.2267,90.9,-876.3,224.7,796.8,413.4,690.6,-440.7,267.9,1259.7,-1198.2,183.9,16.2,-1807.8,-2907.6,-1270.8,-148.2,-7.2,-6.3,-1066.5,-1755.0,-0.6,-504.9,-871.5,532.8,0,408,0,103,0, 
0.2300,84.9,-881.4,217.2,789.9,411.3,677.1,-450.0,259.8,1259.7,-1204.2,170.4,4.2,-1803.6,-2914.2,-1265.4,-151.8,-6.9,-6.0,-1078.8,-1770.0,-0.9,-519.0,-881.4,520.2,0,414,0,104,0, 
0.2333,89.7,-880.2,220.2,800.4,428.7,692.4,-435.9,269.4,1704.3,-1198.8,176.7,12.6,-1809.3,-2905.8,-1276.2,-161.1,-6.9,-5.7,-1070.7,-1758.9,-0.6,-504.9,-858.9,537.6,0,420,0,105,0, 
0.2367,91.5,-880.5,219.6,797.7,425.1,687.3,-438.0,266.1,1704.3,-1204.2,181.5,8.1,-1812.9,-2898.0,-1261.8,-152.7,-6.9,-6.0,-1070.7,-1767.0,-0.3,-515.4,-869.1,524.7,0,426,0,106,0, 
0.2400,88.5,-886.2,215.1,792.0,410.7,682.2,-450.0,258.0,1482.0,-1210.8,169.5,-2.1,-1818.6,-2915.7,-1265.4,-164.4,-6.6,-6.3,-1080.3,-1773.0,-0.3,-520.2,-888.3,518.7,0,432,0,107,0, 
0.2433,90.9,-882.3,220.2,796.8,414.0,689.7,-444.9,264.6,1259.7,-1203.9,177.6,5.4,-1807.5,-2893.2,-1248.9,-156.3,-6.6,-6.0,-1067.1,-1761.6,-0.6,-509.1,-874.8,528.0,0,438,0,108,0, 
0.2467,86.7,-886.2,207.6,786.3,411.0,680.7,-449.7,252.3,1333.8,-1211.7,163.2,-0.6,-1813.8,-2900.7,-1259.4,-163.5,-6.6,-6.0,-1080.9,-1770.6,-0.6,-514.8,-888.9,516.3,0,444,0,109,0, 
0.2500,80.7,-887.7,204.6,784.8,412.5,678.3,-458.1,257.1,1778.4,-1212.6,159.0,-7.2,-1812.3,-2919.6,-1277.1,-167.4,-6.9,-6.3,-1083.9,-1781.1,-0.6,-528.9,-882.0,511.8,0,450,0,110,0, 
0.2533,73.2,-902.4,190.8,769.5,396.6,668.1,-466.5,242.7,1778.4,-1229.4,143.4,-21.3,-1824.6,-2922.9,-1269.0,-155.4,-6.9,-5.7,-1097.1,-1793.7,-0.6,-542.7,-894.6,499.5,0,456,0,111,0, 
0.2567,89.7,-886.8,206.7,786.3,399.9,680.1,-450.9,255.6,1482.0,-1214.7,163.5,-3.3,-1810.5,-2901.9,-1261.5,-163.5,-6.6,-5.7,-1084.5,-1775.7,-0.3,-527.1,-873.3,515.1,0,462,0,112,0, 
0.2600,82.2,-891.3,195.9,779.4,389.4,670.2,-462.9,250.8,1259.7,-1221.0,153.3,-12.3,-1818.0,-2893.2,-1262.4,-180.0,-6.9,-6.0,-1090.8,-1785.3,-0.3,-528.6,-900.6,507.3,0,468,0,113,0, 
0.2633,78.3,-898.5,192.3,769.2,382.2,657.9,-467.4,243.3,1407.9,-1231.5,143.4,-25.8,-1827.3,-2896.5,-1254.9,-179.1,-6.9,-6.0,-1101.6,-1799.7,-0.3,-544.2,-903.9,492.3,0,474,0,114,0, 
0.2667,73.2,-897.3,184.5,766.2,387.0,655.8,-468.9,238.2,1704.3,-1228.5,140.7,-23.4,-1831.2,-2899.8,-1270.5,-170.7,-7.2,-6.0,-1101.0,-1798.5,-0.6,-541.2,-909.3,489.6,0,480,0,115,0, 
0.2700,80.4,-894.3,193.2,770.7,391.5,664.2,-459.9,240.9,1704.3,-1226.1,150.9,-19.8,-1827.6,-2888.1,-1257.6,-162.9,-6.9,-6.0,-1094.7,-1797.3,-0.9,-536.7,-891.9,497.7,0,486,0,116,0, 
0.2733,86.1,-891.6,194.7,769.2,386.4,664.5,-461.1,240.0,1407.9,-1227.0,149.7,-19.5,-1824.9,-2883.6,-1233.6,-156.3,-7.2,-6.0,-1096.2,-1792.8,0.0,-541.2,-902.1,497.1,0,492,0,117,0, 
0.2767,83.4,-884.1,204.0,786.0,400.2,680.1,-458.1,252.6,1185.6,-1205.7,160.5,-1.5,-1817.4,-2900.7,-1273.2,-160.5,-6.6,-5.7,-1082.7,-1774.2,0.0,-513.3,-888.6,514.8,0,498,0,118,0, 
0.2800,85.8,-881.7,202.5,788.7,405.0,680.7,-455.7,250.8,1259.7,-1213.8,156.0,-2.4,-1813.2,-2888.4,-1263.9,-162.6,-6.9,-6.0,-1085.4,-1773.6,-0.6,-514.2,-887.4,514.8,0,504,0,119,0, 
0.2833,82.8,-888.6,198.6,780.0,402.9,675.0,-455.1,243.6,1778.4,-1224.0,159.0,-8.7,-1820.7,-2891.1,-1254.3,-152.1,-6.9,-5.7,-1089.6,-1782.9,-0.3,-527.7,-888.6,505.2,0,510,0,120,0, 
0.2867,81.0,-888.9,197.7,781.5,401.7,678.0,-454.5,242.7,1704.3,-1222.8,149.7,-18.0,-1819.8,-2889.9,-1263.9,-135.0,-6.9,-5.7,-1092.3,-1786.2,-0.6,-531.3,-875.4,511.5,0,516,0,121,0, 
0.2900,88.8,-875.4,213.6,793.8,411.3,692.4,-441.3,256.8,1482.0,-1200.9,162.6,0.6,-1805.4,-2889.9,-1275.6,-160.2,-7.2,-5.7,-1076.4,-1771.2,-0.3,-508.5,-866.7,525.3,0,522,0,122,0, 
0.2933,88.2,-867.0,221.1,807.0,416.4,697.2,-445.2,264.6,1185.6,-1195.2,173.7,9.0,-1800.6,-2900.4,-1276.2,-166.5,-6.6,-5.7,-1064.4,-1763.4,-0.9,-509.1,-870.3,527.4,0,528,0,123,0, 
0.2967,81.3,-879.9,202.5,793.8,412.2,687.6,-451.8,255.9,1407.9,-1208.7,169.2,3.0,-1815.9,-2900.7,-1283.1,-158.7,-7.2,-5.7,-1074.6,-1767.9,-0.9,-520.5,-885.6,514.5,0,534,0,124,0, 
0.3000,84.6,-881.7,201.3,790.8,413.4,684.3,-450.9,254.4,1852.5,-1209.9,168.0,-2.1,-1817.1,-2881.8,-1260.3,-165.3,-7.2,-5.7,-1079.4,-1771.2,-0.9,-519.9,-884.4,517.8,0,540,0,125,0, 
0.3033,85.5,-882.6,199.8,789.6,410.4,687.3,-441.3,256.2,1704.3,-1210.5,165.6,-3.3,-1812.0,-2889.3,-1268.1,-161.4,-7.2,-5.7,-1079.4,-1773.9,-0.9,-522.9,-870.6,518.1,0,546,0,126,0, 
0.3067,81.9,-888.9,192.0,782.1,396.9,682.2,-451.2,252.3,1407.9,-1217.1,159.9,-9.0,-1821.6,-2908.8,-1270.5,-156.6,-7.5,-5.7,-1088.1,-1776.9,-0.9,-531.0,-874.8,514.2,0,552,0,127,0, 
0.3100,80.7,-889.2,194.7,784.8,394.5,687.0,-448.8,257.4,1185.6,-1214.1,160.5,-3.3,-1823.1,-2903.7,-1266.6,-144.0,-6.9,-5.7,-1084.5,-1776.3,-0.6,-524.1,-888.0,515.4,0,558,0,128,0, 
0.3133,87.0,-878.7,210.3,801.3,415.2,695.4,-440.1,266.1,1259.7,-1194.0,177.3,6.6,-1816.2,-2902.8,-1284.0,-170.1,-6.6,-6.0,-1066.2,-1768.5,-0.9,-507.3,-879.0,526.5,0,564,0,129,0, 
0.3167,90.3,-875.7,217.5,802.5,422.7,702.3,-436.8,272.1,1704.3,-1190.1,182.4,12.3,-1813.2,-2914.2,-1279.5,-164.4,-7.2,-6.0,-1065.3,-1762.5,-0.9,-502.2,-868.2,531.6,0,570,0,130,0, 
0.3200,86.4,-891.0,198.9,787.5,405.3,687.3,-447.6,256.2,1852.5,-1211.7,160.2,-6.6,-1821.9,-2893.8,-1258.2,-162.9,-7.2,-6.0,-1086.3,-1780.8,-0.9,-524.7,-891.3,509.4,0,576,0,131,0, 
0.3233,84.9,-891.6,199.8,785.1,398.1,687.0,-452.1,257.1,1556.1,-1216.5,162.9,-9.9,-1823.7,-2905.2,-1260.3,-155.7,-6.9,-5.4,-1084.8,-1783.2,0.0,-527.1,-886.5,509.4,0,582,0,132,0, 
0.3267,84.3,-885.6,209.1,797.7,402.3,693.0,-447.3,269.4,1111.5,-1197.6,177.0,2.7,-1815.3,-2904.6,-1288.5,-155.4,-7.2,-6.3,-1070.7,-1769.4,-0.9,-513.6,-882.0,514.8,0,588,0,133,0, 
0.3300,85.2,-888.0,207.0,791.4,407.4,692.4,-450.0,270.9,1333.8,-1199.1,166.5,-2.4,-1810.5,-2898.3,-1268.7,-153.6,-7.2,-5.4,-1078.2,-1774.2,-0.9,-514.8,-884.4,510.6,0,594,0,134,0, 
0.3333,81.6,-892.8,200.7,794.1,413.4,697.2,-448.8,265.2,1704.3,-1202.1,167.1,-1.5,-1821.9,-2914.2,-1279.5,-156.3,-6.9,-6.0,-1077.6,-1771.2,-0.9,-508.8,-875.1,519.0,0,600,0,135,0, 
0.3367,85.5,-887.1,213.9,799.8,417.9,698.4,-443.1,272.1,1778.4,-1196.4,177.3,6.3,-1810.5,-2891.7,-1263.3,-143.1,-6.9,-5.7,-1076.4,-1762.2,-0.3,-501.9,-861.9,524.7,0,606,0,136,0, 
0.3400,79.5,-896.4,199.5,785.7,396.6,684.6,-452.4,255.3,1333.8,-1208.4,167.1,-3.9,-1817.1,-2902.2,-1266.6,-157.2,-7.2,-6.3,-1081.5,-1775.7,-0.6,-519.6,-881.1,509.4,0,612,0,137,0, 
0.3433,79.8,-897.6,194.1,779.4,390.9,685.2,-452.4,254.7,1185.6,-1213.5,155.4,-1.5,-1815.0,-2899.5,-1265.7,-164.7,-6.9,-5.7,-1085.1,-1773.3,-0.9,-518.7,-876.9,506.1,0,618,0,138,0, 
0.3467,89.4,-894.0,195.6,784.2,402.0,694.2,-442.8,266.7,1259.7,-1216.5,153.0,-8.1,-1805.4,-2891.1,-1264.8,-152.1,-6.9,-6.0,-1099.5,-1779.3,-0.6,-513.3,-871.8,513.9,0,624,0,139,0, 
0.3500,81.0,-915.0,169.2,756.0,379.2,670.8,-461.7,243.6,1778.4,-1252.2,110.1,-61.8,-1824.6,-2907.6,-1261.2,-166.8,-6.9,-5.7,-1135.2,-1834.8,-0.6,-556.5,-894.3,483.6,0,630,0,140,0, 
0.3533,78.6,-906.3,187.8,765.3,390.6,676.8,-456.6,249.3,1778.4,-1222.8,149.1,-33.0,-1811.7,-2911.5,-1272.6,-157.5,-7.2,-6.3,-1085.7,-1811.4,-0.6,-535.5,-883.2,497.7,0,636,0,141,0, 
0.3567,87.3,-898.2,209.4,783.9,405.3,693.6,-444.6,251.4,1482.0,-1196.7,180.9,4.2,-1806.6,-2913.9,-1274.1,-160.2,-7.5,-6.0,-1048.2,-1779.9,-0.6,-511.2,-874.2,514.2,0,642,0,142,0, 
0.3600,96.0,-889.5,222.9,795.3,413.7,696.3,-443.7,259.5,1259.7,-1181.7,216.3,27.9,-1794.6,-2895.6,-1266.9,-164.4,-6.9,-5.7,-1020.9,-1765.8,-0.6,-502.5,-885.6,510.9,0,648,0,143,0, 
0.3633,98.7,-894.9,222.0,789.3,408.3,689.4,-441.3,258.9,1333.8,-1193.1,209.7,12.3,-1793.7,-2882.4,-1254.6,-162.3,-6.6,-6.0,-1029.9,-1786.8,-0.9,-504.6,-881.7,508.5,0,654,0,144,0, 
0.3667,93.6,-905.4,207.0,774.6,396.0,672.9,-455.1,248.4,1704.3,-1211.1,192.9,-9.0,-1802.4,-2889.3,-1245.6,-171.3,-7.2,-6.0,-1041.6,-1816.2,-0.6,-541.8,-891.3,493.2,0,660,0,145,0, 
0.3700,90.9,-905.4,211.2,773.4,394.2,671.4,-451.5,244.8,1630.2,-1212.6,200.1,-5.1,-1800.9,-2890.2,-1242.6,-157.8,-6.9,-6.3,-1032.3,-1818.9,-0.6,-534.6,-888.3,496.8,0,666,0,146,0, 
0.3733,85.8,-905.4,219.0,784.2,395.7,685.5,-445.8,251.4,1333.8,-1191.6,213.6,5.4,-1800.0,-2909.4,-1278.3,-152.7,-6.6,-5.7,-1014.9,-1818.0,-0.9,-523.8,-876.6,509.1,0,672,0,147,0, 
0.3767,97.2,-899.4,226.8,783.6,392.4,683.7,-451.2,248.7,1259.7,-1192.2,225.9,14.4,-1790.1,-2882.4,-1259.1,-180.9,-6.6,-5.7,-1002.0,-1813.8,-0.6,-521.1,-873.3,504.0,0,678,0,148,0, 
0.3800,107.7,-901.5,212.4,774.0,387.6,677.1,-457.2,246.9,1407.9,-1205.1,201.3,-1.2,-1788.3,-2853.6,-1222.5,-192.9,-6.9,-5.7,-1024.5,-1832.1,-0.3,-535.5,-886.2,496.5,0,684,0,149,0, 
0.3833,102.3,-900.6,222.9,784.2,405.3,682.2,-446.4,252.9,1630.2,-1190.1,213.3,2.4,-1787.7,-2866.8,-1264.5,-176.4,-6.6,-6.0,-1013.7,-1827.9,-0.9,-527.4,-898.5,496.8,0,690,0,150,0, 
0.3867,93.3,-902.7,231.6,789.3,415.5,694.5,-442.5,256.8,1704.3,-1179.9,221.1,14.1,-1790.7,-2914.8,-1295.4,-159.9,-6.9,-6.0,-1004.1,-1815.3,-0.6,-517.5,-869.4,510.6,0,696,0,151,0, 
0.3900,87.3,-911.7,219.0,779.4,399.0,683.1,-453.9,248.1,1407.9,-1195.5,208.8,9.3,-1798.5,-2914.2,-1288.8,-182.1,-6.6,-5.4,-1014.0,-1824.0,-0.6,-525.0,-887.4,499.5,0,702,0,152,0, 
0.3933,94.2,-909.6,215.7,779.7,394.2,681.0,-461.1,248.4,1185.6,-1199.7,195.9,-8.1,-1796.1,-2901.9,-1277.7,-191.1,-6.9,-5.7,-1020.6,-1839.0,-0.3,-526.8,-893.1,498.0,0,708,0,153,0, 
0.3967,96.6,-910.2,206.1,777.9,397.5,675.6,-460.8,252.6,1407.9,-1203.0,196.2,-5.7,-1794.3,-2897.4,-1273.8,-205.2,-6.9,-6.0,-1020.9,-1837.2,-0.9,-535.8,-894.0,495.9,0,714,0,154,0, 
0.4000,93.3,-912.0,210.9,777.3,403.5,674.1,-461.1,247.5,1704.3,-1208.1,190.8,-8.7,-1795.2,-2897.1,-1257.9,-192.9,-7.2,-6.0,-1025.4,-1845.9,-0.6,-542.4,-882.6,497.7,0,720,0,155,0, 
0.4033,88.2,-911.7,219.3,783.9,409.2,677.1,-461.1,248.1,1704.3,-1197.0,204.9,2.1,-1796.4,-2910.9,-1284.3,-190.8,-6.9,-6.0,-1015.2,-1831.5,-1.2,-525.0,-890.1,500.1,0,726,0,156,0, 
0.4067,89.7,-913.8,215.4,778.5,394.8,672.9,-469.8,242.1,1482.0,-1203.9,195.3,-5.4,-1789.5,-2899.8,-1274.7,-197.7,-6.9,-5.7,-1017.0,-1837.5,-0.3,-534.0,-892.2,495.6,0,732,0,157,0, 
0.4100,91.8,-909.0,223.8,785.4,400.5,679.8,-459.9,249.0,1259.7,-1189.2,207.9,6.0,-1781.7,-2886.6,-1277.4,-181.8,-6.6,-5.7,-1007.7,-1828.2,-0.6,-520.2,-883.8,502.8,0,738,0,158,0, 
0.4133,93.3,-911.1,214.8,777.3,395.7,672.6,-460.5,247.2,1333.8,-1198.5,208.5,-3.3,-1785.3,-2886.0,-1260.6,-180.3,-6.9,-6.3,-1012.5,-1835.1,-0.6,-530.4,-879.9,497.1,0,744,0,159,0, 
0.4167,96.3,-905.1,223.5,787.2,414.6,682.8,-449.4,255.6,1778.4,-1188.0,216.3,8.7,-1774.2,-2887.2,-1270.5,-189.9,-6.9,-6.0,-1003.2,-1827.3,-0.6,-516.6,-874.8,506.4,0,750,0,160,0, 
0.4200,95.4,-904.8,227.4,789.3,418.8,685.2,-450.6,256.8,1778.4,-1184.1,219.6,9.6,-1772.7,-2886.6,-1272.9,-177.0,-6.6,-5.4,-997.8,-1826.1,-0.6,-515.7,-870.6,506.1,0,756,0,161,0, 
0.4233,96.6,-907.2,231.0,791.1,411.6,687.3,-452.7,255.3,1482.0,-1185.6,220.8,15.6,-1776.0,-2887.5,-1270.5,-180.3,-7.2,-6.0,-999.9,-1820.1,-0.6,-512.4,-880.5,505.5,0,762,0,162,0, 
0.4267,98.4,-909.9,228.6,786.6,402.9,683.7,-453.9,253.8,1111.5,-1194.3,219.9,9.0,-1785.0,-2887.2,-1261.5,-179.7,-6.9,-6.0,-1002.0,-1826.7,-0.6,-518.1,-885.9,503.4,0,768,0,163,0, 
0.4300,95.4,-911.4,225.3,782.7,410.7,687.0,-458.1,251.7,1333.8,-1194.0,215.1,13.2,-1789.8,-2885.1,-1265.4,-185.7,-6.9,-6.0,-1003.8,-1824.9,-0.9,-519.6,-884.7,504.6,0,774,0,164,0, 
0.4333,90.0,-919.8,217.2,779.1,409.2,676.8,-459.6,244.8,1630.2,-1203.3,210.9,7.8,-1789.2,-2892.6,-1256.4,-176.1,-6.9,-6.3,-1009.2,-1833.9,-0.9,-527.7,-891.0,495.3,0,780,0,165,0, 
0.4367,94.8,-919.5,220.2,777.0,412.5,677.1,-461.7,243.6,1778.4,-1200.6,211.5,1.5,-1787.7,-2874.3,-1252.5,-184.8,-6.6,-6.0,-1008.3,-1838.7,-0.6,-534.9,-892.2,495.6,0,786,0,166,0, 
0.4400,99.0,-905.7,232.2,790.8,417.0,690.6,-447.3,256.2,1482.0,-1189.2,222.9,14.1,-1774.8,-2880.0,-1261.5,-189.9,-6.3,-5.4,-997.5,-1825.2,-0.6,-513.0,-876.6,506.1,0,792,0,167,0, 
0.4433,103.2,-904.5,228.6,789.9,407.1,693.3,-456.3,254.1,1259.7,-1189.8,218.4,14.4,-1770.3,-2895.6,-1253.1,-181.5,-6.6,-6.0,-996.6,-1821.0,-0.3,-516.0,-882.6,504.0,0,798,0,168,0, 
0.4467,94.2,-907.8,222.9,782.7,409.2,687.6,-456.0,254.4,1407.9,-1198.2,212.7,7.5,-1777.2,-2899.5,-1269.9,-181.8,-6.3,-5.7,-1003.5,-1827.6,-0.9,-515.1,-885.3,498.3,0,804,0,169,0, 
0.4500,94.8,-916.5,214.2,774.0,407.7,684.3,-450.9,249.3,1556.1,-1205.1,200.1,-5.7,-1798.8,-2900.7,-1262.4,-182.7,-6.9,-5.7,-1012.5,-1836.3,-0.6,-528.3,-879.0,495.9,0,810,0,170,0, 
0.4533,92.7,-912.9,216.0,775.8,408.0,685.5,-448.2,252.0,1926.6,-1199.7,210.9,-0.3,-1791.0,-2901.3,-1269.9,-186.0,-6.6,-5.7,-1008.0,-1836.0,-0.3,-522.6,-879.0,501.6,0,816,0,171,0, 
0.4567,87.3,-915.3,216.6,774.6,401.7,684.3,-449.4,247.5,1407.9,-1203.0,205.8,-3.3,-1796.7,-2903.1,-1274.4,-176.4,-6.3,-5.7,-1012.5,-1838.1,-0.9,-527.4,-876.9,502.5,0,822,0,172,0, 
0.4600,85.8,-919.8,202.2,764.7,393.0,678.0,-459.9,245.7,1185.6,-1210.8,190.8,-10.5,-1797.9,-2902.2,-1274.4,-197.7,-6.9,-6.0,-1019.1,-1842.0,-0.9,-532.8,-891.3,490.5,0,828,0,173,0, 
0.4633,87.0,-922.2,205.5,763.2,393.0,669.6,-459.6,239.7,1333.8,-1213.5,190.8,-12.9,-1796.7,-2903.7,-1262.1,-197.4,-6.6,-6.0,-1021.5,-1843.2,-0.6,-541.2,-903.3,486.3,0,834,0,174,0, 
0.4667,82.8,-919.5,211.5,766.2,408.6,675.6,-455.7,246.0,1778.4,-1205.7,204.3,0.0,-1800.6,-2912.4,-1276.2,-190.2,-6.9,-5.7,-1013.7,-1831.8,-0.9,-522.3,-901.5,495.6,0,840,0,175,0, 
0.4700,79.2,-924.6,202.2,762.9,399.9,671.7,-450.3,242.1,1778.4,-1218.3,195.6,-13.5,-1812.0,-2915.7,-1264.2,-175.5,-7.2,-6.0,-1020.3,-1842.9,-0.9,-541.5,-891.3,489.0,0,846,0,176,0, 
0.4733,87.3,-922.2,204.3,762.0,393.0,675.9,-450.6,245.7,1482.0,-1221.3,199.5,-11.4,-1806.3,-2899.8,-1248.6,-171.0,-7.2,-6.6,-1023.6,-1845.9,-0.6,-543.9,-894.0,486.9,0,852,0,177,0, 
0.4767,96.9,-914.7,207.3,766.5,389.7,673.2,-453.9,242.4,1111.5,-1220.7,196.2,-13.5,-1799.1,-2889.6,-1245.6,-184.5,-6.9,-5.7,-1024.8,-1846.2,-0.6,-540.9,-893.4,488.4,0,858,0,178,0, 
0.4800,99.3,-902.7,225.3,781.2,407.7,693.0,-442.2,257.1,1259.7,-1193.1,219.0,4.2,-1783.5,-2897.1,-1279.5,-192.9,-6.9,-6.0,-999.6,-1828.5,-0.6,-522.6,-881.7,502.8,0,864,0,179,0, 
0.4833,95.4,-910.5,216.0,774.3,409.5,690.9,-438.6,251.7,1704.3,-1201.8,211.5,-2.1,-1791.6,-2905.8,-1286.4,-179.1,-6.9,-5.4,-1007.7,-1837.5,-0.3,-522.9,-880.8,499.8,0,870,0,180,0, 
0.4867,92.7,-917.1,207.0,764.1,396.9,680.4,-440.7,242.1,1778.4,-1214.1,196.2,-12.6,-1800.6,-2905.2,-1256.1,-171.0,-6.9,-6.0,-1020.6,-1848.0,-0.9,-534.6,-886.5,491.4,0,876,0,181,0, 
0.4900,93.9,-915.6,207.9,768.9,393.3,681.3,-451.8,245.4,1482.0,-1202.7,197.1,-6.9,-1795.2,-2895.3,-1258.5,-182.1,-6.9,-5.7,-1018.5,-1843.2,-0.6,-531.6,-882.0,496.5,0,882,0,182,0, 
0.4933,92.7,-913.8,210.0,767.1,389.4,688.2,-444.0,247.5,1185.6,-1201.2,207.0,0.3,-1792.2,-2902.2,-1264.2,-170.4,-7.2,-6.3,-1012.5,-1832.1,-0.6,-519.0,-885.6,503.7,0,888,0,183,0, 
0.4967,87.3,-913.5,210.6,770.1,399.6,687.0,-444.3,249.0,1333.8,-1195.8,214.5,3.0,-1796.1,-2921.7,-1296.9,-165.9,-6.3,-5.4,-1006.5,-1830.3,-1.2,-521.1,-868.2,505.5,0,894,0,184,0, 
0.5000,88.5,-918.3,205.5,764.4,400.5,683.7,-442.5,242.4,1778.4,-1199.7,212.7,-6.0,-1795.5,-2910.9,-1288.5,-164.7,-6.9,-6.0,-1008.3,-1835.1,-0.9,-531.9,-872.4,498.6,0,900,0,185,0, 
0.5033,95.1,-912.6,211.2,767.1,406.5,687.3,-442.5,244.5,1704.3,-1198.2,216.3,2.7,-1788.9,-2898.6,-1274.1,-179.1,-6.6,-6.0,-1007.1,-1827.6,-0.9,-524.4,-886.5,498.6,0,906,0,186,0, 
0.5067,93.6,-912.0,212.4,765.9,395.1,687.3,-443.4,243.9,1407.9,-1201.2,210.9,-0.6,-1797.0,-2898.9,-1272.3,-174.6,-6.9,-6.0,-1012.5,-1833.3,-0.6,-521.4,-885.0,495.9,0,912,0,187,0, 
0.5100,91.2,-915.3,207.0,766.8,390.3,681.6,-447.0,243.6,963.3,-1203.6,205.8,2.4,-1800.3,-2907.9,-1272.3,-181.8,-6.6,-5.7,-1012.5,-1834.5,-0.6,-531.6,-886.2,495.9,0,918,0,188,0, 
0.5133,93.9,-912.0,204.9,761.1,396.3,674.7,-453.0,242.1,1333.8,-1209.3,201.3,-1.8,-1793.7,-2896.5,-1257.6,-174.0,-6.6,-6.0,-1014.6,-1836.0,-0.3,-542.7,-887.4,492.6,0,924,0,189,0, 
0.5167,90.3,-914.4,207.9,767.4,405.0,677.1,-449.1,243.6,1852.5,-1201.8,209.1,-0.9,-1798.2,-2897.4,-1265.4,-177.3,-6.6,-5.7,-1006.8,-1834.5,-0.6,-535.8,-891.6,494.4,0,930,0,190,0, 
0.5200,88.5,-911.7,210.3,768.9,405.0,678.9,-445.5,241.8,1778.4,-1204.2,209.4,-0.6,-1800.6,-2901.6,-1263.0,-167.1,-6.9,-6.3,-1009.8,-1835.1,-1.2,-531.9,-875.7,503.1,0,936,0,191,0, 
0.5233,92.7,-906.3,210.3,772.5,401.1,681.9,-440.4,243.6,1482.0,-1198.8,209.1,1.2,-1795.5,-2889.3,-1247.4,-160.8,-6.9,-5.4,-1005.3,-1830.3,-0.9,-528.6,-879.3,506.4,0,942,0,192,0, 
0.5267,97.2,-898.8,222.9,777.6,401.1,687.6,-438.6,251.4,889.2,-1194.0,223.5,6.3,-1789.5,-2883.9,-1248.3,-156.3,-6.9,-6.0,-1000.2,-1827.6,-0.6,-512.1,-889.2,507.9,0,948,0,193,0, 
0.5300,93.3,-898.5,219.3,776.4,401.1,683.1,-442.5,245.7,1333.8,-1199.4,215.1,0.0,-1788.3,-2892.9,-1260.9,-149.4,-6.9,-5.7,-1007.1,-1837.8,-0.6,-534.6,-878.4,499.8,0,954,0,194,0, 
0.5333,87.9,-901.8,212.7,774.0,409.8,685.5,-445.8,250.5,1852.5,-1196.1,214.5,6.0,-1784.4,-2891.1,-1272.3,-174.3,-6.9,-5.4,-1003.5,-1829.4,-0.6,-531.6,-883.2,503.1,0,960,0,195,0, 
0.5367,92.1,-899.1,213.3,774.3,409.8,684.6,-440.4,249.0,1852.5,-1194.9,221.4,9.6,-1791.6,-2881.5,-1261.2,-167.4,-7.2,-6.0,-998.4,-1829.4,-0.6,-526.5,-883.8,503.7,0,966,0,196,0, 
0.5400,91.2,-895.2,218.7,776.4,403.5,691.5,-436.8,252.3,1407.9,-1186.5,220.8,3.0,-1788.3,-2901.3,-1264.8,-157.5,-6.9,-5.7,-993.9,-1842.0,-1.2,-526.2,-874.5,511.2,0,972,0,197,0, 
0.5433,94.8,-895.5,216.6,772.2,396.9,688.8,-445.2,253.2,1111.5,-1195.5,199.2,-6.6,-1792.2,-2902.5,-1269.9,-165.9,-7.2,-5.4,-1011.3,-1849.8,-0.6,-528.0,-875.4,506.7,0,978,0,198,0, 
0.5467,95.1,-896.4,210.0,770.7,404.7,692.1,-442.5,255.6,1407.9,-1194.9,205.8,3.0,-1795.2,-2891.7,-1263.3,-156.3,-6.9,-6.0,-1017.6,-1821.3,-0.6,-520.5,-886.8,510.3,0,984,0,199,0, 
0.5500,83.4,-906.3,207.9,768.6,408.0,683.4,-443.7,248.1,1778.4,-1198.8,225.9,26.1,-1798.2,-2908.8,-1267.2,-152.1,-7.2,-5.7,-1005.0,-1797.0,-0.6,-514.8,-884.7,509.7,0,990,0,200,0, 
0.5533,89.7,-900.9,215.4,777.3,414.6,690.6,-439.8,255.6,1852.5,-1192.8,237.0,30.0,-1796.7,-2901.9,-1261.2,-150.6,-6.9,-6.0,-1005.3,-1788.0,-0.6,-511.5,-876.3,516.9,0,996,0,201,0, 
0.5567,98.4,-895.5,221.4,787.2,418.8,700.8,-431.7,261.3,1482.0,-1192.8,234.6,44.4,-1793.4,-2881.2,-1250.4,-161.7,-6.9,-6.0,-1006.8,-1763.1,-0.6,-506.7,-871.2,525.9,0,1002,0,202,0, 
0.5600,95.7,-896.4,219.9,791.7,420.6,704.4,-429.3,264.0,1111.5,-1194.6,228.0,51.9,-1794.9,-2897.1,-1258.5,-161.1,-6.9,-6.3,-1014.0,-1754.1,-0.6,-512.4,-864.6,525.9,0,1008,0,203,0, 
0.5633,92.7,-899.4,216.9,785.4,423.9,700.8,-435.9,264.9,1482.0,-1202.1,220.8,42.9,-1798.8,-2913.9,-1261.8,-155.4,-6.9,-5.7,-1030.2,-1760.1,-0.6,-519.6,-867.3,522.9,0,1014,0,204,0, 
0.5667,89.1,-908.4,201.0,774.6,420.3,688.2,-441.6,251.4,1704.3,-1222.8,201.9,30.6,-1808.1,-2900.7,-1252.2,-152.1,-6.6,-6.0,-1053.0,-1764.3,-0.6,-532.2,-884.1,506.7,0,1020,0,205,0, 
0.5700,93.9,-905.7,199.5,777.6,416.1,687.6,-437.1,251.1,1852.5,-1229.4,199.5,32.1,-1809.0,-2897.1,-1240.5,-159.6,-7.2,-5.7,-1060.8,-1757.1,-0.6,-524.7,-895.2,509.7,0,1026,0,206,0, 
0.5733,89.7,-909.6,197.4,775.5,405.9,688.5,-447.9,251.1,1333.8,-1228.8,196.2,29.4,-1818.6,-2917.5,-1246.5,-159.9,-6.9,-6.3,-1062.9,-1757.7,-0.6,-526.2,-886.5,510.3,0,1032,0,207,0, 
0.5767,91.8,-895.2,213.6,792.9,419.1,702.3,-436.5,264.9,963.3,-1210.2,209.7,43.2,-1808.1,-2918.4,-1276.2,-155.4,-7.2,-5.7,-1049.4,-1739.4,-0.9,-507.0,-877.8,527.4,0,1038,0,208,0, 
0.5800,94.2,-896.4,210.3,790.2,425.7,705.3,-429.3,264.3,1407.9,-1202.7,208.5,45.3,-1796.1,-2924.7,-1284.3,-161.1,-6.9,-5.7,-1047.0,-1739.1,-0.6,-509.1,-866.7,529.2,0,1044,0,209,0, 
0.5833,93.9,-892.5,210.0,791.4,428.1,698.7,-429.6,264.6,1778.4,-1205.1,205.2,42.3,-1797.3,-2907.0,-1264.5,-148.5,-6.6,-6.0,-1045.2,-1741.2,-0.6,-506.4,-885.6,523.8,0,1050,0,210,0, 
0.5867,90.0,-900.3,201.0,783.6,421.2,698.1,-433.2,258.9,1852.5,-1213.2,196.8,33.3,-1808.4,-2926.2,-1269.0,-146.7,-7.2,-5.4,-1055.7,-1747.5,-0.9,-510.9,-874.2,524.4,0,1056,0,211,0, 
0.5900,91.5,-895.8,211.5,785.7,417.9,699.3,-438.6,261.0,1407.9,-1206.9,204.9,36.9,-1800.3,-2899.2,-1258.8,-154.5,-6.9,-5.7,-1051.2,-1748.1,-0.6,-513.0,-879.9,522.3,0,1062,0,212,0, 
0.5933,105.0,-886.8,221.1,800.4,426.0,711.6,-436.8,271.5,1037.4,-1195.8,219.6,50.1,-1787.4,-2896.2,-1259.7,-165.0,-6.9,-6.0,-1039.5,-1737.0,-0.9,-498.9,-875.7,534.9,0,1068,0,213,0, 
0.5967,96.3,-894.0,214.2,795.6,426.0,705.6,-438.3,268.2,1407.9,-1200.6,215.4,47.4,-1791.3,-2904.9,-1269.9,-156.9,-6.6,-6.3,-1040.7,-1742.7,-0.6,-503.1,-885.6,532.5,0,1074,0,214,0, 
0.6000,98.4,-896.4,213.9,793.2,436.2,704.4,-435.6,266.7,1778.4,-1207.5,208.5,42.6,-1793.4,-2894.4,-1259.1,-159.6,-6.9,-6.0,-1048.8,-1740.0,-0.6,-510.6,-875.1,531.0,0,1080,0,215,0, 
0.6033,96.6,-898.8,207.6,790.8,430.5,705.0,-433.8,264.0,1852.5,-1217.4,206.4,34.2,-1797.9,-2902.8,-1265.1,-159.9,-6.9,-6.0,-1050.6,-1748.4,-0.6,-505.8,-860.1,534.3,0,1086,0,216,0, 
0.6067,88.5,-904.2,201.9,789.0,417.6,694.8,-441.6,261.0,1482.0,-1218.3,196.5,27.3,-1816.2,-2914.5,-1264.8,-156.6,-6.6,-6.0,-1056.3,-1760.4,-0.3,-521.7,-882.9,520.8,0,1092,0,217,0, 
0.6100,92.7,-902.4,200.1,787.2,410.7,695.4,-439.2,262.5,963.3,-1221.9,193.2,28.8,-1801.2,-2908.8,-1248.9,-157.5,-6.9,-6.0,-1059.3,-1753.2,-0.9,-522.6,-888.3,521.4,0,1098,0,218,0, 
0.6133,89.7,-910.5,194.1,782.7,411.6,698.1,-444.0,257.4,1407.9,-1221.0,189.6,21.6,-1806.3,-2909.4,-1255.2,-161.4,-7.2,-5.7,-1063.8,-1757.4,-0.6,-518.7,-881.4,519.0,0,1104,0,219,0, 
0.6167,85.2,-907.5,197.7,784.5,421.5,704.4,-439.5,261.9,1778.4,-1212.3,199.2,29.1,-1812.0,-2915.1,-1279.8,-153.6,-6.9,-6.0,-1060.2,-1753.8,-0.3,-512.1,-873.6,524.1,0,1110,0,220,0, 
0.6200,86.4,-912.3,193.8,779.4,419.4,699.3,-440.4,254.7,1926.6,-1212.9,193.2,31.5,-1807.2,-2912.4,-1284.3,-155.1,-7.5,-6.3,-1060.8,-1752.6,-0.3,-513.9,-873.0,525.6,0,1116,0,221,0, 
0.6233,90.9,-907.2,198.0,782.7,414.0,700.5,-445.8,259.2,1482.0,-1216.8,195.3,30.3,-1803.6,-2890.8,-1261.2,-153.6,-6.9,-5.7,-1058.4,-1752.6,-0.6,-515.7,-870.6,517.2,0,1122,0,222,0, 
0.6267,93.3,-899.1,207.9,793.5,417.9,708.6,-440.7,261.6,1259.7,-1206.0,205.8,36.0,-1801.8,-2891.4,-1263.9,-153.3,-7.2,-6.0,-1046.7,-1743.9,-0.3,-499.2,-873.3,522.6,0,1128,0,223,0, 
0.6300,99.3,-896.1,208.5,796.2,427.5,708.6,-439.2,264.9,1333.8,-1203.0,205.2,41.4,-1794.3,-2899.2,-1269.6,-156.9,-6.6,-5.7,-1046.7,-1741.2,-0.3,-499.8,-870.0,530.1,0,1134,0,224,0, 
0.6333,92.7,-902.4,199.8,789.3,424.5,698.7,-439.5,255.9,1704.3,-1215.6,199.8,31.5,-1797.9,-2899.5,-1263.9,-152.4,-6.3,-6.0,-1057.5,-1755.3,-0.6,-513.9,-879.6,519.9,0,1140,0,225,0, 
0.6367,86.1,-915.6,188.4,776.1,412.8,694.5,-442.8,244.2,1778.4,-1232.1,186.3,17.4,-1822.5,-2911.2,-1261.5,-147.6,-7.2,-6.0,-1071.6,-1770.9,-0.3,-534.6,-879.3,511.5,0,1146,0,226,0, 
0.6400,75.6,-924.9,176.4,762.0,388.8,678.3,-452.1,236.7,1407.9,-1248.6,170.1,3.3,-1832.7,-2910.0,-1246.2,-130.2,-6.6,-5.4,-1087.2,-1783.2,-0.6,-552.6,-904.8,495.3,0,1152,0,227,0, 
0.6433,87.9,-905.1,193.8,779.1,400.5,697.2,-444.6,252.0,963.3,-1221.6,191.7,24.6,-1807.5,-2904.0,-1281.9,-160.5,-7.2,-6.0,-1065.3,-1761.0,-0.6,-527.4,-868.2,513.9,0,1158,0,228,0, 
0.6467,83.7,-912.9,193.2,781.8,405.9,694.2,-449.4,251.7,1333.8,-1221.6,187.2,21.3,-1815.9,-2912.1,-1293.9,-184.5,-6.3,-5.4,-1068.3,-1763.7,-0.3,-522.3,-891.3,509.4,0,1164,0,229,0, 
0.6500,81.3,-920.1,175.5,767.1,397.2,679.8,-454.2,240.3,1778.4,-1236.0,176.4,6.0,-1819.8,-2903.1,-1271.1,-186.9,-7.2,-6.0,-1078.8,-1775.7,-0.6,-533.4,-893.4,499.2,0,1170,0,230,0, 
0.6533,82.8,-918.3,179.7,763.2,393.3,675.9,-456.3,235.8,1852.5,-1236.9,174.6,1.8,-1822.5,-2919.9,-1267.5,-180.0,-6.6,-5.7,-1081.5,-1776.9,-0.9,-545.4,-894.9,494.1,0,1176,0,231,0, 
0.6567,82.2,-914.1,187.2,771.0,388.8,682.8,-452.1,241.2,1556.1,-1227.3,184.2,9.6,-1821.9,-2932.5,-1278.6,-179.7,-7.2,-6.3,-1074.0,-1771.5,-0.6,-518.1,-890.1,502.8,0,1182,0,232,0, 
0.6600,91.5,-916.8,178.5,765.0,379.5,676.5,-462.3,237.9,1037.4,-1236.3,170.7,1.2,-1823.4,-2910.9,-1244.7,-169.8,-6.9,-5.7,-1081.8,-1780.5,-0.9,-537.6,-904.2,491.7,0,1188,0,233,0, 
0.6633,85.5,-908.7,192.0,779.1,399.3,687.6,-455.4,251.7,1482.0,-1217.4,184.8,19.2,-1819.8,-2930.7,-1293.3,-172.5,-6.9,-5.4,-1066.8,-1765.5,-0.6,-519.6,-890.4,505.2,0,1194,0,234,0, 
0.6667,94.5,-900.0,195.9,783.3,412.5,695.7,-441.3,257.1,1778.4,-1211.7,199.8,23.7,-1804.2,-2915.7,-1286.4,-178.8,-6.6,-6.0,-1055.1,-1759.5,-1.2,-516.6,-886.5,508.5,0,1200,0,235,0, 
0.6700,90.0,-909.0,189.0,773.4,401.4,685.8,-445.5,254.7,1852.5,-1215.3,189.9,18.3,-1809.6,-2922.9,-1279.5,-176.4,-7.2,-5.7,-1061.7,-1762.8,-0.6,-515.4,-890.7,506.4,0,1206,0,236,0, 
0.6733,86.1,-907.5,187.8,778.8,398.7,694.5,-445.8,259.2,1259.7,-1213.5,193.2,20.1,-1814.4,-2942.7,-1290.9,-173.1,-6.9,-6.0,-1061.4,-1761.0,-0.9,-517.2,-883.2,512.4,0,1212,0,237,0, 
0.6767,78.9,-910.5,183.3,771.0,389.7,690.6,-453.6,257.1,1037.4,-1229.1,176.7,10.2,-1815.0,-2930.1,-1280.1,-181.5,-6.9,-5.7,-1075.8,-1767.9,-0.9,-527.1,-877.5,507.0,0,1218,0,238,0, 
0.6800,77.1,-920.1,172.5,761.1,392.4,684.0,-448.8,249.0,1333.8,-1238.7,175.8,6.3,-1827.0,-2927.1,-1274.1,-178.8,-6.6,-6.3,-1083.0,-1775.7,-0.6,-531.0,-886.5,501.3,0,1224,0,239,0, 
0.6833,74.4,-922.8,168.9,757.8,396.6,680.4,-446.1,246.3,1926.6,-1238.4,177.3,3.3,-1833.9,-2929.8,-1279.2,-171.9,-6.9,-6.0,-1081.8,-1776.6,-1.2,-535.5,-888.9,502.2,0,1230,0,240,0, 
0.6867,71.1,-921.6,172.2,761.7,398.4,684.0,-439.8,248.1,1778.4,-1235.4,178.5,8.4,-1830.0,-2941.5,-1281.0,-171.0,-6.9,-6.0,-1084.5,-1772.7,-0.6,-525.6,-888.9,504.3,0,1236,0,241,0, 
0.6900,74.1,-917.4,183.9,768.9,399.6,685.5,-437.4,249.3,1407.9,-1228.8,184.5,15.6,-1826.7,-2937.9,-1283.1,-165.0,-6.9,-5.4,-1079.4,-1765.5,-0.6,-521.4,-893.7,506.1,0,1242,0,242,0, 
0.6933,77.1,-918.0,181.5,768.6,392.7,684.3,-438.6,251.1,1111.5,-1231.2,175.8,9.9,-1822.8,-2943.3,-1284.9,-173.1,-6.6,-6.0,-1082.7,-1770.3,-0.3,-523.8,-893.1,503.7,0,1248,0,243,0, 
0.6967,77.7,-917.1,181.5,767.1,398.7,684.6,-441.6,254.4,1259.7,-1229.7,175.8,10.8,-1824.0,-2932.2,-1279.8,-173.4,-7.2,-5.7,-1082.1,-1771.8,-0.3,-529.5,-891.6,504.3,0,1254,0,244,0, 
0.7000,72.3,-926.1,166.8,758.1,391.8,672.9,-443.1,242.4,1778.4,-1241.1,163.5,2.7,-1833.9,-2922.6,-1265.7,-165.3,-6.6,-6.0,-1091.4,-1778.4,-0.6,-540.0,-897.9,493.2,0,1260,0,245,0, 
0.7033,74.4,-924.3,174.0,762.9,392.1,672.9,-445.8,239.7,1852.5,-1236.3,175.5,5.1,-1829.7,-2924.7,-1270.2,-167.4,-7.2,-5.7,-1083.6,-1779.6,-0.9,-537.3,-896.4,497.1,0,1266,0,246,0, 
0.7067,73.2,-918.0,173.7,762.9,389.1,680.1,-446.4,246.0,1407.9,-1230.6,179.7,7.5,-1821.0,-2935.8,-1275.6,-159.9,-6.6,-5.7,-1079.7,-1773.6,-0.3,-535.8,-888.6,498.3,0,1272,0,247,0, 
0.7100,73.5,-916.2,175.5,769.5,393.3,685.8,-439.8,249.9,1185.6,-1232.7,182.4,11.7,-1819.2,-2930.4,-1274.1,-154.5,-6.9,-5.7,-1080.0,-1770.0,-0.6,-532.8,-886.2,502.2,0,1278,0,248,0, 
0.7133,67.2,-923.7,171.0,758.7,388.5,677.4,-451.2,243.9,1259.7,-1240.2,172.8,2.1,-1828.2,-2941.8,-1290.6,-168.9,-7.2,-6.0,-1086.9,-1779.9,-0.3,-545.4,-886.8,494.7,0,1284,0,249,0, 
0.7167,68.4,-922.8,171.6,761.4,397.8,678.3,-453.0,248.1,1704.3,-1236.9,176.1,2.4,-1831.5,-2933.7,-1274.1,-185.1,-6.9,-6.0,-1081.8,-1779.3,-0.9,-535.2,-894.3,498.0,0,1290,0,250,0, 
0.7200,68.4,-921.9,171.0,760.8,398.1,680.7,-448.8,246.0,1926.6,-1236.6,166.8,4.8,-1827.9,-2931.6,-1274.1,-165.9,-6.9,-5.7,-1087.8,-1771.5,-1.2,-522.3,-894.3,508.5,0,1296,0,251,0, 
0.7233,68.7,-912.6,180.0,772.2,404.4,689.7,-445.2,255.0,1333.8,-1223.1,178.5,15.6,-1821.6,-2938.8,-1297.8,-164.1,-6.9,-6.0,-1072.8,-1760.7,-0.9,-519.9,-893.1,507.3,0,1302,0,252,0, 
0.7267,71.7,-917.1,173.7,769.5,396.9,683.7,-453.6,252.3,1037.4,-1232.1,174.9,9.0,-1820.1,-2937.9,-1287.6,-157.8,-6.9,-5.7,-1081.2,-1764.0,-0.3,-530.7,-889.2,501.6,0,1308,0,253,0, 
0.7300,73.8,-914.4,178.2,772.5,408.3,687.3,-447.3,254.4,1407.9,-1224.3,184.2,14.7,-1825.5,-2929.8,-1286.1,-154.8,-6.6,-5.4,-1075.8,-1759.8,-0.6,-536.7,-886.8,505.8,0,1314,0,254,0, 
0.7333,68.4,-918.0,175.2,771.6,414.6,681.0,-449.7,249.3,1704.3,-1231.8,179.4,10.5,-1821.3,-2928.6,-1284.9,-175.8,-7.2,-6.0,-1083.6,-1763.4,-0.6,-532.2,-896.4,499.8,0,1320,0,255,0, 
0.7367,72.3,-915.6,177.6,774.0,412.2,679.8,-457.2,249.3,1852.5,-1234.2,177.6,11.4,-1816.8,-2925.0,-1272.3,-182.1,-6.9,-6.0,-1083.6,-1762.2,-0.3,-534.0,-885.6,497.1,0,1326,0,0,0, 
0.7400,77.1,-913.8,180.9,774.3,406.5,682.5,-454.2,251.7,1333.8,-1230.0,181.2,19.5,-1821.6,-2930.1,-1269.6,-175.8,-7.2,-6.0,-1081.5,-1753.2,-0.6,-527.4,-883.8,504.0,0,1332,0,1,0, 
0.7433,75.9,-912.3,180.6,775.2,400.5,684.3,-449.4,256.5,1111.5,-1229.7,180.3,17.1,-1823.7,-2919.9,-1265.4,-167.1,-6.9,-6.0,-1080.9,-1758.9,-0.3,-531.9,-890.4,501.6,0,1338,0,2,0, 
0.7467,74.7,-908.4,180.9,778.2,409.5,691.5,-455.1,254.1,1407.9,-1225.8,183.6,23.1,-1818.0,-2917.5,-1272.6,-169.8,-6.9,-6.6,-1079.1,-1753.5,-0.9,-523.2,-893.7,502.2,0,1344,0,3,0, 
0.7500,67.2,-911.4,180.9,777.6,416.1,689.7,-447.3,254.7,1852.5,-1224.0,190.8,24.9,-1823.7,-2934.0,-1282.8,-167.1,-6.6,-5.7,-1075.8,-1752.9,-0.6,-519.3,-877.5,506.7,0,1350,0,4,0, 
0.7533,69.6,-910.5,183.6,780.0,417.9,691.2,-445.8,256.5,1778.4,-1221.6,190.2,29.4,-1816.2,-2935.5,-1279.8,-160.5,-6.9,-5.7,-1076.1,-1746.3,-0.9,-518.4,-890.7,507.3,0,1356,0,5,0, 
0.7567,77.1,-904.5,191.1,781.8,415.2,693.0,-444.0,263.7,1407.9,-1218.6,187.5,31.8,-1808.1,-2931.3,-1273.8,-160.5,-6.9,-6.0,-1070.1,-1745.4,-0.9,-516.9,-877.8,506.7,0,1362,0,6,0, 
0.7600,76.8,-906.3,190.2,777.9,407.4,689.7,-448.8,255.6,1185.6,-1218.9,184.5,27.6,-1814.4,-2929.5,-1269.6,-162.3,-6.9,-6.3,-1070.4,-1748.7,-0.9,-516.0,-881.1,503.1,0,1368,0,7,0, 
0.7633,80.1,-906.6,184.5,780.0,416.7,690.6,-447.9,258.9,1407.9,-1219.5,190.5,28.5,-1816.8,-2925.0,-1268.7,-164.7,-6.9,-6.0,-1069.2,-1750.2,-0.9,-517.5,-884.4,514.8,0,1374,0,8,0, 
0.7667,72.6,-917.1,172.2,762.6,408.3,679.5,-456.9,250.5,1852.5,-1238.4,171.9,19.5,-1826.7,-2907.9,-1252.2,-176.7,-6.9,-5.7,-1087.2,-1757.1,-0.9,-518.7,-898.2,498.6,0,1380,0,9,0, 
0.7700,70.2,-923.4,158.7,756.3,400.8,671.4,-461.7,238.2,1704.3,-1247.1,177.6,1.8,-1836.6,-2919.6,-1255.5,-172.5,-6.6,-6.3,-1092.9,-1773.9,-0.9,-547.2,-891.9,491.7,0,1386,0,10,0, 
0.7733,67.2,-920.7,165.6,765.9,396.9,674.1,-452.4,243.6,1482.0,-1235.1,178.2,11.4,-1831.2,-2928.3,-1279.5,-161.4,-6.9,-5.4,-1087.8,-1765.2,-0.6,-533.1,-890.4,498.9,0,1392,0,11,0, 
0.7767,76.8,-906.3,186.0,783.0,411.6,691.8,-438.0,260.7,1037.4,-1209.6,202.2,37.5,-1815.6,-2932.5,-1297.5,-172.5,-6.3,-6.0,-1062.9,-1742.1,-0.6,-510.9,-878.7,514.8,0,1398,0,12,0, 
0.7800,74.7,-907.5,184.8,783.0,419.7,693.0,-434.4,263.4,1482.0,-1208.1,201.9,38.7,-1816.2,-2942.7,-1305.9,-181.8,-6.6,-5.4,-1060.2,-1739.7,-0.9,-504.9,-883.2,512.4,0,1404,0,13,0, 
0.7833,69.6,-915.0,172.8,770.7,409.8,677.1,-446.4,250.8,1704.3,-1222.8,190.5,22.5,-1819.8,-2935.8,-1286.7,-172.5,-6.6,-6.3,-1074.0,-1753.8,-0.6,-517.8,-896.1,495.3,0,1410,0,14,0, 
0.7867,75.3,-909.0,175.5,774.0,412.2,686.1,-440.1,258.3,1926.6,-1219.2,195.3,30.6,-1814.4,-2929.8,-1276.8,-162.6,-6.6,-5.7,-1067.7,-1745.4,-0.3,-506.4,-878.1,507.6,0,1416,0,15,0, 
0.7900,74.7,-915.6,168.3,761.7,390.0,675.9,-447.6,252.0,1407.9,-1224.6,180.3,16.8,-1826.4,-2927.4,-1258.2,-160.2,-6.9,-6.0,-1081.2,-1758.6,-0.3,-519.0,-890.1,499.2,0,1422,0,16,0, 
0.7933,85.2,-901.5,179.4,779.4,399.0,691.5,-435.9,266.7,1111.5,-1206.6,199.8,26.1,-1809.0,-2928.9,-1274.1,-154.5,-6.6,-6.0,-1062.3,-1749.3,-0.6,-512.1,-879.3,511.2,0,1428,0,17,0, 
0.7967,81.0,-909.6,175.8,772.2,399.3,682.5,-435.3,257.7,1407.9,-1218.3,189.9,21.6,-1813.8,-2930.1,-1266.0,-158.7,-7.2,-6.6,-1070.4,-1754.4,-0.6,-519.9,-891.3,504.0,0,1434,0,18,0, 
0.8000,80.1,-912.0,168.0,765.3,395.7,675.9,-443.7,256.8,1778.4,-1220.4,183.6,13.8,-1815.9,-2915.1,-1256.7,-162.3,-6.9,-5.7,-1079.4,-1763.1,-0.3,-530.7,-896.1,497.1,0,1440,0,19,0, 
0.8033,78.9,-909.9,170.1,768.9,396.3,678.9,-438.0,258.3,1852.5,-1224.0,183.9,20.1,-1812.9,-2923.2,-1262.7,-143.7,-7.2,-6.0,-1077.3,-1758.6,-0.6,-519.6,-878.7,507.6,0,1446,0,20,0, 
0.8067,90.9,-900.3,183.6,784.5,404.7,695.1,-432.0,269.1,1407.9,-1205.7,201.9,32.4,-1803.0,-2925.6,-1260.6,-152.1,-6.6,-5.4,-1063.2,-1747.2,-0.6,-510.6,-858.9,521.7,0,1452,0,21,0, 
0.8100,88.5,-896.1,189.0,787.2,408.0,700.2,-435.6,274.8,1259.7,-1202.7,201.9,36.9,-1812.6,-2928.3,-1268.4,-148.2,-6.9,-6.0,-1062.0,-1739.1,-0.3,-511.2,-873.6,521.1,0,1458,0,22,0, 
0.8133,90.6,-894.0,192.0,796.2,422.1,707.7,-431.1,273.9,1482.0,-1200.6,208.8,43.2,-1806.6,-2926.8,-1279.5,-154.2,-6.9,-6.0,-1057.2,-1735.5,-0.9,-507.0,-865.2,523.8,0,1464,0,23,0, 
0.8167,92.1,-900.9,190.5,795.0,423.3,700.5,-431.1,272.7,1852.5,-1209.6,193.5,34.2,-1813.2,-2925.6,-1265.4,-153.0,-6.6,-6.0,-1063.8,-1739.4,-1.2,-510.9,-858.3,521.7,0,1470,0,24,0, 
0.8200,83.7,-906.0,183.3,785.7,416.1,696.0,-435.6,261.9,1926.6,-1215.9,191.1,24.6,-1817.4,-2940.3,-1275.3,-153.6,-7.2,-6.0,-1070.1,-1748.7,-0.9,-520.5,-877.8,515.1,0,1476,0,25,0, 
0.8233,80.7,-903.3,179.1,785.1,406.5,698.4,-429.0,266.1,1482.0,-1209.9,202.5,29.7,-1818.0,-2920.8,-1270.2,-149.4,-6.6,-6.0,-1063.5,-1746.0,-0.6,-521.4,-882.6,516.9,0,1482,0,26,0, 
0.8267,87.6,-894.3,192.0,790.8,408.6,700.8,-423.9,271.2,1037.4,-1203.0,208.5,40.8,-1810.5,-2920.8,-1272.0,-145.8,-6.6,-6.3,-1060.5,-1737.0,-0.6,-513.9,-873.9,522.0,0,1488,0,27,0, 
0.8300,80.4,-907.8,174.9,778.8,398.7,685.8,-438.0,258.6,1407.9,-1220.1,193.8,23.7,-1820.4,-2915.4,-1265.1,-159.6,-6.6,-5.7,-1076.7,-1758.3,-0.6,-530.7,-883.2,503.7,0,1494,0,28,0, 
0.8333,72.6,-914.7,163.8,768.0,398.1,680.1,-442.8,248.7,1852.5,-1235.1,184.5,12.3,-1831.2,-2909.7,-1264.5,-160.5,-7.2,-6.0,-1083.6,-1767.6,-0.6,-548.7,-892.5,496.2,0,1500,0,29,0, 
0.8367,78.0,-912.3,168.0,777.9,406.2,688.5,-440.4,258.6,1778.4,-1227.6,188.1,20.4,-1829.7,-2920.8,-1270.5,-148.5,-6.6,-6.0,-1077.9,-1760.1,-0.9,-526.2,-878.4,506.1,0,1506,0,30,0, 
0.8400,74.7,-912.6,167.4,782.1,400.8,687.9,-431.7,262.2,1407.9,-1229.7,188.7,21.3,-1830.6,-2931.0,-1275.0,-149.7,-6.6,-6.0,-1076.4,-1756.2,-0.9,-522.9,-875.4,507.0,0,1512,0,31,0, 
0.8433,77.1,-917.1,159.3,778.5,390.9,684.9,-441.3,255.9,1037.4,-1237.2,187.8,18.6,-1834.2,-2939.7,-1273.2,-156.6,-6.9,-6.0,-1082.7,-1758.9,-0.6,-522.6,-884.7,505.8,0,1518,0,32,0, 
0.8467,76.8,-915.6,165.9,780.0,402.0,687.0,-442.8,259.5,1482.0,-1232.1,196.8,20.1,-1827.9,-2924.7,-1271.4,-164.4,-6.6,-5.7,-1074.9,-1756.2,-0.9,-525.3,-886.5,503.1,0,1524,0,33,0, 
0.8500,79.8,-905.7,173.4,788.7,418.2,696.0,-443.4,263.4,1852.5,-1221.0,196.2,32.7,-1826.1,-2930.7,-1273.2,-162.3,-6.9,-5.7,-1070.4,-1742.7,-0.9,-510.0,-886.8,511.2,0,1530,0,34,0, 
0.8533,73.8,-905.7,169.5,789.0,414.6,690.0,-441.6,256.2,1778.4,-1226.7,192.0,27.9,-1833.0,-2933.1,-1278.3,-159.0,-6.6,-5.7,-1070.1,-1748.7,-0.6,-519.6,-886.5,513.3,0,1536,0,35,0, 
0.8567,79.5,-905.4,170.1,786.3,404.1,688.5,-441.6,254.1,1333.8,-1227.9,189.9,27.6,-1831.8,-2944.2,-1277.1,-159.0,-6.6,-6.0,-1075.5,-1748.7,-0.6,-521.7,-890.4,514.2,0,1542,0,36,0, 
0.8600,79.5,-901.2,176.1,790.5,405.9,694.5,-436.5,262.2,1111.5,-1223.1,197.1,33.3,-1821.6,-2940.6,-1281.3,-152.4,-6.9,-5.7,-1069.8,-1743.9,-0.6,-516.0,-876.0,521.7,0,1548,0,37,0, 
0.8633,76.2,-904.8,166.5,786.3,405.0,686.7,-438.0,258.0,1333.8,-1230.6,192.0,25.2,-1827.6,-2920.5,-1268.4,-160.8,-6.9,-6.0,-1077.6,-1752.0,-0.9,-519.0,-887.4,511.8,0,1554,0,38,0, 
0.8667,79.8,-903.3,166.8,789.9,414.0,687.9,-437.4,262.2,1926.6,-1233.6,190.5,24.6,-1828.5,-2907.3,-1254.0,-154.8,-7.2,-6.0,-1079.7,-1753.8,-0.6,-520.8,-885.9,514.2,0,1560,0,39,0, 
0.8700,84.0,-901.5,169.2,792.0,420.3,691.5,-435.6,265.5,1778.4,-1225.8,193.2,28.5,-1826.4,-2918.1,-1248.9,-149.7,-6.6,-6.0,-1074.9,-1749.3,-0.6,-528.3,-888.9,513.6,0,1566,0,40,0, 
0.8733,80.4,-901.2,174.9,797.7,417.0,695.4,-430.5,271.2,1482.0,-1214.4,195.0,28.8,-1823.1,-2940.0,-1281.0,-141.6,-7.2,-5.7,-1067.1,-1747.8,-0.6,-521.1,-873.6,522.3,0,1572,0,41,0, 
0.8767,93.0,-888.3,183.9,803.4,422.1,702.3,-433.5,281.4,1111.5,-1205.4,207.6,40.5,-1806.9,-2923.8,-1281.6,-161.7,-6.6,-5.7,-1055.4,-1733.4,-0.6,-505.5,-875.4,525.9,0,1578,0,42,0, 
0.8800,91.5,-894.9,173.7,794.7,414.3,690.6,-435.3,271.8,1482.0,-1218.9,207.9,32.4,-1807.8,-2915.7,-1269.3,-163.5,-6.6,-5.7,-1065.9,-1745.7,-0.6,-514.8,-886.8,518.7,0,1584,0,43,0, 
0.8833,82.2,-901.8,165.0,786.9,417.0,685.8,-439.2,263.4,1926.6,-1217.1,198.3,33.6,-1825.8,-2918.7,-1264.5,-155.4,-6.9,-6.0,-1070.7,-1745.1,-0.6,-520.2,-881.4,515.7,0,1590,0,44,0, 
0.8867,80.7,-906.3,153.9,781.8,405.6,677.1,-447.0,252.9,1778.4,-1221.6,188.7,25.5,-1822.2,-2922.6,-1259.7,-154.8,-7.2,-5.4,-1078.5,-1754.7,-0.9,-525.3,-897.9,505.8,0,1596,0,45,0, 
0.8900,80.7,-901.2,167.1,784.8,405.6,681.0,-448.2,260.1,1407.9,-1219.8,200.7,30.6,-1821.9,-2924.4,-1274.7,-167.1,-6.6,-6.3,-1071.6,-1747.5,-0.6,-524.1,-893.4,506.4,0,1602,0,46,0, 
0.8933,81.6,-903.3,163.8,786.6,398.1,684.9,-450.6,258.3,1111.5,-1222.5,198.0,29.4,-1821.9,-2935.2,-1261.5,-155.1,-6.9,-5.7,-1072.8,-1751.7,-0.9,-534.3,-886.2,504.3,0,1608,0,47,0, 
0.8967,78.9,-897.6,170.4,793.8,415.8,691.8,-440.1,263.4,1333.8,-1213.2,205.2,37.8,-1816.8,-2926.2,-1283.7,-152.1,-6.6,-6.0,-1066.5,-1743.3,-0.3,-521.1,-875.4,514.2,0,1614,0,48,0, 
0.9000,78.9,-893.4,174.0,791.7,422.4,691.8,-434.4,263.7,1778.4,-1209.3,209.1,46.8,-1816.8,-2939.7,-1282.5,-155.1,-6.6,-6.0,-1059.0,-1732.8,-0.6,-510.0,-880.8,519.6,0,1620,0,49,0, 
0.9033,80.4,-906.6,156.9,775.8,408.0,683.7,-449.1,255.0,1852.5,-1228.5,193.5,27.6,-1824.6,-2928.6,-1259.4,-159.0,-6.9,-6.0,-1073.4,-1750.8,-0.6,-522.0,-878.7,504.9,0,1626,0,50,0, 
0.9067,76.8,-900.0,164.4,785.1,407.1,691.2,-443.4,264.6,1482.0,-1212.6,201.3,37.5,-1817.4,-2931.6,-1277.7,-151.5,-6.3,-6.3,-1065.3,-1739.1,-0.6,-512.1,-880.5,514.5,0,1632,0,51,0, 
0.9100,78.6,-898.8,170.7,792.3,414.0,698.7,-434.1,270.3,1111.5,-1203.0,216.0,50.1,-1813.2,-2946.0,-1300.8,-146.4,-6.6,-5.7,-1053.3,-1725.0,-0.3,-511.2,-859.8,518.4,0,1638,0,52,0, 
0.9133,78.6,-900.9,163.2,786.0,409.8,687.9,-438.9,265.5,1482.0,-1220.4,203.4,32.1,-1826.1,-2938.5,-1273.2,-147.3,-7.2,-6.0,-1067.4,-1745.4,-0.6,-521.4,-874.5,508.8,0,1644,0,53,0, 
0.9167,78.0,-902.1,160.8,783.9,414.6,692.4,-438.3,267.6,1852.5,-1214.1,206.1,33.6,-1830.0,-2917.2,-1269.6,-151.5,-7.2,-6.0,-1065.6,-1745.7,-0.6,-521.7,-879.3,504.9,0,1650,0,54,0, 
0.9200,77.1,-907.5,154.2,772.5,399.0,678.6,-446.7,259.8,1926.6,-1230.6,190.5,23.1,-1832.7,-2919.9,-1260.3,-142.8,-6.9,-5.7,-1078.2,-1755.3,-0.6,-534.6,-892.8,490.5,0,1656,0,55,0, 
0.9233,87.9,-892.5,170.1,788.1,409.2,694.5,-436.2,268.2,1407.9,-1210.2,205.8,37.5,-1820.7,-2919.9,-1277.1,-162.6,-6.6,-5.7,-1059.6,-1739.4,-0.9,-519.9,-866.7,510.6,0,1662,0,56,0, 
0.9267,85.5,-895.8,170.4,787.8,404.4,690.6,-440.7,272.7,1111.5,-1211.1,194.7,34.2,-1823.1,-2925.3,-1273.2,-160.5,-6.9,-6.0,-1064.7,-1742.4,-0.9,-511.8,-880.5,511.8,0,1668,0,57,0, 
0.9300,84.3,-902.1,156.6,777.6,396.6,681.6,-447.3,263.4,1482.0,-1231.8,185.1,23.4,-1825.5,-2911.2,-1253.1,-157.2,-6.6,-6.3,-1077.3,-1752.6,-0.6,-527.1,-877.2,498.9,0,1674,0,58,0, 
0.9333,85.5,-898.2,161.7,780.6,407.7,688.2,-438.3,267.0,1926.6,-1219.8,194.4,27.6,-1824.3,-2920.8,-1278.6,-146.7,-7.2,-6.0,-1071.3,-1744.8,-0.9,-524.4,-885.0,502.8,0,1680,0,59,0, 
0.9367,87.6,-892.2,167.1,783.6,412.8,695.7,-434.7,271.2,1778.4,-1212.6,207.3,34.5,-1816.2,-2912.1,-1275.6,-140.4,-6.6,-5.7,-1063.5,-1736.7,-0.6,-514.2,-874.2,516.0,0,1686,0,60,0, 
0.9400,87.3,-890.1,163.2,780.3,400.5,690.9,-437.7,273.6,1482.0,-1213.8,207.0,35.7,-1811.7,-2914.8,-1269.0,-148.5,-6.9,-6.3,-1063.8,-1737.3,-0.9,-514.5,-877.2,511.5,0,1692,0,61,0, 
0.9433,84.0,-897.6,151.8,771.9,389.1,686.1,-447.9,267.0,1037.4,-1222.5,200.4,27.0,-1821.0,-2920.2,-1268.7,-161.1,-6.6,-5.7,-1071.6,-1748.1,-0.6,-528.3,-892.5,498.0,0,1698,0,62,0, 
0.9467,85.8,-891.3,155.7,774.9,394.8,687.9,-446.7,271.5,1407.9,-1215.6,191.4,29.7,-1813.5,-2916.3,-1276.8,-160.5,-6.9,-6.0,-1069.8,-1748.7,-0.9,-526.8,-891.6,500.7,0,1704,0,63,0, 
0.9500,79.2,-897.3,147.9,768.9,397.2,680.1,-450.3,263.4,1778.4,-1220.4,191.4,24.0,-1816.2,-2921.7,-1276.5,-168.3,-7.2,-5.7,-1073.1,-1750.2,-0.6,-529.2,-897.6,496.5,0,1710,0,64,0, 
0.9533,83.7,-891.0,150.0,768.0,398.1,683.1,-442.5,269.7,1926.6,-1218.6,196.5,24.6,-1819.5,-2917.2,-1257.9,-147.3,-7.2,-5.7,-1069.8,-1746.3,-0.9,-522.6,-884.7,502.8,0,1716,0,65,0, 
0.9567,83.4,-894.9,157.2,771.0,392.7,681.0,-439.2,267.9,1482.0,-1219.5,199.5,25.5,-1816.8,-2910.3,-1252.8,-144.6,-6.9,-5.7,-1068.0,-1747.8,-0.6,-527.7,-883.2,503.4,0,1722,0,66,0, 
0.9600,82.5,-892.2,148.2,769.2,387.9,684.0,-443.4,265.2,1185.6,-1217.4,197.1,24.0,-1814.4,-2899.2,-1251.3,-159.6,-6.6,-6.3,-1066.2,-1749.3,-0.6,-526.8,-897.3,501.9,0,1728,0,67,0, 
0.9633,80.4,-894.0,152.4,775.8,398.7,687.0,-446.1,272.7,1482.0,-1213.5,197.7,28.2,-1818.6,-2908.5,-1268.1,-163.8,-6.9,-5.7,-1067.1,-1742.7,-0.9,-513.0,-893.1,510.3,0,1734,0,68,0, 
0.9667,80.1,-897.0,146.4,776.4,406.8,687.6,-443.1,267.9,1778.4,-1207.2,199.8,33.6,-1824.3,-2923.5,-1265.4,-155.4,-6.9,-5.4,-1066.8,-1738.8,-0.6,-514.8,-884.7,509.1,0,1740,0,69,0, 
0.9700,73.8,-898.8,147.0,774.6,403.5,685.8,-438.3,266.4,1926.6,-1208.7,203.4,34.8,-1829.1,-2935.8,-1275.6,-153.3,-7.2,-6.0,-1067.1,-1739.7,-0.9,-517.2,-879.9,513.0,0,1746,0,70,0, 
0.9733,77.1,-894.9,152.1,783.3,405.9,696.9,-434.4,268.8,1333.8,-1204.5,207.6,38.1,-1822.8,-2928.6,-1276.2,-147.6,-7.2,-5.7,-1060.2,-1733.7,0.0,-505.2,-870.6,521.1,0,1752,0,71,0, 
0.9767,78.6,-894.3,151.5,782.7,396.9,695.7,-432.9,266.1,1111.5,-1209.0,197.1,33.3,-1821.9,-2927.7,-1266.9,-150.6,-6.9,-6.0,-1068.3,-1740.6,-0.6,-509.7,-871.8,518.1,0,1758,0,72,0, 
0.9800,83.4,-893.4,155.7,788.4,408.9,699.3,-434.7,264.3,1407.9,-1208.7,200.1,39.9,-1820.7,-2915.4,-1262.7,-152.7,-6.6,-6.0,-1067.1,-1733.7,-0.9,-504.0,-870.0,515.4,0,1764,0,73,0, 
0.9833,84.3,-891.3,157.8,787.5,416.4,700.8,-435.0,268.2,1778.4,-1208.1,205.8,44.1,-1814.4,-2920.2,-1259.7,-146.4,-6.9,-5.7,-1061.4,-1728.6,-0.3,-507.0,-865.8,518.1,0,1770,0,74,0, 
0.9867,86.1,-888.6,162.9,792.0,416.4,699.9,-432.6,269.7,1852.5,-1210.2,213.6,46.2,-1813.5,-2914.8,-1240.8,-139.5,-7.2,-6.3,-1056.0,-1728.0,-0.9,-499.8,-867.6,520.5,0,1776,0,75,0, 
0.9900,88.5,-885.3,162.3,795.0,410.4,699.9,-431.4,271.8,1333.8,-1208.7,211.2,40.8,-1815.6,-2904.0,-1233.3,-138.3,-6.9,-6.0,-1061.1,-1733.4,-0.9,-517.8,-866.1,515.7,0,1782,0,76,0, 
0.9933,92.4,-874.2,177.6,804.0,422.4,711.6,-431.1,283.2,1111.5,-1192.2,222.0,58.5,-1809.0,-2918.4,-1250.4,-134.1,-6.9,-6.0,-1045.2,-1714.2,-0.6,-502.5,-866.7,524.7,0,1788,0,77,0, 
0.9967,80.7,-876.0,180.0,804.6,427.2,709.5,-430.5,283.8,1407.9,-1186.2,221.4,60.0,-1807.8,-2919.0,-1261.8,-156.3,-6.6,-5.7,-1042.2,-1715.1,-1.2,-497.1,-869.4,523.2,0,1794,0,78,0, 
1.0000,78.6,-882.9,172.8,796.2,425.4,700.8,-433.8,271.5,1926.6,-1197.3,218.7,49.2,-1815.0,-2912.1,-1253.7,-153.9,-6.9,-5.4,-1047.3,-1725.6,-0.6,-503.1,-873.6,520.5,0,1800,0,79,0, 
1.0033,74.4,-892.2,169.8,789.3,421.5,694.8,-441.9,270.0,2000.7,-1203.0,221.4,48.6,-1823.7,-2929.2,-1269.9,-156.6,-7.2,-5.7,-1051.5,-1725.9,-0.9,-501.6,-886.8,512.1,0,1806,0,80,0, 
1.0067,84.9,-885.0,177.3,799.2,420.0,702.9,-434.4,277.5,1556.1,-1201.5,228.6,55.2,-1808.4,-2918.1,-1261.5,-149.4,-7.2,-6.3,-1042.8,-1722.6,-0.6,-508.2,-878.4,518.4,0,1812,0,81,0, 
1.0100,87.9,-879.3,184.8,806.7,425.4,708.9,-432.0,283.8,1111.5,-1189.5,231.9,63.3,-1803.9,-2910.0,-1264.5,-156.6,-6.9,-6.3,-1032.0,-1711.8,-1.2,-497.7,-863.4,528.0,0,1818,0,82,0, 
1.0133,90.3,-881.1,180.6,798.0,422.1,701.1,-434.7,278.7,1407.9,-1198.2,222.9,57.9,-1811.4,-2918.7,-1259.7,-154.8,-6.9,-6.0,-1046.1,-1719.9,-0.9,-502.2,-878.7,517.8,0,1824,0,83,0, 
1.0167,86.7,-885.9,171.9,791.7,420.9,696.0,-436.8,273.3,1778.4,-1206.3,215.7,48.3,-1815.6,-2908.8,-1253.7,-157.5,-6.9,-6.3,-1053.6,-1727.1,-0.9,-504.6,-882.3,517.2,0,1830,0,84,0, 
1.0200,79.8,-898.8,163.2,780.6,410.4,686.1,-438.6,266.7,1852.5,-1221.0,201.6,33.6,-1825.5,-2902.8,-1240.8,-159.9,-7.2,-5.7,-1067.7,-1745.1,-0.6,-527.4,-880.2,506.7,0,1836,0,85,0, 
1.0233,80.1,-895.8,172.8,790.8,413.4,697.5,-437.7,272.1,1333.8,-1213.2,208.8,40.5,-1818.6,-2919.3,-1262.7,-156.6,-6.9,-6.0,-1057.8,-1736.4,-0.9,-521.7,-887.4,507.6,0,1842,0,86,0, 
1.0267,81.6,-887.7,180.6,790.2,417.6,701.7,-436.5,276.0,1185.6,-1206.3,217.5,46.8,-1807.5,-2929.2,-1279.2,-153.3,-6.6,-5.7,-1046.7,-1732.2,-0.9,-515.4,-886.2,509.7,0,1848,0,87,0, 
1.0300,78.6,-895.8,175.2,783.3,417.9,693.0,-432.9,269.1,1407.9,-1215.0,210.6,39.3,-1819.5,-2926.2,-1265.4,-154.8,-6.9,-6.0,-1053.9,-1734.6,-0.6,-513.0,-893.7,507.9,0,1854,0,88,0, 
1.0333,72.6,-910.5,159.6,767.4,407.1,676.5,-439.2,257.1,1778.4,-1238.4,195.9,24.6,-1833.9,-2906.4,-1235.7,-153.9,-6.9,-6.3,-1074.9,-1754.4,-1.2,-540.3,-900.6,484.8,0,1860,0,89,0, 
1.0367,76.5,-912.9,155.4,763.8,401.4,673.2,-450.3,251.7,1852.5,-1241.4,189.6,20.1,-1832.7,-2905.8,-1227.3,-165.6,-6.9,-6.6,-1076.1,-1761.0,-0.9,-545.4,-910.8,478.8,0,1866,0,90,0, 
1.0400,72.0,-905.7,174.3,781.8,414.6,693.6,-440.7,261.9,1333.8,-1212.3,209.7,42.0,-1823.4,-2940.6,-1289.7,-170.1,-6.6,-5.7,-1053.0,-1735.8,-0.9,-514.8,-899.4,501.0,0,1872,0,91,0, 
1.0433,80.4,-905.1,177.3,783.0,415.5,697.8,-432.9,260.1,1037.4,-1209.6,216.9,45.9,-1812.9,-2940.3,-1278.6,-156.9,-6.9,-6.0,-1052.4,-1735.8,-0.6,-520.8,-895.2,503.4,0,1878,0,92,0, 
1.0467,81.0,-895.5,190.2,796.5,437.7,707.7,-432.3,274.5,1407.9,-1188.0,234.9,63.0,-1807.8,-2934.6,-1296.9,-191.1,-7.2,-5.7,-1033.8,-1720.5,-0.6,-501.6,-888.6,507.0,0,1884,0,93,0, 
1.0500,75.6,-903.9,176.4,783.6,426.9,696.6,-437.1,261.0,1778.4,-1203.3,212.7,44.7,-1812.6,-2921.1,-1272.9,-201.6,-6.9,-6.0,-1049.7,-1734.0,-0.9,-517.2,-895.5,495.0,0,1890,0,94,0, 
1.0533,78.9,-901.5,181.5,789.9,431.4,697.8,-432.6,264.0,2000.7,-1205.4,210.3,46.5,-1808.7,-2927.4,-1274.7,-181.8,-6.6,-5.7,-1047.0,-1730.4,-0.6,-510.3,-884.7,502.8,0,1896,0,95,0, 
1.0567,81.6,-905.7,180.3,788.1,419.1,694.5,-438.0,258.9,1407.9,-1207.8,214.8,49.5,-1809.9,-2918.1,-1269.6,-178.8,-6.6,-6.0,-1050.0,-1732.5,-0.9,-514.2,-885.3,502.2,0,1902,0,96,0, 
1.0600,87.3,-904.5,176.1,784.5,415.2,696.6,-437.1,261.9,1185.6,-1206.9,220.5,45.9,-1805.4,-2916.3,-1260.3,-171.3,-6.9,-6.0,-1048.2,-1735.8,-0.6,-515.7,-895.2,498.0,0,1908,0,97,0, 
1.0633,88.2,-906.6,178.2,787.5,425.7,700.2,-436.8,264.9,1407.9,-1208.7,223.2,54.3,-1801.8,-2896.2,-1254.9,-181.2,-6.9,-6.0,-1045.2,-1724.7,-0.6,-503.4,-882.9,501.9,0,1914,0,98,0, 
1.0667,81.9,-907.5,179.4,789.0,435.0,702.3,-435.6,265.8,1926.6,-1210.2,226.8,58.5,-1806.6,-2911.5,-1261.8,-189.6,-6.9,-6.6,-1043.4,-1723.5,-0.6,-511.8,-887.1,502.5,0,1920,0,99,0, 
1.0700,82.2,-912.0,176.1,785.7,434.4,700.8,-436.8,260.7,1852.5,-1208.4,225.0,49.8,-1809.3,-2912.7,-1257.3,-188.1,-6.9,-5.7,-1044.6,-1731.9,-0.6,-516.6,-898.2,498.9,0,1926,0,100,0, 
1.0733,89.7,-906.6,184.8,788.4,433.5,705.0,-434.7,268.8,1556.1,-1205.1,222.0,56.1,-1801.5,-2899.5,-1251.0,-183.0,-6.9,-6.0,-1040.4,-1723.2,-0.6,-501.6,-886.5,507.0,0,1932,0,101,0, 
1.0767,90.3,-907.5,178.8,787.5,430.8,701.1,-437.4,267.0,1037.4,-1210.8,216.6,51.9,-1799.1,-2915.4,-1254.9,-186.6,-7.2,-6.0,-1043.7,-1725.6,-0.9,-491.1,-888.0,509.4,0,1938,0,102,0, 
1.0800,85.8,-913.5,175.8,782.4,426.3,696.9,-432.9,263.4,1333.8,-1215.3,215.4,43.2,-1812.0,-2921.1,-1263.6,-186.3,-6.9,-6.3,-1046.1,-1733.7,-0.9,-515.1,-899.7,495.9,0,1944,0,103,0, 
1.0833,87.9,-909.9,179.1,786.9,437.1,701.4,-424.2,272.1,1852.5,-1207.2,222.3,45.9,-1810.5,-2926.2,-1269.3,-171.0,-6.6,-6.0,-1045.8,-1732.5,-1.2,-514.5,-885.9,505.2,0,1950,0,104,0, 
1.0867,88.8,-906.3,184.8,792.3,444.0,712.5,-414.6,273.6,1778.4,-1199.7,228.6,56.7,-1809.0,-2923.5,-1274.7,-173.4,-6.6,-6.3,-1038.3,-1721.7,-0.9,-501.6,-880.8,515.7,0,1956,0,105,0, 
1.0900,82.2,-917.1,177.3,783.3,428.7,702.3,-426.9,266.7,1407.9,-1216.5,215.1,49.8,-1814.4,-2929.2,-1263.3,-177.0,-6.9,-6.0,-1047.0,-1727.4,-0.9,-506.1,-875.4,512.7,0,1962,0,106,0, 
1.0933,89.4,-918.3,176.4,775.8,417.3,693.9,-438.9,262.2,1111.5,-1222.8,205.5,38.1,-1818.6,-2913.0,-1242.3,-191.1,-6.6,-6.0,-1056.3,-1736.4,-0.6,-523.5,-889.8,499.8,0,1968,0,107,0, 
1.0967,91.8,-905.4,196.5,792.9,441.3,710.4,-433.5,279.6,1333.8,-1197.0,235.2,58.2,-1803.6,-2930.4,-1287.3,-202.2,-6.9,-6.3,-1032.3,-1719.6,-0.9,-494.4,-906.0,509.4,0,1974,0,108,0, 
1.1000,87.3,-908.4,191.4,792.6,447.6,709.2,-424.8,276.6,1852.5,-1204.5,235.2,58.5,-1802.4,-2915.1,-1281.0,-193.8,-6.9,-6.3,-1034.7,-1721.4,-0.6,-493.5,-886.2,518.7,0,1980,0,109,0, 
1.1033,90.9,-908.7,189.9,786.3,442.5,704.1,-425.7,275.4,1926.6,-1210.2,226.2,56.7,-1801.8,-2905.2,-1259.7,-185.7,-6.9,-6.0,-1035.6,-1724.4,-0.6,-504.0,-880.8,515.1,0,1986,0,110,0, 
1.1067,93.0,-909.0,185.4,788.4,431.4,705.9,-429.0,273.0,1407.9,-1213.5,219.0,48.0,-1810.5,-2899.2,-1253.4,-173.7,-6.9,-6.0,-1043.4,-1730.4,-0.9,-512.4,-883.8,516.0,0,1992,0,111,0, 
1.1100,84.9,-914.4,185.1,791.1,429.3,708.9,-424.2,275.1,1037.4,-1210.2,218.4,54.0,-1811.7,-2924.4,-1268.4,-167.4,-6.9,-5.7,-1042.5,-1727.1,-1.2,-508.5,-872.4,519.3,0,1998,0,112,0, 
1.1133,90.0,-910.2,191.1,792.9,438.3,708.3,-422.7,274.2,1556.1,-1203.0,226.8,58.2,-1801.2,-2912.7,-1265.1,-174.9,-6.3,-5.7,-1032.3,-1722.0,-0.6,-507.0,-879.9,516.3,0,2004,0,113,0, 
1.1167,89.4,-917.4,180.0,777.9,431.4,696.0,-433.5,268.2,1926.6,-1215.0,214.2,48.9,-1807.8,-2918.7,-1250.1,-188.1,-6.6,-5.7,-1042.5,-1728.6,-0.9,-507.0,-897.3,502.8,0,2010,0,114,0, 
1.1200,89.4,-913.8,178.5,777.0,431.7,701.1,-427.5,270.6,2000.7,-1213.5,214.2,49.5,-1797.3,-2904.6,-1249.5,-183.0,-6.9,-5.7,-1041.0,-1727.7,-0.6,-510.9,-885.0,509.1,0,2016,0,115,0, 
1.1233,86.7,-918.6,179.4,775.2,423.9,702.0,-432.6,269.7,1482.0,-1209.3,218.4,51.6,-1812.3,-2912.4,-1263.6,-185.7,-6.9,-6.0,-1042.2,-1726.2,-0.6,-509.1,-880.2,510.6,0,2022,0,116,0, 
1.1267,91.2,-910.8,185.4,786.3,430.2,707.7,-426.6,276.0,1185.6,-1195.2,235.8,62.7,-1801.8,-2906.4,-1255.2,-177.6,-6.9,-6.0,-1027.2,-1714.2,-0.3,-497.7,-895.2,513.0,0,2028,0,117,0, 
1.1300,92.1,-914.7,179.7,776.7,425.4,699.6,-432.3,270.0,1407.9,-1209.3,225.9,53.1,-1802.4,-2887.2,-1235.4,-188.7,-6.9,-5.7,-1037.1,-1727.1,-0.6,-510.6,-896.4,502.5,0,2034,0,118,0, 
1.1333,87.0,-917.7,177.3,776.7,432.3,702.0,-429.6,267.6,1852.5,-1207.8,226.8,51.6,-1805.4,-2898.0,-1256.7,-186.9,-6.6,-6.0,-1035.3,-1728.6,-0.9,-510.3,-889.5,508.2,0,2040,0,119,0, 
1.1367,90.9,-908.1,191.4,788.4,447.6,715.2,-422.1,280.5,2000.7,-1184.7,239.4,72.3,-1792.5,-2916.9,-1277.1,-183.9,-6.9,-5.7,-1021.8,-1703.7,-0.9,-485.4,-873.9,525.6,0,2046,0,120,0, 
1.1400,92.1,-909.3,187.5,784.5,437.4,709.5,-420.6,276.9,1407.9,-1197.0,239.7,69.3,-1794.0,-2904.6,-1269.6,-171.0,-6.6,-5.4,-1027.8,-1711.2,-0.6,-493.2,-875.4,525.3,0,2052,0,121,0, 
1.1433,86.7,-913.2,180.9,780.6,429.0,706.8,-430.8,272.1,1037.4,-1202.1,228.6,58.5,-1803.3,-2909.4,-1261.8,-178.5,-6.9,-6.3,-1032.3,-1722.0,-0.6,-498.6,-884.1,520.2,0,2058,0,122,0, 
1.1467,88.5,-909.6,183.0,785.1,438.6,711.3,-425.4,274.8,1556.1,-1199.7,238.8,63.6,-1802.7,-2912.4,-1269.0,-188.7,-6.9,-6.0,-1023.6,-1712.7,-0.6,-492.6,-878.4,523.5,0,2064,0,123,0, 
1.1500,86.7,-912.6,184.5,784.8,441.6,705.3,-429.0,269.4,1852.5,-1205.1,235.5,66.3,-1805.7,-2918.4,-1266.6,-193.8,-7.2,-5.7,-1031.4,-1713.0,-0.6,-502.2,-883.5,518.4,0,2070,0,124,0, 
1.1533,89.4,-911.4,184.2,791.4,448.2,710.4,-419.7,273.3,2000.7,-1201.8,240.3,67.5,-1802.4,-2916.0,-1271.1,-184.2,-6.3,-6.3,-1027.5,-1715.1,-1.2,-496.5,-887.1,520.2,0,2076,0,125,0, 
1.1567,89.4,-909.0,185.4,789.9,440.4,710.1,-420.9,270.6,1407.9,-1201.8,238.5,66.6,-1797.9,-2913.6,-1268.4,-179.4,-7.2,-5.7,-1027.5,-1712.7,-0.9,-503.7,-872.4,521.4,0,2082,0,126,0, 
1.1600,92.1,-911.7,180.6,786.0,433.2,703.8,-425.7,264.0,1185.6,-1210.2,234.3,65.1,-1801.5,-2913.6,-1258.8,-173.1,-7.2,-6.3,-1033.2,-1716.9,-1.2,-499.5,-893.1,516.3,0,2088,0,127,0, 
1.1633,83.4,-920.4,176.7,785.4,435.6,702.6,-427.2,260.1,1407.9,-1210.2,231.3,56.7,-1812.6,-2922.9,-1274.4,-170.4,-6.9,-6.0,-1038.6,-1721.1,-0.6,-510.6,-882.3,512.7,0,2094,0,128,0, 
1.1667,83.4,-919.5,172.8,782.4,440.4,695.7,-438.0,258.9,1926.6,-1220.7,219.6,57.3,-1812.6,-2913.6,-1267.5,-188.7,-6.6,-6.3,-1040.7,-1727.7,-0.9,-521.7,-902.1,504.3,0,2100,0,129,0, 
1.1700,79.8,-927.6,163.5,773.7,429.0,692.1,-434.1,251.7,1778.4,-1236.9,210.3,44.1,-1817.4,-2913.9,-1248.9,-187.2,-6.9,-5.7,-1053.3,-1734.6,-0.6,-531.3,-895.5,497.4,0,2106,0,130,0, 
1.1733,84.6,-914.1,177.3,783.6,432.9,703.2,-428.1,261.9,1482.0,-1219.2,230.7,58.8,-1810.2,-2921.1,-1275.9,-194.1,-6.6,-6.0,-1033.2,-1722.9,-0.6,-513.3,-888.0,514.5,0,2112,0,131,0, 
1.1767,83.1,-919.2,179.7,783.3,431.7,707.7,-430.2,262.5,1111.5,-1218.0,230.7,61.8,-1821.6,-2920.2,-1280.1,-197.4,-7.2,-6.0,-1035.6,-1719.6,-0.6,-510.3,-890.1,514.2,0,2118,0,132,0, 
1.1800,75.6,-921.0,173.4,780.3,434.1,700.8,-432.9,255.9,1407.9,-1220.4,226.8,59.7,-1823.4,-2937.6,-1295.7,-196.2,-6.6,-6.3,-1038.9,-1722.0,-0.6,-514.8,-896.7,507.9,0,2124,0,133,0, 
1.1833,77.1,-922.2,172.5,778.5,438.3,700.8,-432.9,254.4,1926.6,-1223.1,220.2,54.0,-1822.5,-2927.4,-1285.5,-202.8,-6.9,-5.7,-1040.4,-1726.5,-0.6,-524.7,-895.8,503.4,0,2130,0,134,0, 
1.1867,83.1,-915.6,177.6,783.0,444.3,705.3,-426.3,255.6,1852.5,-1217.1,228.0,61.5,-1817.7,-2922.9,-1281.0,-190.5,-6.3,-6.0,-1035.3,-1717.2,-0.6,-512.1,-884.4,517.5,0,2136,0,135,0, 
1.1900,81.0,-918.0,174.3,777.9,435.0,702.9,-436.2,256.2,1482.0,-1223.4,228.9,59.1,-1822.2,-2934.3,-1285.2,-193.5,-6.6,-6.0,-1039.8,-1719.0,-0.6,-515.1,-886.2,515.4,0,2142,0,136,0, 
1.1933,78.0,-915.0,176.1,785.1,434.4,706.8,-435.3,257.1,1111.5,-1215.3,216.0,62.7,-1817.1,-2937.3,-1290.0,-192.0,-6.9,-6.0,-1042.8,-1719.0,-0.9,-513.0,-894.0,519.6,0,2148,0,137,0, 
1.1967,75.9,-925.8,164.7,771.6,428.7,698.4,-444.3,247.8,1333.8,-1229.4,205.8,48.9,-1829.7,-2919.3,-1273.5,-202.2,-6.9,-5.7,-1056.0,-1731.3,-0.6,-525.9,-899.4,506.4,0,2154,0,138,0, 
1.2000,75.0,-920.1,163.8,775.5,436.5,702.3,-432.9,253.2,1630.2,-1225.2,223.8,54.0,-1819.8,-2919.3,-1282.5,-196.5,-6.6,-6.0,-1045.8,-1723.5,-0.9,-523.2,-888.9,514.5,0,2160,0,139,0, 
1.2033,72.6,-920.7,161.1,770.4,426.9,699.9,-436.5,253.5,2074.8,-1223.7,218.7,48.9,-1824.3,-2919.6,-1281.6,-186.9,-6.9,-6.0,-1050.0,-1728.9,-0.6,-520.5,-878.7,509.4,0,2166,0,140,0, 
1.2067,79.2,-919.5,156.9,765.0,421.2,700.8,-437.1,258.0,1407.9,-1223.4,219.0,45.6,-1824.6,-2909.4,-1267.8,-177.9,-6.9,-5.7,-1049.4,-1731.6,-0.9,-522.3,-885.0,510.9,0,2172,0,141,0, 
1.2100,83.7,-912.6,171.3,773.1,420.9,703.2,-439.5,263.1,1111.5,-1218.3,222.6,55.2,-1813.8,-2903.1,-1260.3,-190.8,-6.9,-6.0,-1045.8,-1724.7,-0.6,-515.1,-890.1,508.8,0,2178,0,142,0, 
1.2133,91.2,-906.0,172.2,779.4,431.1,706.8,-433.5,265.5,1259.7,-1213.5,233.7,57.6,-1810.5,-2911.8,-1268.7,-177.3,-6.9,-6.0,-1038.6,-1718.1,-0.9,-514.5,-884.1,510.6,0,2184,0,143,0, 
1.2167,77.1,-917.1,158.4,769.5,429.9,699.9,-437.7,257.7,1778.4,-1225.8,221.4,48.3,-1823.7,-2931.3,-1280.4,-170.7,-7.2,-5.7,-1048.2,-1729.2,-0.9,-525.0,-878.7,512.7,0,2190,0,144,0, 
1.2200,81.6,-912.6,161.4,774.3,432.9,706.8,-431.4,259.2,1852.5,-1219.8,222.0,53.4,-1820.7,-2925.9,-1275.0,-159.9,-7.2,-5.7,-1046.7,-1725.9,-0.3,-517.2,-867.6,520.5,0,2196,0,145,0, 
1.2233,87.3,-909.0,159.9,770.4,420.9,700.5,-431.4,256.5,1333.8,-1226.4,222.3,48.0,-1820.7,-2908.8,-1248.0,-171.3,-6.9,-5.7,-1044.3,-1732.8,-0.3,-525.6,-875.7,510.0,0,2202,0,146,0, 
1.2267,85.5,-908.7,170.1,780.9,427.2,709.5,-441.6,263.1,963.3,-1212.0,233.1,63.0,-1816.2,-2928.6,-1272.9,-195.3,-7.2,-6.0,-1033.2,-1715.4,-0.6,-509.7,-882.3,516.3,0,2208,0,147,0, 
1.2300,86.1,-899.1,174.9,787.2,438.0,712.2,-436.2,269.1,1333.8,-1201.2,229.2,70.2,-1809.6,-2938.8,-1284.0,-197.1,-6.6,-6.0,-1026.3,-1709.4,-0.9,-500.7,-877.2,524.7,0,2214,0,148,0, 
1.2333,84.6,-903.3,168.0,783.6,440.4,709.2,-432.6,265.8,1778.4,-1210.5,224.7,64.8,-1805.1,-2920.2,-1277.4,-177.6,-7.2,-6.3,-1031.7,-1712.4,-0.9,-509.7,-875.4,520.8,0,2220,0,149,0, 
1.2367,90.0,-900.9,169.2,782.1,437.1,713.1,-432.9,269.7,1852.5,-1206.6,229.5,63.3,-1804.8,-2906.7,-1261.2,-166.2,-7.2,-6.0,-1034.1,-1713.9,-0.6,-511.2,-873.3,519.9,0,2226,0,150,0, 
1.2400,83.1,-898.8,175.2,797.1,446.1,723.0,-429.0,276.0,1482.0,-1190.1,238.5,77.4,-1806.6,-2943.0,-1294.5,-170.7,-6.6,-6.0,-1025.7,-1698.9,-0.9,-490.8,-867.0,534.0,0,2232,0,151,0, 
1.2433,95.4,-882.0,184.5,804.3,451.5,732.0,-414.6,286.2,1111.5,-1182.3,256.5,85.2,-1792.2,-2930.4,-1278.3,-171.3,-6.9,-5.7,-1013.4,-1692.6,-0.9,-484.2,-851.7,546.6,0,2238,0,152,0, 
1.2467,99.9,-889.2,174.3,792.3,446.4,726.0,-427.2,282.0,1556.1,-1197.6,239.4,74.4,-1794.3,-2906.1,-1256.4,-160.2,-6.9,-5.7,-1029.0,-1701.9,-0.6,-491.7,-861.9,538.8,0,2244,0,153,0, 
1.2500,90.9,-895.5,170.4,790.8,447.9,723.3,-424.2,277.5,1852.5,-1199.7,241.5,72.3,-1803.0,-2920.5,-1268.4,-160.8,-6.3,-6.0,-1027.5,-1704.0,-0.9,-490.5,-854.1,542.7,0,2250,0,154,0, 
1.2533,93.0,-901.5,163.5,782.7,444.3,722.1,-428.7,270.3,1778.4,-1200.6,236.4,69.0,-1802.1,-2917.8,-1264.5,-154.2,-6.6,-6.0,-1031.1,-1702.2,-0.3,-484.8,-862.5,538.5,0,2256,0,155,0, 
1.2567,99.0,-893.1,175.5,790.5,440.1,726.3,-426.6,277.8,1407.9,-1197.0,248.7,71.1,-1797.6,-2915.1,-1269.3,-159.0,-7.2,-5.7,-1025.1,-1702.2,-0.9,-499.8,-859.5,538.5,0,2262,0,156,0, 
1.2600,94.8,-901.8,162.6,782.7,432.6,716.7,-434.4,268.2,1111.5,-1210.2,224.4,64.8,-1803.6,-2900.7,-1254.6,-164.1,-7.2,-6.3,-1043.1,-1712.7,-0.6,-513.6,-872.4,519.3,0,2268,0,157,0, 
1.2633,96.3,-897.3,165.6,787.8,439.2,712.5,-430.5,270.6,1482.0,-1208.4,230.1,63.3,-1800.9,-2902.8,-1254.6,-165.3,-7.2,-5.7,-1037.1,-1714.8,-0.9,-511.8,-870.3,520.5,0,2274,0,158,0, 
1.2667,82.2,-908.1,153.9,777.6,437.1,711.9,-429.3,264.0,1852.5,-1214.4,225.0,58.2,-1815.9,-2926.2,-1273.5,-163.2,-6.6,-5.4,-1041.6,-1716.9,-0.6,-515.7,-868.2,519.9,0,2280,0,159,0, 
1.2700,90.6,-900.6,163.2,786.0,446.1,720.6,-418.5,277.5,1778.4,-1202.7,232.8,63.6,-1807.5,-2921.1,-1263.6,-153.9,-6.9,-6.0,-1034.1,-1706.7,-0.9,-504.3,-851.1,526.8,0,2286,0,160,0, 
1.2733,90.0,-908.7,153.0,773.1,428.1,711.9,-430.5,269.7,1407.9,-1210.8,228.0,61.8,-1817.4,-2918.7,-1257.3,-156.0,-6.6,-6.0,-1041.0,-1710.9,-0.6,-511.2,-867.0,520.5,0,2292,0,161,0, 
1.2767,98.4,-894.3,165.6,786.6,435.3,722.4,-422.4,282.9,1259.7,-1203.3,238.8,69.0,-1800.3,-2902.8,-1259.1,-158.1,-6.9,-5.7,-1032.9,-1707.0,-0.9,-501.0,-858.0,534.9,0,2298,0,162,0, 
1.2800,96.6,-900.0,164.1,777.6,432.9,717.3,-429.0,275.7,1407.9,-1212.9,217.5,48.9,-1807.8,-2907.9,-1258.8,-166.2,-6.6,-6.0,-1049.7,-1723.8,-0.6,-513.9,-862.8,524.7,0,2304,0,163,0, 
1.2833,97.8,-896.4,166.2,780.3,438.3,716.1,-425.7,269.4,1778.4,-1209.0,224.7,46.8,-1800.9,-2906.1,-1253.7,-154.5,-6.9,-6.0,-1038.3,-1728.0,-0.6,-511.8,-873.3,521.7,0,2310,0,164,0, 
1.2867,92.7,-901.8,161.1,773.1,432.9,707.1,-434.4,270.0,1852.5,-1213.2,230.1,53.4,-1810.2,-2913.9,-1241.1,-157.8,-6.9,-6.0,-1034.7,-1722.9,-0.3,-511.5,-885.9,517.8,0,2316,0,165,0, 
1.2900,93.6,-904.8,156.3,770.4,424.8,702.9,-436.2,268.2,1407.9,-1217.7,219.9,53.4,-1813.2,-2903.4,-1229.1,-165.3,-6.9,-6.0,-1044.3,-1719.9,-0.6,-516.9,-879.0,517.2,0,2322,0,166,0, 
1.2933,97.2,-901.8,157.8,771.0,416.4,699.6,-442.8,264.3,1037.4,-1216.5,231.0,49.8,-1805.7,-2907.0,-1243.2,-174.9,-6.9,-6.3,-1035.6,-1730.7,-1.2,-522.9,-881.7,508.2,0,2328,0,167,0, 
1.2967,91.2,-902.7,157.2,768.3,420.6,697.5,-443.4,265.8,1111.5,-1215.9,218.7,43.2,-1808.7,-2904.9,-1266.6,-169.2,-6.9,-6.0,-1041.3,-1737.9,-1.2,-522.0,-878.4,503.4,0,2334,0,168,0, 
1.3000,91.8,-898.8,167.1,783.9,441.3,708.9,-427.8,272.1,2000.7,-1207.5,229.8,55.8,-1806.0,-2930.7,-1293.0,-151.5,-7.2,-5.7,-1033.5,-1725.6,-0.9,-507.0,-862.8,518.7,0,2340,0,169,0, 
1.3033,91.2,-896.7,170.1,785.4,442.8,706.8,-438.3,280.5,1852.5,-1206.6,241.8,56.7,-1804.8,-2930.7,-1282.8,-167.4,-6.9,-6.3,-1028.1,-1722.6,-0.9,-502.8,-863.4,518.4,0,2346,0,170,0, 
1.3067,98.4,-893.1,166.8,781.8,431.4,703.8,-435.3,274.8,1333.8,-1211.1,233.1,45.3,-1799.1,-2928.6,-1272.0,-167.1,-6.9,-5.7,-1034.7,-1732.5,-0.9,-517.5,-874.5,510.9,0,2352,0,171,0, 
1.3100,98.1,-899.1,162.0,777.3,425.7,701.4,-438.6,272.4,1111.5,-1212.3,216.3,48.3,-1800.6,-2916.0,-1262.4,-156.9,-7.2,-5.7,-1042.8,-1732.5,-0.6,-522.9,-874.8,511.2,0,2358,0,172,0, 
1.3133,96.3,-894.3,169.8,782.4,437.1,705.9,-434.4,274.5,1482.0,-1207.2,223.8,49.2,-1794.0,-2931.6,-1271.1,-171.6,-6.6,-6.0,-1035.9,-1732.2,-0.9,-510.3,-876.9,510.0,0,2364,0,173,0, 
1.3167,88.5,-904.2,158.7,774.0,434.7,700.5,-435.6,262.2,1852.5,-1209.6,209.4,36.0,-1800.3,-2917.5,-1279.8,-174.3,-6.9,-5.4,-1042.2,-1749.6,-0.6,-517.5,-877.2,506.7,0,2370,0,174,0, 
1.3200,92.4,-903.0,151.5,769.2,430.2,698.1,-435.0,261.9,1778.4,-1219.2,202.2,35.4,-1805.1,-2919.6,-1260.0,-165.6,-6.9,-5.7,-1049.1,-1743.0,-0.6,-527.7,-875.4,506.4,0,2376,0,175,0, 
1.3233,82.8,-906.0,151.2,767.4,420.0,695.1,-446.7,258.3,1482.0,-1213.2,214.5,43.2,-1808.1,-2915.7,-1274.1,-173.1,-7.2,-6.0,-1047.9,-1734.9,-0.9,-516.6,-888.3,502.2,0,2382,0,176,0, 
1.3267,89.4,-901.5,151.5,769.5,414.9,696.9,-441.9,256.8,1111.5,-1208.1,217.2,41.4,-1803.0,-2920.8,-1267.8,-173.4,-6.9,-5.7,-1046.7,-1737.6,-0.9,-522.6,-881.4,504.0,0,2388,0,177,0, 
1.3300,83.1,-909.6,147.3,763.8,421.5,694.8,-442.8,258.6,1482.0,-1214.7,208.2,33.0,-1816.5,-2915.1,-1268.7,-168.3,-6.9,-6.0,-1051.8,-1748.4,-0.6,-520.2,-879.0,503.1,0,2394,0,178,0, 
1.3333,87.6,-911.7,139.5,762.9,428.1,696.9,-437.4,254.4,1852.5,-1219.5,205.8,30.9,-1818.0,-2917.2,-1265.1,-163.2,-6.9,-5.7,-1054.2,-1748.1,-0.3,-524.1,-875.4,506.7,0,2400,0,179,0, 
1.3367,90.3,-910.5,137.7,762.9,429.3,698.1,-436.5,258.3,1926.6,-1218.6,213.3,35.7,-1813.5,-2908.2,-1258.8,-162.3,-7.2,-6.3,-1050.0,-1746.0,-0.6,-517.5,-876.0,508.8,0,2406,0,180,0, 
1.3400,90.0,-910.5,142.2,757.8,420.6,697.5,-445.5,256.5,1407.9,-1218.0,210.3,33.6,-1813.2,-2904.0,-1263.0,-172.5,-7.2,-6.0,-1056.3,-1745.4,-0.6,-525.0,-880.2,505.5,0,2412,0,181,0, 
1.3433,91.2,-916.5,127.8,749.4,406.5,688.5,-447.9,249.6,1037.4,-1230.9,195.9,24.6,-1818.0,-2901.0,-1252.8,-178.8,-6.6,-6.0,-1067.4,-1752.6,-0.9,-539.4,-897.0,497.7,0,2418,0,182,0, 
1.3467,93.0,-916.8,132.9,752.4,413.1,691.2,-446.7,251.7,1333.8,-1227.3,192.6,18.3,-1824.9,-2901.3,-1260.0,-176.1,-6.6,-6.0,-1069.8,-1751.1,-1.2,-531.3,-879.0,497.7,0,2424,0,183,0, 
1.3500,82.8,-920.4,128.4,749.7,415.5,684.9,-443.7,254.7,1778.4,-1236.9,177.9,20.7,-1828.8,-2912.1,-1262.4,-181.8,-6.6,-6.0,-1074.9,-1753.8,-0.9,-531.9,-892.5,494.7,0,2430,0,184,0, 
1.3533,90.6,-922.8,120.0,742.8,409.2,683.4,-442.8,248.4,1852.5,-1246.8,183.9,13.5,-1837.2,-2898.9,-1244.1,-169.2,-7.2,-6.0,-1084.5,-1763.4,-0.6,-542.7,-890.1,490.5,0,2436,0,185,0, 
1.3567,91.2,-914.1,132.9,758.1,415.8,697.5,-434.4,261.3,1407.9,-1235.1,188.1,13.5,-1831.5,-2921.4,-1282.8,-162.3,-6.6,-6.0,-1088.1,-1757.1,-0.9,-525.6,-877.2,508.2,0,2442,0,186,0, 
1.3600,81.0,-921.9,126.3,746.4,395.1,686.1,-441.6,252.0,1185.6,-1241.7,177.3,-7.5,-1841.4,-2936.7,-1294.2,-165.9,-6.6,-5.7,-1092.3,-1782.3,-0.6,-539.1,-888.3,494.7,0,2448,0,187,0, 
1.3633,88.2,-914.1,138.0,754.8,408.3,692.7,-433.2,255.6,1259.7,-1221.9,204.6,24.9,-1828.2,-2927.4,-1281.6,-163.8,-6.6,-6.3,-1053.0,-1757.1,-0.3,-525.6,-883.5,505.2,0,2454,0,188,0, 
1.3667,89.1,-918.6,131.1,750.6,412.2,686.1,-439.2,248.4,1704.3,-1226.4,214.5,29.1,-1829.4,-2921.1,-1270.8,-177.6,-6.9,-6.3,-1044.6,-1753.8,-0.3,-523.2,-885.3,502.8,0,2460,0,189,0, 
1.3700,85.8,-922.8,130.2,745.8,405.6,680.4,-437.7,245.7,1778.4,-1228.8,219.3,35.1,-1831.8,-2926.5,-1259.1,-162.9,-6.6,-5.7,-1041.3,-1761.3,-0.6,-534.6,-894.3,494.1,0,2466,0,190,0, 
1.3733,75.6,-937.2,109.8,729.0,375.9,658.2,-456.6,230.7,1407.9,-1260.0,186.3,2.4,-1852.2,-2915.7,-1239.0,-171.6,-7.5,-5.4,-1070.7,-1797.3,-0.6,-565.2,-913.5,468.9,0,2472,0,191,0, 
1.3767,83.1,-926.4,120.9,737.1,382.2,664.8,-459.3,243.6,1037.4,-1254.3,202.5,16.2,-1842.0,-2905.5,-1249.8,-172.8,-6.9,-6.0,-1060.5,-1791.3,-0.9,-560.1,-909.6,474.0,0,2478,0,192,0, 
1.3800,89.4,-915.6,130.5,752.4,402.0,677.4,-445.2,248.1,1259.7,-1232.7,235.8,42.0,-1830.9,-2910.3,-1260.6,-173.4,-6.9,-5.7,-1029.9,-1763.1,-0.6,-548.1,-896.1,487.8,0,2484,0,193,0, 
1.3833,75.9,-928.8,124.2,744.0,407.1,673.2,-442.2,244.5,1852.5,-1245.0,226.8,24.0,-1841.4,-2931.3,-1280.7,-171.3,-6.9,-5.7,-1042.2,-1779.0,-1.2,-553.8,-891.6,485.7,0,2490,0,194,0, 
1.3867,75.0,-924.6,131.1,752.7,417.3,681.9,-430.5,247.8,1852.5,-1228.8,225.0,42.9,-1834.8,-2931.0,-1281.0,-165.9,-6.6,-5.7,-1033.2,-1766.1,-0.6,-537.0,-895.2,491.1,0,2496,0,195,0, 
1.3900,72.3,-927.0,134.1,744.3,393.0,677.7,-442.2,243.6,1333.8,-1230.6,208.2,29.1,-1832.1,-2933.1,-1285.8,-164.7,-6.3,-5.7,-1040.1,-1773.6,-0.6,-549.3,-896.1,489.3,0,2502,0,196,0, 
1.3933,79.5,-919.8,126.0,746.1,392.4,680.1,-441.0,242.4,1111.5,-1221.3,219.9,35.7,-1824.3,-2910.6,-1280.1,-176.7,-6.9,-6.3,-1035.9,-1775.4,-0.9,-536.7,-894.0,494.4,0,2508,0,197,0, 
1.3967,77.1,-927.6,117.0,732.9,389.4,672.6,-450.6,238.2,1407.9,-1231.8,198.3,1.8,-1832.4,-2914.2,-1285.5,-173.4,-6.6,-6.0,-1049.7,-1789.2,-0.6,-553.5,-899.7,481.2,0,2514,0,198,0, 
1.4000,70.8,-935.1,114.6,729.0,393.0,669.0,-448.2,226.8,1778.4,-1233.0,202.5,2.4,-1837.5,-2918.1,-1276.5,-167.7,-6.9,-5.4,-1051.8,-1794.3,-0.9,-552.3,-894.6,479.7,0,2520,0,199,0, 
1.4033,73.2,-938.4,109.8,721.8,379.5,661.2,-457.5,228.9,1852.5,-1243.2,195.6,12.6,-1844.1,-2910.0,-1263.6,-171.3,-6.6,-6.0,-1061.1,-1800.0,-0.6,-556.2,-898.2,477.3,0,2526,0,200,0, 
1.4067,78.0,-930.0,118.8,735.6,388.2,667.2,-449.7,233.4,1482.0,-1229.1,208.8,21.0,-1835.4,-2918.4,-1272.3,-162.3,-6.6,-6.0,-1048.8,-1793.1,-0.6,-543.0,-892.2,485.1,0,2532,0,201,0, 
1.4100,75.6,-926.1,121.2,744.0,392.1,675.3,-451.8,237.9,1111.5,-1218.6,213.9,28.8,-1833.9,-2927.7,-1280.4,-157.5,-6.9,-5.7,-1040.1,-1782.3,-0.6,-533.7,-900.9,486.3,0,2538,0,202,0, 
1.4133,74.7,-927.6,122.4,742.2,396.3,672.9,-454.8,239.1,1407.9,-1224.0,213.6,23.1,-1837.5,-2932.5,-1286.1,-152.1,-6.6,-5.7,-1041.6,-1786.8,-0.6,-535.8,-892.5,484.5,0,2544,0,203,0, 
1.4167,81.0,-925.8,122.1,742.5,401.7,674.4,-458.1,235.2,1778.4,-1225.8,207.9,18.0,-1832.1,-2916.9,-1265.1,-166.2,-6.9,-6.0,-1045.8,-1790.4,-0.9,-544.5,-897.0,479.1,0,2550,0,204,0, 
1.4200,78.0,-925.5,123.6,743.1,401.1,671.1,-458.1,233.7,1852.5,-1227.6,216.0,19.8,-1826.4,-2918.1,-1269.0,-177.0,-6.9,-5.7,-1039.8,-1785.0,-0.6,-535.5,-902.4,483.3,0,2556,0,205,0, 
1.4233,75.6,-924.9,125.7,741.0,393.0,672.3,-457.2,235.5,1482.0,-1221.6,217.2,18.6,-1827.9,-2929.5,-1285.5,-163.5,-7.2,-5.7,-1039.5,-1785.9,-0.6,-534.9,-891.9,485.7,0,2562,0,206,0, 
1.4267,76.8,-918.9,132.6,749.7,398.4,676.5,-453.9,242.4,1259.7,-1208.4,216.9,27.3,-1826.4,-2944.2,-1292.7,-162.0,-6.6,-6.0,-1029.9,-1773.9,-0.9,-525.9,-887.4,492.9,0,2568,0,207,0, 
1.4300,80.4,-919.5,132.3,750.0,396.0,673.2,-458.7,240.6,1482.0,-1216.5,214.5,19.2,-1825.8,-2928.9,-1281.0,-166.5,-7.2,-6.0,-1036.2,-1781.7,-1.5,-537.6,-903.6,484.8,0,2574,0,208,0, 
1.4333,80.1,-920.4,130.2,746.4,402.6,670.2,-455.7,243.3,1778.4,-1220.4,222.9,23.7,-1829.1,-2930.7,-1287.9,-177.3,-7.5,-6.0,-1035.6,-1782.3,-0.9,-536.4,-891.6,486.9,0,2580,0,209,0, 
1.4367,78.6,-927.9,116.1,734.7,390.0,663.0,-465.3,240.3,1926.6,-1233.9,206.1,12.9,-1835.4,-2929.8,-1277.1,-174.6,-7.2,-5.7,-1047.9,-1790.4,-1.2,-552.0,-900.9,474.6,0,2586,0,210,0, 
1.4400,73.5,-934.2,110.4,726.9,373.2,657.6,-471.0,232.8,1333.8,-1236.6,189.6,6.9,-1843.2,-2937.3,-1275.9,-174.0,-6.9,-6.3,-1053.6,-1800.0,-0.3,-551.7,-914.4,472.2,0,2592,0,211,0, 
1.4433,83.4,-917.1,118.8,739.2,382.2,674.7,-466.2,243.0,1111.5,-1219.2,210.9,14.7,-1827.6,-2923.5,-1279.8,-177.6,-6.6,-6.3,-1038.0,-1788.9,-0.9,-540.0,-906.6,486.6,0,2598,0,212,0, 
1.4467,77.7,-921.9,110.7,735.6,379.8,668.1,-460.8,237.9,1333.8,-1226.7,210.0,4.5,-1830.6,-2919.9,-1280.1,-171.9,-6.6,-6.0,-1043.4,-1796.7,-0.6,-548.7,-907.8,477.3,0,2604,0,213,0, 
1.4500,81.9,-923.4,114.0,733.8,386.7,667.5,-446.7,237.9,1778.4,-1227.6,205.2,0.6,-1827.0,-2913.6,-1264.2,-167.4,-6.9,-6.3,-1047.0,-1799.1,-0.6,-545.1,-900.3,479.4,0,2610,0,214,0, 
1.4533,69.9,-934.5,99.6,725.4,376.8,654.0,-459.0,225.6,1704.3,-1241.4,190.8,-1.8,-1847.1,-2925.6,-1271.4,-171.0,-6.6,-6.0,-1058.7,-1807.2,-0.3,-555.3,-899.4,473.4,0,2616,0,215,0, 
1.4567,76.2,-926.7,110.4,734.4,380.1,658.5,-453.6,236.7,1482.0,-1230.0,211.8,12.0,-1838.4,-2922.0,-1275.6,-168.0,-7.2,-5.7,-1046.1,-1790.1,-0.6,-548.4,-893.4,480.9,0,2622,0,216,0, 
1.4600,79.8,-915.9,121.8,744.9,384.6,666.6,-444.3,244.8,1111.5,-1224.9,220.2,15.0,-1832.1,-2922.0,-1284.6,-169.2,-6.9,-6.0,-1038.0,-1786.8,-0.9,-539.1,-895.8,491.1,0,2628,0,217,0, 
1.4633,78.6,-918.9,127.5,748.2,395.4,668.1,-448.8,244.5,1407.9,-1221.3,219.9,22.2,-1835.1,-2927.7,-1295.7,-180.0,-7.2,-6.0,-1037.7,-1784.7,-0.9,-534.3,-898.8,492.6,0,2634,0,218,0, 
1.4667,71.1,-931.5,108.9,732.6,390.9,660.6,-450.6,234.3,1778.4,-1237.2,197.1,11.7,-1849.2,-2926.8,-1283.7,-174.9,-6.6,-6.0,-1054.8,-1796.4,-0.6,-555.3,-891.9,480.3,0,2640,0,219,0, 
1.4700,78.9,-924.6,117.9,740.1,395.4,672.6,-439.2,242.7,1778.4,-1232.4,204.9,17.1,-1842.9,-2922.9,-1282.8,-165.9,-6.9,-6.0,-1048.8,-1792.2,-0.6,-546.0,-897.0,485.4,0,2646,0,220,0, 
1.4733,72.6,-929.7,113.7,735.9,381.6,664.8,-441.9,237.0,1333.8,-1238.7,194.4,6.3,-1845.6,-2914.8,-1265.7,-163.5,-6.6,-6.3,-1058.1,-1802.1,-0.9,-552.9,-912.3,475.5,0,2652,0,221,0, 
1.4767,78.0,-929.1,111.0,736.2,379.8,667.2,-445.8,239.1,1185.6,-1238.7,187.8,9.3,-1841.4,-2906.1,-1262.7,-181.5,-6.9,-6.0,-1056.6,-1802.4,-0.9,-552.0,-916.5,476.7,0,2658,0,222,0, 
1.4800,78.9,-936.3,98.1,721.5,372.6,656.4,-450.9,230.4,1333.8,-1255.8,182.7,-8.7,-1844.7,-2890.2,-1250.1,-166.2,-6.9,-6.3,-1067.7,-1814.7,-0.3,-573.0,-921.3,465.3,0,2664,0,223,0, 
1.4833,73.2,-930.9,108.6,733.5,389.7,664.5,-446.7,237.0,1926.6,-1236.3,196.8,5.1,-1839.0,-2909.4,-1282.8,-168.6,-6.6,-6.3,-1053.0,-1802.4,-0.6,-561.9,-910.8,474.6,0,2670,0,224,0, 
1.4867,70.5,-927.0,117.9,738.0,394.5,671.1,-448.2,237.0,1852.5,-1224.9,208.2,9.0,-1841.7,-2918.1,-1298.4,-188.4,-6.6,-5.7,-1044.0,-1793.7,-0.3,-542.7,-913.5,477.9,0,2676,0,225,0, 
1.4900,77.1,-922.8,118.2,740.4,390.3,675.9,-441.3,240.6,1333.8,-1226.4,210.6,10.2,-1835.4,-2912.7,-1270.2,-165.3,-6.6,-6.0,-1040.4,-1793.7,-0.6,-550.5,-907.8,478.8,0,2682,0,226,0, 
1.4933,77.4,-915.3,133.8,757.2,394.5,684.6,-437.1,253.8,1111.5,-1211.1,220.2,26.7,-1827.9,-2916.9,-1287.6,-162.9,-7.2,-6.0,-1030.2,-1785.0,-0.9,-530.7,-897.9,492.0,0,2688,0,227,0, 
1.4967,78.6,-916.8,127.8,758.1,397.5,683.1,-439.5,253.2,1407.9,-1218.9,207.3,19.2,-1828.8,-2914.2,-1283.1,-162.3,-6.9,-6.0,-1037.4,-1790.4,-0.6,-532.5,-888.3,490.5,0,2694,0,228,0, 
1.5000,78.3,-912.6,132.6,752.4,400.5,680.7,-440.4,252.9,1778.4,-1218.3,215.4,10.2,-1829.1,-2908.5,-1274.1,-159.3,-6.6,-5.4,-1038.9,-1792.8,-1.2,-546.3,-896.1,483.9,0,2700,0,229,0, 
1.5033,72.3,-921.3,122.1,745.2,391.5,669.6,-441.0,243.9,1704.3,-1230.3,208.8,7.2,-1839.9,-2912.4,-1271.4,-162.0,-7.2,-5.4,-1047.0,-1797.6,-0.6,-549.0,-900.9,479.1,0,2706,0,230,0, 
1.5067,74.7,-926.1,116.1,736.5,375.3,660.6,-455.1,238.5,1407.9,-1237.8,198.0,-1.2,-1848.6,-2907.0,-1260.9,-159.9,-6.9,-6.0,-1055.7,-1807.2,-0.6,-565.2,-909.9,467.1,0,2712,0,231,0, 
1.5100,76.8,-918.3,120.6,743.7,378.3,669.0,-451.5,245.7,1037.4,-1233.3,204.9,6.6,-1839.9,-2906.7,-1271.4,-166.2,-7.2,-5.7,-1050.6,-1802.4,-0.6,-553.5,-907.2,473.1,0,2718,0,232,0, 
1.5133,75.0,-920.7,121.8,745.2,382.5,666.6,-451.5,245.1,1259.7,-1229.7,204.3,6.6,-1842.0,-2916.9,-1281.0,-162.3,-6.9,-6.0,-1049.1,-1804.5,-0.6,-561.0,-900.3,471.6,0,2724,0,233,0, 
1.5167,78.3,-921.6,114.9,739.5,386.7,665.7,-449.1,244.2,1778.4,-1245.0,191.1,-0.6,-1846.5,-2904.0,-1258.8,-149.1,-6.9,-6.3,-1060.8,-1808.1,-0.9,-571.5,-904.5,469.5,0,2730,0,234,0, 
1.5200,80.4,-917.1,121.2,746.1,390.0,669.0,-449.7,241.8,2000.7,-1241.4,200.7,1.5,-1841.7,-2901.3,-1251.9,-147.9,-6.9,-5.7,-1058.7,-1806.0,-0.6,-561.0,-896.7,471.6,0,2736,0,235,0, 
1.5233,81.9,-907.8,126.0,758.4,397.8,684.0,-436.2,252.0,1407.9,-1216.2,217.2,18.9,-1831.2,-2913.0,-1287.6,-154.5,-6.6,-5.7,-1035.6,-1784.1,-0.6,-544.8,-873.0,491.4,0,2742,0,236,0, 
1.5267,78.9,-912.9,127.2,747.9,382.8,673.5,-444.6,246.9,1037.4,-1228.2,206.1,9.0,-1839.9,-2923.2,-1272.9,-154.2,-6.6,-5.4,-1048.2,-1798.2,-0.6,-558.0,-885.6,477.0,0,2748,0,237,0, 
1.5300,76.8,-913.5,118.5,745.2,385.2,670.2,-444.0,248.4,1333.8,-1234.5,198.0,6.9,-1840.2,-2922.0,-1280.1,-157.5,-7.2,-5.7,-1054.8,-1799.4,-0.9,-553.8,-892.5,476.7,0,2754,0,238,0, 
1.5333,75.6,-913.8,120.3,750.9,394.5,673.8,-439.5,250.8,1778.4,-1238.4,195.9,4.5,-1842.0,-2910.9,-1274.4,-150.0,-6.9,-6.0,-1057.8,-1802.1,-0.9,-549.6,-897.9,477.0,0,2760,0,239,0, 
1.5367,76.8,-908.7,121.5,754.8,397.8,680.1,-436.8,258.0,1852.5,-1237.5,203.1,11.1,-1839.3,-2910.9,-1267.5,-157.5,-6.9,-6.0,-1054.5,-1794.0,-0.6,-543.3,-879.6,485.7,0,2766,0,240,0, 
1.5400,81.6,-904.2,125.1,759.0,395.4,682.2,-432.9,260.1,1259.7,-1234.8,209.1,12.6,-1834.2,-2910.9,-1261.5,-146.4,-6.6,-5.7,-1055.1,-1791.9,-0.6,-539.1,-893.7,491.4,0,2772,0,241,0, 
1.5433,82.2,-905.1,118.5,759.6,385.5,678.6,-433.2,260.1,1111.5,-1240.2,202.8,13.5,-1835.4,-2909.4,-1256.7,-142.2,-6.9,-5.7,-1052.4,-1793.7,-0.6,-546.9,-893.4,484.2,0,2778,0,242,0, 
1.5467,75.0,-915.6,109.8,747.9,384.6,668.1,-444.0,247.5,1333.8,-1253.1,189.9,-0.6,-1850.1,-2900.4,-1253.4,-153.3,-7.2,-6.0,-1067.4,-1806.0,-0.6,-558.3,-907.5,474.3,0,2784,0,243,0, 
1.5500,77.7,-917.7,109.5,749.1,389.1,667.2,-439.5,249.9,1778.4,-1250.1,186.3,2.1,-1848.9,-2906.4,-1258.8,-151.2,-6.9,-5.7,-1067.4,-1805.4,-0.6,-560.4,-900.9,474.3,0,2790,0,244,0, 
1.5533,76.2,-909.3,115.8,754.5,392.4,676.5,-442.2,253.2,1704.3,-1237.8,195.9,9.0,-1833.9,-2910.9,-1285.2,-156.0,-7.2,-6.0,-1059.0,-1797.0,-0.9,-554.1,-891.0,483.9,0,2796,0,245,0, 
1.5567,75.9,-907.2,116.1,754.2,380.4,672.3,-444.6,248.7,1407.9,-1235.1,199.2,5.4,-1836.0,-2911.8,-1280.7,-155.1,-6.6,-5.7,-1057.8,-1801.5,-0.3,-555.9,-896.7,478.5,0,2802,0,246,0, 
1.5600,75.6,-906.0,120.0,756.0,386.7,678.0,-447.3,252.3,1111.5,-1224.9,207.9,18.6,-1832.1,-2919.0,-1277.7,-163.8,-6.9,-6.0,-1053.6,-1790.4,-0.3,-545.1,-893.7,486.9,0,2808,0,247,0, 
1.5633,77.1,-910.8,111.9,745.8,379.5,670.5,-450.9,240.9,1407.9,-1241.1,197.7,12.6,-1836.9,-2908.5,-1269.6,-164.4,-6.9,-6.0,-1060.8,-1795.5,-0.3,-554.7,-898.8,478.2,0,2814,0,248,0, 
1.5667,82.5,-908.7,116.7,749.7,389.4,678.3,-439.8,249.0,1852.5,-1224.6,210.0,16.8,-1833.6,-2909.4,-1278.0,-155.4,-6.6,-5.4,-1046.1,-1790.1,-0.6,-544.8,-889.2,489.0,0,2820,0,249,0, 
1.5700,74.4,-912.9,115.8,747.6,387.3,673.8,-432.6,245.4,1852.5,-1228.2,210.0,11.1,-1836.6,-2914.5,-1290.0,-142.2,-6.9,-6.3,-1050.0,-1793.7,-0.6,-541.5,-887.4,486.0,0,2826,0,250,0, 
1.5733,78.3,-908.1,123.0,749.7,385.2,678.6,-436.5,243.6,1407.9,-1228.8,202.8,17.7,-1832.7,-2913.6,-1277.4,-144.3,-6.9,-6.0,-1050.9,-1791.9,-0.6,-549.3,-877.5,487.5,0,2832,0,251,0, 
1.5767,84.9,-901.2,126.3,752.1,383.4,681.3,-438.3,249.9,1111.5,-1225.5,207.9,21.6,-1823.1,-2902.5,-1265.4,-144.9,-6.9,-5.7,-1045.8,-1783.5,-0.9,-548.4,-888.6,486.9,0,2838,0,252,0, 
1.5800,83.4,-902.4,124.5,755.4,391.8,681.3,-430.5,249.9,1259.7,-1221.3,219.9,22.8,-1824.9,-2901.6,-1272.0,-145.5,-6.9,-5.7,-1041.3,-1786.8,-0.6,-546.0,-894.3,488.4,0,2844,0,253,0, 
1.5833,81.9,-902.1,126.9,752.7,399.0,676.8,-434.4,248.4,1852.5,-1218.3,216.9,26.1,-1823.1,-2903.1,-1278.0,-163.5,-6.6,-6.0,-1040.7,-1779.0,-0.6,-539.1,-885.9,489.9,0,2850,0,254,0, 
1.5867,78.9,-906.9,120.9,743.1,389.1,669.0,-438.9,243.6,1852.5,-1221.3,214.2,17.4,-1830.0,-2897.7,-1265.7,-166.8,-6.9,-5.7,-1045.8,-1787.1,-0.9,-549.6,-892.2,481.2,0,2856,0,255,0, 
1.5900,86.4,-896.7,126.9,750.9,384.0,670.2,-439.8,245.7,1333.8,-1215.6,223.5,23.4,-1824.0,-2898.9,-1274.1,-167.7,-6.3,-5.7,-1035.9,-1782.0,-0.3,-541.2,-893.1,483.3,0,2862,0,0,0, 
1.5933,83.4,-905.7,119.4,741.3,369.9,663.6,-448.2,242.4,1037.4,-1228.8,197.4,2.1,-1828.8,-2895.3,-1270.5,-165.9,-6.9,-6.0,-1050.9,-1810.2,-1.2,-555.9,-907.8,473.7,0,2868,0,1,0, 
1.5967,84.9,-902.1,125.1,750.9,390.0,674.7,-438.9,247.5,1333.8,-1220.1,192.9,13.5,-1827.9,-2901.3,-1277.4,-156.9,-6.9,-5.7,-1051.5,-1790.7,-0.3,-545.7,-902.1,488.7,0,2874,0,2,0, 
1.6000,75.3,-911.1,111.0,741.0,388.8,669.6,-450.0,234.0,1778.4,-1221.6,214.2,25.8,-1832.4,-2907.0,-1273.2,-156.0,-6.6,-5.7,-1045.5,-1770.6,-0.9,-545.1,-902.1,487.2,0,2880,0,3,0, 
1.6033,75.6,-904.5,123.0,744.0,387.9,673.5,-440.7,240.0,1852.5,-1218.0,218.1,30.0,-1825.2,-2894.1,-1271.4,-147.3,-7.2,-6.0,-1045.2,-1755.9,-0.6,-533.4,-893.1,493.5,0,2886,0,4,0, 
1.6067,73.8,-912.0,110.4,732.6,370.8,666.9,-450.9,238.5,1407.9,-1227.6,192.9,14.1,-1836.6,-2895.9,-1270.2,-148.5,-6.6,-5.7,-1066.2,-1772.4,-0.9,-548.1,-902.1,484.2,0,2892,0,5,0, 
1.6100,78.3,-911.4,104.4,736.5,372.3,670.2,-441.6,240.6,1111.5,-1231.2,186.9,9.3,-1837.2,-2904.9,-1271.7,-160.5,-6.9,-6.0,-1080.3,-1773.0,-0.9,-540.9,-899.7,487.2,0,2898,0,6,0, 
1.6133,74.7,-917.1,99.6,734.7,372.6,669.6,-444.9,238.8,1407.9,-1238.7,172.5,1.2,-1842.6,-2892.3,-1263.9,-153.3,-6.9,-6.0,-1092.9,-1775.7,-0.6,-550.5,-902.7,482.7,0,2904,0,7,0, 
1.6167,78.0,-915.0,100.2,735.3,381.3,675.0,-443.4,243.9,1778.4,-1232.4,174.0,3.0,-1843.2,-2891.1,-1271.4,-156.3,-7.2,-6.0,-1091.7,-1768.8,-0.6,-539.7,-883.5,489.9,0,2910,0,8,0, 
1.6200,78.6,-910.2,102.9,741.6,383.1,675.9,-441.3,245.4,1926.6,-1228.8,182.1,6.9,-1833.6,-2882.1,-1262.1,-155.4,-7.2,-6.0,-1083.9,-1766.7,-0.9,-534.9,-895.2,494.1,0,2916,0,9,0, 
1.6233,86.7,-897.0,114.0,752.7,390.6,687.0,-433.8,257.4,1482.0,-1220.1,180.3,16.2,-1826.1,-2889.3,-1270.5,-144.6,-6.3,-6.0,-1079.4,-1753.5,-0.6,-516.9,-894.6,502.2,0,2922,0,10,0, 
1.6267,86.7,-898.2,116.4,752.4,385.5,684.0,-431.7,259.5,1185.6,-1212.9,190.2,24.6,-1829.4,-2904.9,-1274.1,-141.0,-6.6,-6.0,-1066.5,-1749.9,-0.6,-520.2,-893.7,503.7,0,2928,0,11,0, 
1.6300,80.7,-902.4,111.0,749.4,387.0,679.5,-441.0,251.1,1333.8,-1226.1,192.0,21.0,-1835.7,-2897.1,-1261.2,-141.0,-6.9,-5.7,-1070.4,-1753.8,-0.6,-521.4,-890.1,500.1,0,2934,0,12,0, 
1.6333,87.3,-904.8,105.9,747.6,391.2,676.5,-434.1,252.9,1704.3,-1236.0,183.6,9.3,-1832.1,-2877.9,-1250.4,-139.5,-7.2,-6.0,-1083.0,-1761.9,-0.9,-535.2,-886.8,497.4,0,2940,0,13,0, 
1.6367,88.5,-899.4,113.1,751.2,396.3,686.4,-436.5,261.0,1852.5,-1224.9,185.1,18.0,-1826.1,-2882.7,-1251.9,-147.9,-7.2,-5.7,-1079.1,-1754.4,-0.6,-525.0,-883.5,507.3,0,2946,0,14,0, 
1.6400,83.1,-898.8,116.4,755.4,392.1,690.9,-436.8,263.4,1482.0,-1219.2,194.4,27.3,-1828.2,-2892.6,-1263.6,-142.8,-6.9,-5.4,-1072.2,-1749.3,-0.6,-526.8,-876.0,513.9,0,2952,0,15,0, 
1.6433,78.3,-901.8,115.2,751.8,390.9,690.6,-435.9,259.5,1185.6,-1220.1,178.5,18.3,-1831.5,-2907.3,-1268.1,-135.9,-6.6,-6.0,-1079.1,-1752.6,-0.3,-522.6,-879.6,509.7,0,2958,0,16,0, 
1.6467,73.8,-903.0,114.6,750.9,392.7,688.2,-436.2,257.7,1407.9,-1219.2,185.1,17.4,-1834.5,-2922.6,-1296.3,-144.0,-6.9,-5.4,-1076.7,-1755.0,-0.9,-519.0,-882.9,507.9,0,2964,0,17,0, 
1.6500,80.7,-895.8,125.1,763.5,405.9,694.2,-428.7,261.6,1778.4,-1209.9,197.4,25.5,-1826.7,-2918.7,-1289.7,-148.8,-6.6,-6.0,-1066.5,-1745.1,-0.3,-514.8,-878.4,515.7,0,2970,0,18,0, 
1.6533,76.2,-910.2,107.4,746.4,390.9,681.9,-442.2,250.8,1778.4,-1229.1,175.8,6.9,-1842.6,-2924.7,-1279.5,-145.2,-6.9,-6.0,-1086.9,-1764.6,-0.9,-531.0,-895.2,500.1,0,2976,0,19,0, 
1.6567,82.2,-899.1,120.6,760.2,395.4,695.1,-434.4,261.3,1556.1,-1213.8,187.8,21.3,-1833.9,-2908.5,-1269.9,-137.1,-7.2,-5.4,-1073.7,-1748.7,-0.3,-516.9,-883.8,512.7,0,2982,0,20,0, 
1.6600,82.5,-901.8,120.9,752.4,387.3,688.8,-439.5,257.4,1037.4,-1220.1,190.2,19.2,-1836.6,-2901.9,-1263.0,-146.1,-7.2,-5.4,-1074.0,-1752.6,-0.6,-518.1,-888.0,504.0,0,2988,0,21,0, 
1.6633,84.0,-901.2,115.8,751.5,387.9,688.5,-439.2,263.7,1259.7,-1217.1,186.6,13.2,-1833.3,-2902.8,-1262.1,-125.1,-6.9,-5.7,-1077.9,-1758.9,-1.2,-524.7,-885.6,501.6,0,2994,0,22,0, 
1.6667,78.9,-911.1,107.7,745.8,384.3,681.0,-447.9,252.9,1704.3,-1224.6,177.0,2.7,-1842.3,-2904.6,-1250.1,-159.9,-6.9,-6.0,-1086.6,-1771.8,-0.9,-528.6,-886.8,496.5,0,3000,0,23,0, 
1.6700,84.9,-908.4,102.3,743.7,386.7,678.0,-449.7,250.8,1778.4,-1226.1,175.5,3.6,-1840.2,-2892.9,-1243.2,-150.0,-6.9,-5.7,-1084.8,-1765.5,-0.9,-522.3,-891.3,498.0,0,3006,0,24,0, 
1.6733,86.7,-898.8,121.5,763.5,394.5,694.5,-437.4,264.3,1407.9,-1208.4,192.6,19.8,-1828.8,-2900.7,-1272.6,-154.2,-7.2,-6.0,-1068.0,-1754.1,-0.6,-528.0,-877.2,507.0,0,3012,0,25,0, 
1.6767,83.1,-896.1,128.7,762.0,397.2,700.8,-434.1,267.3,1111.5,-1196.1,202.5,21.3,-1828.8,-2925.0,-1288.8,-150.9,-6.9,-5.7,-1061.4,-1745.1,-0.6,-513.3,-878.7,516.0,0,3018,0,26,0, 
1.6800,80.4,-905.4,113.4,750.0,386.4,688.8,-443.4,255.3,1259.7,-1215.3,182.7,10.5,-1836.0,-2909.7,-1269.0,-158.1,-7.2,-6.0,-1075.5,-1757.4,-0.9,-521.4,-886.8,504.0,0,3024,0,27,0, 
1.6833,71.1,-914.4,110.7,742.5,388.8,687.9,-449.7,247.5,1852.5,-1215.6,176.1,11.1,-1843.8,-2910.6,-1272.6,-163.5,-6.9,-6.3,-1079.7,-1759.2,-0.9,-512.4,-891.0,501.9,0,3030,0,28,0, 
1.6867,69.3,-914.1,108.0,742.2,391.2,683.1,-448.8,250.8,1778.4,-1217.7,178.8,8.1,-1845.9,-2922.0,-1286.1,-162.6,-6.9,-6.0,-1080.0,-1763.7,-0.6,-525.9,-888.0,495.0,0,3036,0,29,0, 
1.6900,70.2,-919.2,103.8,732.0,370.8,676.2,-449.7,244.5,1407.9,-1227.6,176.4,-1.2,-1849.2,-2919.0,-1280.4,-160.2,-6.6,-6.6,-1084.2,-1773.3,-0.9,-536.4,-897.0,488.1,0,3042,0,30,0, 
1.6933,69.9,-925.2,98.1,731.1,368.4,678.9,-454.2,244.5,1037.4,-1230.9,174.3,-8.4,-1854.6,-2926.8,-1285.8,-162.6,-6.6,-5.7,-1089.6,-1779.6,-0.6,-536.4,-897.9,486.9,0,3048,0,31,0, 
1.6967,67.8,-930.0,93.0,725.1,370.8,671.7,-451.5,240.6,1407.9,-1237.8,164.7,-12.0,-1863.0,-2931.0,-1282.2,-159.9,-7.2,-6.0,-1098.0,-1787.7,-0.6,-544.8,-902.1,482.1,0,3054,0,32,0, 
1.7000,69.6,-934.5,90.3,723.6,373.8,671.4,-452.1,241.8,1704.3,-1240.5,159.6,-18.3,-1865.1,-2925.9,-1279.2,-162.0,-6.9,-5.4,-1099.5,-1790.1,-0.9,-551.1,-900.3,479.1,0,3060,0,33,0, 
1.7033,72.3,-939.0,84.3,717.9,367.5,663.9,-459.0,235.2,1852.5,-1251.6,152.1,-24.0,-1865.7,-2919.6,-1263.9,-161.4,-6.9,-6.0,-1108.8,-1794.6,-0.6,-549.9,-911.4,470.7,0,3066,0,34,0, 
1.7067,77.4,-933.6,89.7,724.8,364.5,671.1,-455.4,242.4,1407.9,-1243.8,166.2,-10.8,-1862.4,-2921.1,-1265.7,-159.3,-7.2,-5.7,-1098.6,-1787.7,-0.6,-547.5,-907.5,470.4,0,3072,0,35,0, 
1.7100,78.0,-936.6,85.2,714.3,354.0,665.7,-459.3,238.5,1111.5,-1260.6,151.5,-24.9,-1860.6,-2911.8,-1255.8,-160.8,-6.9,-6.6,-1113.3,-1797.0,-0.9,-560.1,-916.2,467.4,0,3078,0,36,0, 
1.7133,80.1,-939.9,84.0,712.2,357.9,664.8,-458.7,243.3,1407.9,-1263.3,146.4,-27.3,-1863.0,-2907.3,-1257.9,-163.8,-6.6,-6.3,-1116.3,-1799.4,-0.6,-567.3,-910.5,464.1,0,3084,0,37,0, 
1.7167,81.3,-939.9,93.3,718.8,375.6,674.7,-447.0,245.1,1778.4,-1249.5,155.1,-16.5,-1855.5,-2912.1,-1273.2,-156.3,-6.9,-6.0,-1105.8,-1788.3,-0.6,-549.3,-895.8,477.6,0,3090,0,38,0, 
1.7200,74.1,-942.9,95.1,718.2,376.5,674.4,-450.6,246.6,1778.4,-1244.7,158.7,-12.9,-1856.7,-2924.7,-1284.6,-152.1,-6.9,-5.7,-1101.0,-1784.7,-0.9,-543.0,-889.8,483.3,0,3096,0,39,0, 
1.7233,74.4,-949.5,83.7,711.6,358.5,668.1,-455.7,235.2,1407.9,-1256.4,148.2,-21.9,-1862.1,-2920.8,-1277.1,-156.6,-6.6,-5.7,-1113.6,-1795.8,-0.6,-552.0,-896.4,475.5,0,3102,0,40,0, 
1.7267,72.0,-948.0,87.6,714.0,360.0,669.6,-461.7,242.7,1111.5,-1248.6,153.0,-17.4,-1863.3,-2926.5,-1291.2,-164.4,-6.6,-6.0,-1106.4,-1790.7,-1.2,-543.6,-906.0,476.4,0,3108,0,41,0, 
1.7300,72.6,-948.6,87.9,712.2,366.3,670.5,-455.1,236.1,1333.8,-1246.8,150.9,-20.4,-1864.5,-2930.7,-1286.7,-167.1,-6.6,-5.7,-1106.4,-1794.0,-0.6,-546.6,-892.5,477.0,0,3114,0,42,0, 
1.7333,76.8,-948.0,88.5,713.1,375.3,672.0,-450.3,238.8,1778.4,-1249.8,148.8,-20.7,-1858.5,-2916.9,-1272.9,-165.9,-6.6,-5.7,-1112.4,-1792.8,-0.9,-546.9,-903.9,472.2,0,3120,0,43,0, 
1.7367,82.5,-943.8,92.4,713.7,376.2,673.2,-452.4,242.7,1852.5,-1248.3,162.6,-15.6,-1848.9,-2919.0,-1273.8,-160.2,-6.9,-5.4,-1104.9,-1789.8,-0.6,-546.0,-894.6,478.5,0,3126,0,44,0, 
1.7400,79.8,-940.8,105.3,725.4,378.6,679.8,-452.4,247.8,1333.8,-1237.5,174.6,-0.6,-1846.2,-2913.3,-1287.3,-160.5,-6.6,-6.6,-1088.1,-1778.7,-0.3,-529.5,-888.3,485.7,0,3132,0,45,0, 
1.7433,85.2,-941.1,98.7,723.6,370.2,678.0,-453.0,246.0,889.2,-1246.5,163.5,-10.2,-1842.0,-2905.5,-1275.9,-175.5,-6.9,-5.4,-1095.0,-1783.8,-0.6,-534.0,-888.6,484.2,0,3138,0,46,0, 
1.7467,82.8,-950.1,93.9,710.4,363.0,667.2,-459.3,238.2,1407.9,-1255.5,149.7,-20.4,-1852.8,-2909.4,-1266.9,-179.4,-6.6,-6.0,-1107.3,-1793.1,-0.9,-548.1,-913.8,467.4,0,3144,0,47,0, 
1.7500,84.9,-943.5,98.1,714.6,379.5,671.7,-457.5,240.0,1778.4,-1246.5,165.0,-9.9,-1845.9,-2903.4,-1271.1,-184.5,-6.9,-5.7,-1097.1,-1790.1,-0.9,-541.8,-896.1,476.7,0,3150,0,48,0, 
1.7533,81.0,-939.6,109.8,726.6,387.6,677.7,-447.6,249.0,1852.5,-1232.7,170.7,0.3,-1838.7,-2910.3,-1295.1,-172.2,-6.9,-5.7,-1087.2,-1776.6,-0.6,-538.2,-889.5,483.3,0,3156,0,49,0, 
1.7567,79.5,-948.6,94.2,716.7,370.2,670.8,-459.3,241.2,1259.7,-1254.3,155.1,-11.4,-1851.3,-2916.0,-1276.8,-169.8,-7.2,-5.7,-1106.1,-1788.9,-0.9,-557.1,-902.4,476.1,0,3162,0,50,0, 
1.7600,86.1,-943.8,99.6,723.6,376.8,679.2,-450.3,246.3,1037.4,-1243.5,165.6,-3.3,-1841.1,-2902.5,-1278.6,-185.1,-6.6,-6.0,-1095.6,-1777.5,-0.3,-543.6,-902.4,481.5,0,3168,0,51,0, 
1.7633,86.7,-944.4,102.9,728.1,387.9,680.7,-448.2,246.6,1407.9,-1237.5,173.4,3.9,-1838.4,-2905.8,-1287.3,-198.9,-6.6,-6.0,-1089.9,-1770.6,-1.2,-537.0,-892.8,484.2,0,3174,0,52,0, 
1.7667,81.3,-950.1,98.4,722.7,388.2,677.4,-442.8,242.7,1778.4,-1242.9,162.3,-3.6,-1846.8,-2913.3,-1279.8,-177.9,-6.6,-6.0,-1100.4,-1773.9,-1.2,-541.2,-886.8,483.9,0,3180,0,53,0, 
1.7700,79.5,-950.7,102.6,724.2,389.1,678.0,-435.0,243.9,1852.5,-1247.1,165.0,-4.2,-1850.1,-2916.0,-1285.2,-169.8,-6.6,-6.0,-1099.8,-1778.1,-0.9,-541.8,-878.4,485.1,0,3186,0,54,0, 
1.7733,81.0,-956.1,95.1,716.4,376.2,666.0,-455.4,232.5,1407.9,-1256.4,155.1,-17.7,-1856.4,-2910.9,-1263.6,-180.0,-6.3,-5.7,-1109.1,-1786.2,-0.9,-555.0,-895.5,475.8,0,3192,0,55,0, 
1.7767,83.7,-947.7,109.2,729.9,385.8,678.0,-450.9,242.7,1111.5,-1245.0,158.4,-0.3,-1846.5,-2895.9,-1284.6,-188.1,-7.2,-6.0,-1098.9,-1770.6,-0.9,-539.4,-890.1,484.5,0,3198,0,56,0, 
1.7800,85.8,-937.2,117.9,742.8,401.1,685.5,-441.9,251.7,1482.0,-1232.4,172.8,11.4,-1831.5,-2900.7,-1308.9,-207.6,-6.9,-6.3,-1091.4,-1761.0,-1.2,-526.8,-889.8,493.2,0,3204,0,57,0, 
1.7833,79.8,-942.0,113.1,735.9,406.8,684.3,-441.0,243.9,1852.5,-1230.9,174.6,13.2,-1838.4,-2910.6,-1301.4,-198.6,-6.9,-6.0,-1088.1,-1761.9,-0.6,-525.3,-889.2,492.3,0,3210,0,58,0, 
1.7867,73.8,-948.9,104.4,729.6,396.9,678.0,-444.9,237.9,1778.4,-1240.5,170.4,-3.6,-1843.5,-2905.2,-1292.7,-193.8,-6.6,-6.0,-1095.3,-1774.8,-0.3,-536.4,-887.7,484.8,0,3216,0,59,0, 
1.7900,75.0,-948.9,106.5,734.1,387.9,681.0,-449.7,239.4,1407.9,-1237.5,165.3,1.8,-1839.6,-2910.9,-1301.1,-193.2,-6.3,-5.4,-1094.1,-1772.1,-0.6,-525.6,-886.5,489.6,0,3222,0,60,0, 
1.7933,84.6,-939.9,109.5,734.4,382.5,678.6,-447.6,243.3,1037.4,-1241.4,170.7,6.9,-1833.6,-2894.1,-1281.6,-184.8,-6.6,-5.7,-1092.6,-1768.5,-0.9,-529.2,-888.0,484.8,0,3228,0,61,0, 
1.7967,85.5,-942.3,107.4,728.7,383.7,676.2,-451.5,245.1,1259.7,-1247.1,165.9,-2.4,-1833.9,-2887.8,-1273.2,-187.5,-6.6,-6.0,-1093.5,-1776.6,-0.6,-547.5,-893.7,479.1,0,3234,0,62,0, 
1.8000,78.0,-948.9,100.5,723.0,387.0,671.4,-452.7,237.9,1852.5,-1248.3,161.1,-9.0,-1840.8,-2894.1,-1289.1,-192.3,-7.2,-6.0,-1097.1,-1781.7,-0.6,-540.9,-894.6,475.5,0,3240,0,63,0, 
1.8033,78.0,-956.7,96.9,715.5,377.7,667.2,-452.4,233.1,1926.6,-1256.1,152.7,-15.0,-1845.6,-2892.6,-1260.0,-178.5,-6.9,-6.0,-1106.1,-1788.0,-0.3,-552.6,-888.9,474.6,0,3246,0,64,0, 
1.8067,81.6,-945.3,109.2,726.0,383.7,680.1,-446.7,241.5,1407.9,-1238.4,162.9,-3.3,-1838.4,-2899.2,-1288.2,-181.8,-6.9,-6.0,-1090.2,-1775.7,-0.6,-536.1,-882.9,489.0,0,3252,0,65,0, 
1.8100,87.9,-934.2,126.6,739.5,391.5,689.4,-441.9,249.0,1111.5,-1220.7,179.4,13.2,-1828.5,-2909.4,-1303.2,-184.5,-6.9,-5.7,-1073.4,-1758.6,-0.6,-515.1,-885.6,497.7,0,3258,0,66,0, 
1.8133,77.7,-951.0,105.6,720.6,383.1,674.4,-447.9,240.0,1259.7,-1246.2,160.2,-9.3,-1844.1,-2905.8,-1287.0,-177.6,-6.6,-5.7,-1097.4,-1777.8,-0.9,-540.3,-887.7,481.5,0,3264,0,67,0, 
1.8167,74.7,-951.0,108.9,716.7,387.9,671.7,-450.6,240.0,1778.4,-1246.5,159.6,-8.7,-1844.1,-2906.4,-1290.0,-191.7,-6.6,-5.7,-1097.4,-1775.7,-0.6,-543.0,-892.5,481.5,0,3270,0,68,0, 
1.8200,82.8,-941.7,115.8,725.4,397.8,682.2,-445.8,243.0,1926.6,-1232.4,170.4,-2.1,-1830.9,-2901.0,-1289.7,-200.4,-6.9,-6.0,-1082.7,-1766.7,-0.6,-526.8,-894.0,493.5,0,3276,0,69,0, 
1.8233,84.0,-945.3,107.1,722.1,384.3,674.4,-444.3,234.6,1407.9,-1247.7,159.9,-6.9,-1835.1,-2901.0,-1267.5,-186.3,-6.9,-6.0,-1093.2,-1777.2,-0.9,-537.3,-895.2,482.1,0,3282,0,70,0, 
1.8267,83.1,-947.4,102.6,717.3,380.4,675.0,-448.8,230.7,1111.5,-1251.0,161.7,-9.6,-1841.4,-2901.9,-1275.6,-182.7,-6.9,-5.7,-1091.7,-1776.6,-0.9,-537.6,-892.5,481.8,0,3288,0,71,0, 
1.8300,81.3,-940.5,111.6,728.1,393.6,681.3,-443.4,236.4,1407.9,-1233.0,178.5,2.4,-1834.5,-2906.7,-1295.7,-189.6,-6.9,-6.0,-1077.9,-1767.0,-0.6,-527.4,-886.5,488.1,0,3294,0,72,0, 
1.8333,78.9,-945.6,105.0,722.7,397.8,677.4,-450.9,231.3,1630.2,-1245.0,169.8,-4.8,-1839.0,-2904.6,-1283.4,-186.6,-6.9,-5.7,-1081.8,-1776.9,-0.9,-541.8,-887.1,481.8,0,3300,0,73,0, 
1.8367,79.5,-950.4,99.9,721.8,391.5,667.5,-453.3,233.1,1852.5,-1252.5,161.1,-11.1,-1839.6,-2896.2,-1264.8,-190.2,-6.6,-5.7,-1089.0,-1784.4,-0.9,-552.0,-904.5,472.2,0,3306,0,74,0, 
1.8400,83.4,-945.9,101.1,720.3,379.8,668.7,-459.9,231.6,1407.9,-1261.5,160.8,-12.6,-1839.3,-2887.2,-1248.3,-192.6,-7.2,-6.0,-1088.1,-1786.2,-0.6,-553.5,-904.2,474.3,0,3312,0,75,0, 
1.8433,78.9,-938.7,113.1,729.6,390.3,682.2,-453.9,241.2,963.3,-1236.3,171.9,1.8,-1831.5,-2910.3,-1298.7,-194.1,-6.6,-6.0,-1078.2,-1770.3,-0.9,-534.0,-898.5,487.5,0,3318,0,76,0, 
1.8467,71.7,-941.7,112.8,729.9,397.5,684.6,-443.1,242.7,1482.0,-1237.5,174.3,4.2,-1835.7,-2913.0,-1304.4,-172.8,-6.9,-6.0,-1076.7,-1764.3,-0.6,-531.0,-892.5,489.6,0,3324,0,77,0, 
1.8500,76.2,-942.3,117.3,735.0,407.1,685.8,-449.4,243.6,1704.3,-1234.8,180.9,3.6,-1825.2,-2912.1,-1296.6,-195.3,-6.6,-6.0,-1070.4,-1764.6,-0.6,-525.9,-889.2,491.4,0,3330,0,78,0, 
1.8533,79.5,-936.9,121.8,736.2,408.0,687.3,-434.7,245.4,1852.5,-1228.2,176.4,9.3,-1827.3,-2907.0,-1284.0,-177.0,-6.9,-5.4,-1069.5,-1760.4,-0.9,-527.4,-887.7,495.9,0,3336,0,79,0, 
1.8567,77.1,-936.6,119.4,735.0,400.2,686.1,-442.2,242.7,1482.0,-1233.6,174.3,5.7,-1827.0,-2907.9,-1278.9,-171.0,-6.9,-5.7,-1070.4,-1759.8,-0.9,-531.0,-885.9,496.2,0,3342,0,80,0, 
1.8600,86.4,-934.8,121.2,739.2,398.1,687.6,-442.8,245.7,963.3,-1230.3,178.8,12.0,-1819.2,-2892.3,-1278.0,-177.3,-6.9,-5.7,-1067.4,-1759.5,-0.6,-528.0,-882.6,498.6,0,3348,0,81,0, 
1.8633,78.9,-943.5,112.2,729.6,397.5,679.8,-453.0,236.7,1185.6,-1234.5,168.9,0.6,-1832.1,-2902.5,-1283.1,-181.8,-7.2,-6.3,-1077.3,-1772.4,-0.6,-548.1,-896.1,490.2,0,3354,0,82,0, 
1.8667,78.9,-935.1,119.1,738.9,409.2,685.5,-443.4,243.6,1778.4,-1227.0,183.0,8.4,-1821.0,-2907.3,-1291.5,-189.0,-6.6,-5.7,-1071.0,-1762.2,-0.9,-537.3,-875.7,498.6,0,3360,0,83,0, 
1.8700,83.7,-929.1,127.5,744.9,416.7,692.4,-436.2,247.8,1704.3,-1226.4,185.4,11.1,-1815.6,-2906.7,-1271.7,-174.9,-6.9,-6.0,-1067.1,-1756.5,-0.6,-524.1,-880.2,507.9,0,3366,0,84,0, 
1.8733,87.0,-936.3,118.2,735.0,402.3,684.9,-443.1,243.3,1556.1,-1240.8,169.5,-0.6,-1821.0,-2889.6,-1248.6,-176.7,-6.6,-6.0,-1077.6,-1766.4,-0.9,-533.7,-888.9,492.6,0,3372,0,85,0, 
1.8767,84.6,-938.7,112.2,727.8,395.7,684.3,-450.0,238.5,1037.4,-1248.0,166.8,-3.6,-1826.1,-2895.0,-1253.1,-178.5,-6.9,-5.7,-1083.6,-1774.8,-0.9,-547.2,-892.5,489.3,0,3378,0,86,0, 
1.8800,80.7,-932.1,124.2,743.7,417.0,703.2,-437.1,254.4,1407.9,-1226.1,184.8,19.5,-1827.9,-2918.7,-1309.8,-167.1,-6.9,-5.7,-1068.0,-1746.9,-0.9,-515.1,-869.7,511.2,0,3384,0,87,0, 
1.8833,72.6,-941.7,114.3,737.1,414.9,693.9,-438.3,247.8,1778.4,-1233.3,181.5,9.0,-1837.5,-2941.2,-1310.1,-158.4,-7.2,-6.0,-1072.8,-1757.4,-0.9,-525.3,-873.3,509.1,0,3390,0,88,0, 
1.8867,76.2,-931.8,125.7,742.8,418.5,696.6,-437.4,251.1,1778.4,-1227.6,187.8,18.9,-1830.3,-2933.1,-1309.5,-168.6,-6.6,-5.4,-1068.0,-1755.0,-0.9,-524.4,-873.9,512.7,0,3396,0,89,0, 
1.8900,77.1,-935.1,118.8,737.4,409.8,692.1,-442.2,246.0,1333.8,-1238.7,172.8,8.1,-1830.0,-2913.3,-1282.5,-171.6,-6.9,-6.0,-1076.4,-1758.9,-1.2,-533.4,-884.4,504.9,0,3402,0,90,0, 
1.8933,81.9,-929.7,124.5,743.7,407.4,698.4,-443.1,247.8,1185.6,-1238.4,185.7,14.4,-1829.4,-2913.3,-1286.4,-180.3,-6.6,-6.0,-1071.6,-1755.0,-1.2,-526.5,-883.8,507.0,0,3408,0,91,0, 
1.8967,85.8,-930.0,125.4,747.3,414.0,700.5,-437.4,250.2,1407.9,-1236.3,181.8,15.3,-1829.1,-2914.2,-1290.6,-174.6,-6.6,-5.7,-1072.5,-1753.2,-0.6,-517.2,-882.0,512.7,0,3414,0,92,0, 
1.9000,81.3,-930.6,126.0,745.5,415.5,696.0,-443.1,248.1,1704.3,-1236.6,177.3,14.7,-1828.8,-2911.5,-1285.2,-168.3,-7.2,-5.7,-1073.7,-1754.4,-0.6,-527.1,-879.3,503.1,0,3420,0,93,0, 
1.9033,81.0,-929.4,119.7,737.4,408.0,692.7,-445.2,246.9,1704.3,-1238.1,174.0,10.5,-1830.6,-2918.1,-1281.6,-158.1,-6.6,-6.0,-1075.2,-1757.1,-0.6,-530.7,-875.1,504.0,0,3426,0,94,0, 
1.9067,82.2,-926.1,120.6,738.9,400.8,690.3,-440.7,246.9,1333.8,-1238.1,177.9,8.1,-1824.9,-2916.6,-1275.3,-158.7,-6.9,-6.0,-1072.2,-1760.1,-0.9,-532.2,-875.4,503.7,0,3432,0,95,0, 
1.9100,86.1,-921.3,121.2,738.9,398.1,686.4,-445.5,249.3,1111.5,-1235.7,182.1,12.3,-1821.0,-2903.7,-1270.5,-181.5,-6.3,-6.0,-1070.1,-1760.7,-0.9,-530.4,-878.4,500.1,0,3438,0,96,0, 
1.9133,81.3,-928.2,122.7,743.7,409.5,693.0,-438.9,244.8,1259.7,-1228.8,183.9,21.6,-1823.4,-2917.2,-1284.0,-166.2,-7.2,-5.4,-1065.3,-1751.1,-0.6,-513.0,-873.3,509.4,0,3444,0,97,0, 
1.9167,78.6,-930.6,119.7,735.9,410.7,691.5,-445.5,241.5,1778.4,-1233.3,187.5,14.4,-1832.7,-2928.3,-1295.7,-166.5,-6.9,-6.3,-1070.4,-1758.3,-0.9,-524.4,-874.2,504.9,0,3450,0,98,0, 
1.9200,78.9,-936.9,110.4,728.7,404.7,687.6,-448.8,238.5,1852.5,-1239.6,176.7,6.0,-1839.6,-2919.3,-1286.4,-164.1,-6.6,-5.7,-1079.4,-1761.0,-0.6,-534.6,-874.2,502.2,0,3456,0,99,0, 
1.9233,78.3,-936.0,109.5,724.2,394.2,685.5,-449.1,236.1,1556.1,-1240.8,177.3,8.7,-1836.6,-2915.4,-1278.9,-161.4,-7.2,-5.7,-1081.8,-1759.2,-0.6,-527.7,-880.8,503.4,0,3462,0,100,0, 
1.9267,79.2,-933.9,111.0,729.0,393.6,690.0,-445.5,241.2,1037.4,-1232.4,183.3,13.2,-1829.1,-2919.9,-1284.9,-157.8,-6.9,-5.7,-1074.0,-1755.3,-0.6,-524.4,-880.8,507.6,0,3468,0,101,0, 
1.9300,81.0,-934.2,102.6,724.2,393.0,688.2,-451.2,243.0,1333.8,-1246.2,168.3,0.6,-1834.2,-2913.0,-1275.9,-155.7,-6.9,-6.3,-1084.8,-1765.5,-0.6,-535.5,-883.2,503.7,0,3474,0,102,0, 
1.9333,77.7,-940.8,90.6,710.4,390.0,677.1,-446.7,237.3,1778.4,-1260.0,154.2,-6.9,-1842.6,-2910.6,-1265.7,-154.5,-6.9,-5.7,-1100.4,-1773.0,-0.6,-546.9,-891.0,492.3,0,3480,0,103,0, 
1.9367,77.4,-942.0,91.5,711.3,388.2,678.6,-453.9,233.7,1778.4,-1254.9,160.5,-7.5,-1847.1,-2913.0,-1275.0,-162.0,-6.9,-6.3,-1097.7,-1773.9,-0.6,-549.6,-873.3,492.9,0,3486,0,104,0, 
1.9400,82.2,-940.5,91.5,707.7,373.5,673.8,-449.4,230.7,1259.7,-1257.9,154.2,-14.4,-1844.1,-2892.6,-1251.3,-160.5,-6.6,-5.7,-1100.4,-1778.7,-0.3,-549.3,-891.0,492.0,0,3492,0,105,0, 
1.9433,78.9,-942.6,88.5,708.9,372.0,672.0,-460.5,231.6,1037.4,-1259.1,158.1,-14.4,-1851.9,-2909.1,-1257.6,-167.1,-6.6,-6.3,-1100.7,-1779.3,-0.6,-545.7,-891.6,492.3,0,3498,0,106,0, 
1.9467,81.6,-937.5,92.4,715.2,380.1,672.0,-461.1,233.7,1333.8,-1261.8,149.4,-16.5,-1844.4,-2902.8,-1260.0,-160.5,-6.9,-6.0,-1101.0,-1781.1,-0.6,-548.1,-895.5,490.5,0,3504,0,107,0, 
1.9500,78.6,-931.8,102.3,725.4,400.8,680.7,-446.7,241.8,1778.4,-1241.7,162.3,-0.6,-1840.5,-2920.5,-1290.0,-154.8,-6.9,-5.7,-1086.3,-1764.0,-0.3,-528.3,-874.8,506.7,0,3510,0,108,0, 
1.9533,74.1,-931.8,106.2,727.8,405.6,690.0,-438.9,242.1,1778.4,-1226.1,175.5,8.1,-1840.2,-2935.5,-1302.6,-149.1,-6.6,-6.0,-1073.7,-1752.9,-0.3,-515.1,-866.4,515.7,0,3516,0,109,0, 
1.9567,85.8,-922.8,120.0,736.5,404.1,693.9,-432.0,251.7,1482.0,-1215.9,182.7,16.2,-1828.2,-2930.7,-1285.8,-151.5,-6.9,-6.0,-1070.4,-1751.4,-0.6,-510.0,-859.8,517.8,0,3522,0,110,0, 
1.9600,78.3,-927.3,109.8,731.7,391.8,688.2,-444.9,244.8,1111.5,-1229.7,169.5,9.6,-1833.0,-2907.6,-1270.8,-162.6,-6.3,-5.7,-1078.8,-1756.5,-0.6,-520.2,-877.8,510.6,0,3528,0,111,0, 
1.9633,85.5,-928.5,108.9,728.7,399.3,686.1,-450.0,245.4,1333.8,-1228.8,172.2,10.8,-1828.2,-2886.9,-1265.7,-170.7,-6.6,-5.7,-1080.6,-1748.7,-0.6,-521.4,-878.7,507.9,0,3534,0,112,0, 
1.9667,84.9,-930.3,109.5,733.5,404.7,685.5,-444.3,248.7,1704.3,-1224.0,181.8,14.4,-1825.5,-2884.8,-1253.7,-152.7,-6.3,-6.3,-1074.0,-1748.7,-0.9,-521.7,-872.4,508.2,0,3540,0,113,0, 
1.9700,79.5,-929.4,110.7,731.7,407.7,691.5,-439.2,248.1,1852.5,-1216.5,187.2,19.5,-1824.6,-2898.6,-1274.4,-156.6,-6.6,-6.3,-1070.1,-1740.0,-0.6,-513.0,-866.1,514.5,0,3546,0,114,0, 
1.9733,79.8,-927.3,111.6,735.6,397.2,690.3,-447.0,249.6,1407.9,-1221.3,187.8,16.8,-1825.5,-2899.8,-1270.5,-157.2,-6.9,-6.0,-1070.1,-1743.3,-0.6,-510.0,-874.2,512.4,0,3552,0,115,0, 
1.9767,74.7,-930.0,108.9,733.5,391.5,681.6,-450.9,243.9,1037.4,-1223.7,185.1,15.0,-1832.1,-2909.4,-1285.5,-159.0,-6.6,-6.3,-1073.4,-1746.3,-0.3,-517.8,-880.5,505.8,0,3558,0,116,0, 
1.9800,75.3,-934.2,105.9,726.6,392.1,679.5,-451.8,239.1,1333.8,-1228.2,180.3,9.0,-1832.4,-2904.3,-1277.4,-156.9,-6.3,-5.7,-1073.1,-1756.8,-0.6,-525.3,-892.2,498.0,0,3564,0,117,0, 
1.9833,71.7,-939.6,98.4,723.9,393.9,672.3,-450.0,234.3,1778.4,-1241.4,171.3,0.3,-1835.4,-2916.9,-1274.1,-159.6,-6.9,-6.0,-1080.6,-1761.9,-0.3,-534.6,-888.6,492.0,0,3570,0,118,0, 
1.9867,71.4,-940.8,100.8,720.6,391.2,669.3,-456.6,231.3,1926.6,-1242.3,171.9,-5.4,-1840.8,-2905.8,-1263.9,-170.7,-6.9,-6.0,-1081.5,-1770.6,-0.3,-542.4,-894.9,489.0,0,3576,0,119,0, 
1.9900,79.8,-927.3,121.5,743.7,403.2,687.9,-439.2,247.2,1482.0,-1215.6,190.5,19.8,-1831.2,-2912.7,-1289.1,-166.2,-6.9,-5.7,-1059.3,-1747.2,-0.6,-507.9,-882.9,510.0,0,3582,0,120,0, 
1.9933,71.4,-937.8,109.2,729.6,382.8,672.3,-458.7,232.5,1037.4,-1238.1,168.6,0.6,-1840.5,-2919.9,-1285.8,-170.1,-6.6,-5.7,-1077.0,-1764.0,-0.3,-536.1,-898.8,494.4,0,3588,0,121,0, 
1.9967,66.9,-947.4,99.3,720.6,380.7,661.5,-461.4,224.4,1259.7,-1246.8,162.0,-9.3,-1846.5,-2918.1,-1284.3,-165.6,-6.3,-6.0,-1086.6,-1774.8,-0.6,-549.3,-903.0,484.2,0,3594,0,122,0, 
2.0000,79.2,-938.7,109.2,731.1,403.2,676.8,-452.1,233.7,1778.4,-1238.7,176.1,6.9,-1840.2,-2901.0,-1265.7,-153.0,-7.2,-6.0,-1075.8,-1757.1,-0.6,-532.5,-891.3,492.9,0,3600,0,123,0, 
2.0033,83.4,-936.0,114.6,734.4,404.7,678.9,-447.0,237.6,1852.5,-1228.8,178.2,7.2,-1833.6,-2898.9,-1265.1,-144.9,-6.9,-5.7,-1073.4,-1753.8,-0.9,-526.8,-886.5,499.2,0,3606,0,124,0, 
2.0067,92.4,-924.0,125.7,747.6,410.7,691.5,-449.1,238.2,1333.8,-1212.9,198.3,31.5,-1819.5,-2884.5,-1263.0,-165.3,-6.9,-5.7,-1055.7,-1737.0,-0.3,-512.4,-884.1,513.0,0,3612,0,125,0, 
2.0100,89.7,-926.4,126.0,749.7,410.7,692.4,-448.8,241.8,1037.4,-1212.3,205.8,30.3,-1819.8,-2899.5,-1275.9,-172.8,-6.9,-6.0,-1055.7,-1736.1,-0.6,-510.3,-881.4,515.1,0,3618,0,126,0, 
2.0133,86.1,-930.9,119.1,743.1,412.2,688.8,-448.8,238.5,1333.8,-1221.0,191.7,22.2,-1824.0,-2893.2,-1273.5,-171.0,-6.6,-6.0,-1067.7,-1741.2,-0.9,-513.0,-883.2,507.3,0,3624,0,127,0, 
2.0167,86.4,-930.9,117.0,744.9,421.2,690.3,-447.0,238.5,1778.4,-1217.1,196.8,24.3,-1825.5,-2899.8,-1279.5,-163.8,-6.9,-6.3,-1065.9,-1740.3,-0.9,-516.9,-886.5,508.5,0,3630,0,128,0, 
2.0200,84.9,-937.2,105.6,734.1,411.9,681.6,-447.0,228.0,1926.6,-1227.9,183.9,18.0,-1828.2,-2887.5,-1267.2,-162.3,-6.9,-6.3,-1074.3,-1742.7,-0.9,-520.5,-888.0,499.8,0,3636,0,129,0, 
2.0233,84.6,-932.7,113.1,735.0,401.4,685.2,-450.0,234.9,1482.0,-1227.3,183.9,22.8,-1824.9,-2891.1,-1271.7,-166.2,-6.3,-5.7,-1069.8,-1743.3,-0.9,-522.3,-881.4,504.6,0,3642,0,130,0, 
2.0267,87.3,-935.7,104.7,725.7,390.6,675.9,-450.6,233.1,1111.5,-1235.1,179.4,9.3,-1829.4,-2875.8,-1258.5,-170.1,-7.2,-6.3,-1077.6,-1755.9,-0.6,-531.3,-889.5,496.8,0,3648,0,131,0, 
2.0300,90.9,-932.1,106.5,729.9,403.2,685.2,-440.4,239.7,1333.8,-1229.4,192.0,17.1,-1827.0,-2889.3,-1263.6,-151.8,-6.6,-5.1,-1067.4,-1746.6,-0.6,-519.9,-885.9,501.3,0,3654,0,132,0, 
2.0333,80.4,-936.6,99.9,727.8,408.3,677.7,-444.9,232.8,1704.3,-1229.4,184.5,14.1,-1830.0,-2907.3,-1283.1,-150.0,-6.9,-6.3,-1070.4,-1754.4,-0.6,-530.4,-883.2,498.0,0,3660,0,133,0, 
2.0367,87.9,-936.6,102.9,723.0,395.7,672.6,-450.0,236.7,1852.5,-1233.6,177.0,5.7,-1828.2,-2888.4,-1269.0,-156.3,-6.6,-5.4,-1077.6,-1759.2,-0.6,-535.8,-893.4,488.4,0,3666,0,134,0, 
2.0400,88.2,-937.5,95.4,724.8,386.4,673.2,-452.7,235.2,1333.8,-1240.5,172.5,9.6,-1831.5,-2897.1,-1267.5,-174.9,-6.9,-6.0,-1083.9,-1756.5,-0.6,-535.2,-892.8,494.1,0,3672,0,135,0, 
2.0433,89.1,-932.7,105.0,729.6,392.7,682.2,-448.2,241.2,1111.5,-1226.4,177.9,17.4,-1830.9,-2895.0,-1278.6,-180.0,-6.9,-6.0,-1073.7,-1747.5,-0.6,-519.0,-884.7,502.2,0,3678,0,136,0, 
2.0467,80.7,-939.9,95.4,722.7,392.1,678.3,-453.9,237.9,1259.7,-1233.9,169.2,9.6,-1844.7,-2910.6,-1293.3,-186.0,-6.9,-6.0,-1084.5,-1752.6,-0.6,-522.3,-890.7,495.0,0,3684,0,137,0, 
2.0500,75.0,-949.8,83.7,709.2,389.4,663.9,-456.6,230.4,1778.4,-1245.9,166.2,-1.8,-1851.3,-2903.1,-1272.0,-181.8,-6.9,-6.0,-1091.7,-1764.3,-0.6,-543.6,-897.3,485.4,0,3690,0,138,0, 
2.0533,73.8,-953.1,84.3,710.1,388.8,666.0,-449.7,229.5,1852.5,-1250.1,164.1,-3.6,-1852.8,-2904.3,-1263.9,-172.8,-6.6,-6.0,-1095.6,-1766.4,-0.3,-547.8,-887.4,486.0,0,3696,0,139,0, 
2.0567,80.7,-941.4,98.4,725.1,401.1,684.6,-438.6,240.3,1482.0,-1232.7,179.4,17.4,-1840.8,-2919.3,-1289.1,-171.6,-6.6,-5.7,-1078.5,-1742.7,-0.9,-516.9,-876.9,508.2,0,3702,0,140,0, 
2.0600,87.3,-937.2,100.5,728.1,401.1,690.9,-435.3,244.5,1037.4,-1227.3,174.9,18.6,-1833.3,-2913.3,-1278.0,-174.0,-6.9,-6.0,-1079.4,-1743.6,-0.6,-513.6,-884.4,508.5,0,3708,0,141,0, 
2.0633,75.6,-944.4,99.0,721.2,405.9,687.6,-439.8,241.8,1407.9,-1226.4,184.5,19.5,-1841.4,-2930.4,-1305.0,-159.0,-6.9,-6.0,-1075.5,-1745.4,-0.3,-513.6,-877.5,510.0,0,3714,0,142,0, 
2.0667,76.5,-947.4,92.7,719.4,402.6,683.4,-443.4,238.5,1778.4,-1234.8,182.4,10.8,-1842.0,-2925.3,-1283.1,-157.5,-6.9,-5.7,-1076.7,-1753.2,-0.6,-526.2,-878.7,502.2,0,3720,0,143,0, 
2.0700,79.8,-942.0,92.1,715.2,399.6,685.2,-446.1,243.6,1778.4,-1236.3,175.2,9.9,-1838.4,-2910.3,-1270.8,-165.0,-6.6,-6.3,-1084.2,-1750.8,-0.9,-528.3,-877.5,507.0,0,3726,0,144,0, 
2.0733,79.5,-945.6,81.9,710.1,384.3,681.0,-442.2,239.1,1333.8,-1254.3,151.2,-10.5,-1845.6,-2907.6,-1269.9,-159.0,-6.6,-5.7,-1110.6,-1772.1,-0.9,-533.4,-881.1,495.9,0,3732,0,145,0, 
2.0767,85.2,-938.4,92.1,723.0,386.1,681.0,-439.2,243.6,963.3,-1239.9,162.9,-8.7,-1836.9,-2904.9,-1269.3,-153.0,-6.9,-5.7,-1091.1,-1773.0,-1.2,-534.6,-876.3,498.3,0,3738,0,146,0, 
2.0800,83.7,-933.3,103.8,731.7,398.4,687.9,-441.6,245.7,1407.9,-1215.0,199.2,24.0,-1827.9,-2905.8,-1282.8,-156.3,-6.3,-5.7,-1050.9,-1746.9,-0.6,-511.8,-877.5,509.1,0,3744,0,147,0, 
2.0833,82.2,-932.1,108.0,732.3,405.3,684.3,-437.4,252.6,1778.4,-1216.2,192.6,27.3,-1827.9,-2899.5,-1274.7,-161.1,-6.9,-6.0,-1053.6,-1744.8,-1.2,-504.0,-876.3,510.3,0,3750,0,148,0, 
2.0867,79.8,-939.9,95.1,717.3,390.9,675.0,-444.9,240.9,1852.5,-1227.9,173.4,0.3,-1839.6,-2900.7,-1263.9,-166.8,-6.6,-5.7,-1071.3,-1776.3,-0.9,-526.2,-883.8,495.6,0,3756,0,149,0, 
2.0900,83.7,-940.5,90.0,713.4,370.8,663.9,-452.7,234.9,1333.8,-1237.2,169.8,-14.7,-1835.1,-2880.3,-1238.7,-164.4,-6.9,-6.0,-1075.2,-1794.3,-0.9,-545.7,-891.3,484.8,0,3762,0,150,0, 
2.0933,93.6,-930.0,109.2,732.3,390.3,679.8,-438.6,251.4,1111.5,-1218.6,191.4,7.5,-1822.8,-2877.9,-1243.5,-150.0,-6.6,-6.0,-1055.1,-1775.1,-0.3,-526.5,-880.8,499.2,0,3768,0,151,0, 
2.0967,85.2,-925.5,116.4,744.3,411.0,686.1,-434.1,253.8,1333.8,-1209.0,195.3,20.1,-1818.9,-2897.4,-1295.4,-153.3,-6.9,-6.0,-1053.0,-1762.5,-0.3,-509.4,-871.5,516.9,0,3774,0,152,0, 
2.1000,81.3,-932.1,107.1,730.5,407.4,681.3,-437.4,252.0,1778.4,-1221.6,184.8,8.4,-1827.3,-2898.9,-1276.5,-151.5,-6.6,-5.7,-1059.3,-1775.1,-0.9,-522.6,-873.6,510.3,0,3780,0,153,0, 
2.1033,81.0,-935.4,102.0,724.8,402.0,677.1,-443.4,241.8,2000.7,-1226.4,186.6,3.3,-1832.4,-2892.0,-1265.7,-156.6,-6.3,-6.0,-1061.4,-1775.7,-1.2,-528.9,-871.2,501.0,0,3786,0,154,0, 
2.1067,87.3,-928.8,109.5,733.2,404.1,686.4,-435.6,250.8,1407.9,-1216.2,197.4,16.5,-1824.3,-2908.8,-1272.6,-157.2,-6.6,-6.3,-1046.4,-1767.6,-0.9,-511.5,-880.5,507.6,0,3792,0,155,0, 
2.1100,89.4,-930.3,115.5,732.0,394.8,683.4,-433.2,251.7,889.2,-1216.5,192.3,13.2,-1830.0,-2912.4,-1281.9,-160.8,-6.9,-6.0,-1054.2,-1772.7,-0.6,-517.5,-870.6,507.0,0,3798,0,156,0, 
2.1133,85.8,-932.7,111.0,727.2,394.8,681.6,-433.5,256.2,1407.9,-1223.1,183.3,3.9,-1829.4,-2911.2,-1263.6,-156.3,-6.9,-6.0,-1060.5,-1783.2,-0.9,-523.5,-875.4,504.0,0,3804,0,157,0, 
2.1167,78.0,-944.7,94.2,708.0,382.8,669.0,-446.1,234.6,1704.3,-1237.5,165.3,-12.0,-1846.2,-2902.2,-1262.1,-172.5,-7.2,-6.3,-1074.3,-1793.7,-0.9,-538.2,-892.5,489.6,0,3810,0,158,0, 
2.1200,75.9,-936.9,104.7,721.8,390.0,682.2,-437.7,245.1,1778.4,-1222.5,178.2,0.6,-1840.5,-2911.8,-1285.2,-164.4,-6.9,-5.7,-1065.6,-1785.0,-0.6,-520.5,-876.9,500.7,0,3816,0,159,0, 
2.1233,81.9,-931.8,110.1,723.3,387.9,688.8,-438.3,246.0,1407.9,-1219.5,178.5,4.5,-1837.2,-2908.8,-1273.5,-156.3,-6.9,-6.0,-1063.5,-1773.0,-0.3,-515.1,-865.5,507.0,0,3822,0,160,0, 
2.1267,83.4,-928.5,110.7,728.1,385.8,687.9,-431.7,250.5,1037.4,-1216.5,187.5,9.6,-1836.6,-2919.3,-1281.6,-154.8,-6.9,-6.0,-1055.7,-1771.8,-0.6,-519.3,-876.9,507.0,0,3828,0,161,0, 
2.1300,81.9,-929.7,111.0,730.2,398.7,690.9,-432.3,251.7,1333.8,-1212.9,180.0,6.0,-1834.8,-2913.9,-1295.4,-157.8,-6.9,-6.0,-1057.8,-1769.4,-0.6,-519.6,-869.7,509.4,0,3834,0,162,0, 
2.1333,81.9,-939.6,99.3,720.0,391.8,676.2,-441.0,242.7,1778.4,-1234.2,169.8,-3.9,-1844.7,-2895.3,-1260.3,-154.8,-6.9,-5.7,-1069.8,-1784.4,-0.9,-526.8,-891.9,496.5,0,3840,0,163,0, 
2.1367,84.9,-936.0,91.5,714.6,386.7,672.3,-438.6,238.2,1778.4,-1234.2,179.1,-5.1,-1843.5,-2884.2,-1254.0,-148.5,-7.2,-6.0,-1065.6,-1788.6,-0.9,-543.6,-888.3,489.6,0,3846,0,164,0, 
2.1400,78.3,-931.5,102.6,722.4,389.4,678.3,-436.5,243.6,1333.8,-1215.9,188.7,5.7,-1842.0,-2916.0,-1292.4,-152.7,-6.6,-5.7,-1056.3,-1773.9,-0.9,-522.0,-876.3,502.5,0,3852,0,165,0, 
2.1433,74.7,-933.9,102.3,719.4,389.4,677.4,-442.5,246.3,1111.5,-1221.0,182.7,3.0,-1843.8,-2911.8,-1289.4,-162.3,-6.9,-6.3,-1060.5,-1778.4,-0.6,-525.6,-881.1,499.2,0,3858,0,166,0, 
2.1467,80.1,-941.1,95.4,718.5,390.9,676.5,-443.4,241.8,1407.9,-1227.0,177.6,-5.1,-1844.4,-2905.5,-1280.1,-161.1,-6.9,-6.3,-1065.0,-1781.1,-0.9,-529.2,-882.9,496.5,0,3864,0,167,0, 
2.1500,79.5,-941.7,98.1,718.5,393.9,669.9,-444.6,240.3,1926.6,-1229.1,177.6,0.0,-1848.9,-2900.1,-1266.6,-158.1,-6.6,-6.0,-1068.6,-1783.5,-0.6,-528.9,-883.8,492.9,0,3870,0,168,0, 
2.1533,81.6,-937.2,101.4,725.1,399.9,675.9,-438.6,243.9,1778.4,-1221.9,183.0,3.9,-1843.5,-2901.3,-1263.6,-148.8,-7.2,-6.0,-1065.3,-1776.3,-0.9,-531.6,-881.1,499.2,0,3876,0,169,0, 
2.1567,80.4,-931.2,111.6,734.7,398.7,681.6,-431.7,252.3,1407.9,-1215.6,192.0,10.8,-1840.5,-2909.4,-1287.9,-150.3,-6.6,-5.7,-1053.0,-1770.6,-0.9,-522.0,-861.0,506.4,0,3882,0,170,0, 
2.1600,86.7,-928.2,115.2,736.5,399.6,679.8,-437.7,255.0,963.3,-1218.9,195.6,9.9,-1838.7,-2911.5,-1277.4,-153.0,-6.6,-6.0,-1051.5,-1773.0,-1.2,-529.2,-876.9,501.9,0,3888,0,171,0, 
2.1633,81.0,-940.2,101.1,720.0,390.3,666.9,-447.6,242.7,1259.7,-1235.7,172.2,-4.2,-1846.5,-2912.1,-1273.2,-165.0,-7.2,-5.4,-1068.6,-1787.4,-0.6,-539.1,-880.5,491.1,0,3894,0,172,0, 
2.1667,80.1,-942.0,94.2,714.0,387.6,662.4,-449.7,237.9,1926.6,-1243.8,161.7,-14.4,-1848.6,-2903.1,-1262.4,-160.8,-6.9,-5.7,-1079.7,-1789.5,-1.2,-552.0,-897.6,479.4,0,3900,0,173,0, 
2.1700,87.3,-933.9,102.3,722.1,393.0,670.5,-451.5,245.1,1852.5,-1231.2,173.4,5.7,-1842.0,-2903.4,-1268.1,-180.0,-6.9,-6.0,-1065.3,-1775.4,-0.6,-534.6,-890.4,491.4,0,3906,0,174,0, 
2.1733,88.2,-934.5,102.0,722.7,385.5,671.4,-446.1,246.3,1482.0,-1238.4,177.6,-6.3,-1841.1,-2895.3,-1267.2,-171.3,-6.6,-6.0,-1067.4,-1784.4,-0.9,-543.3,-894.3,488.7,0,3912,0,175,0, 
2.1767,90.9,-930.3,98.1,720.6,381.3,674.4,-445.2,241.8,963.3,-1232.1,177.9,-3.9,-1839.3,-2896.8,-1260.0,-161.1,-6.9,-5.7,-1069.2,-1784.1,-0.6,-539.7,-892.8,492.9,0,3918,0,176,0, 
2.1800,78.3,-936.3,92.1,714.3,383.4,670.8,-445.2,237.6,1407.9,-1237.8,177.3,-6.3,-1848.0,-2916.0,-1287.3,-156.9,-6.9,-5.7,-1074.3,-1786.8,-0.9,-543.0,-889.5,489.6,0,3924,0,177,0, 
2.1833,80.1,-937.8,87.0,716.7,391.5,670.5,-442.2,234.0,1704.3,-1235.4,178.2,-2.7,-1843.5,-2908.8,-1272.0,-188.1,-6.6,-6.0,-1070.7,-1779.0,-0.9,-534.9,-885.3,494.4,0,3930,0,178,0, 
2.1867,83.4,-944.4,78.9,703.8,378.9,660.6,-448.8,228.9,2000.7,-1248.9,163.5,-15.3,-1848.0,-2897.4,-1259.4,-177.3,-6.9,-6.0,-1083.9,-1797.9,-0.9,-563.4,-903.6,478.5,0,3936,0,179,0, 
2.1900,84.3,-938.1,81.9,702.9,368.4,659.7,-448.8,226.2,1407.9,-1251.0,147.9,-21.0,-1847.7,-2887.2,-1256.4,-162.9,-6.9,-6.0,-1092.6,-1802.4,-0.9,-562.2,-892.5,477.3,0,3942,0,180,0, 
2.1933,80.7,-936.3,84.0,711.3,374.1,670.5,-435.9,237.3,1111.5,-1241.7,161.4,-13.2,-1852.8,-2911.2,-1285.2,-162.6,-6.6,-5.7,-1084.5,-1785.9,-0.6,-550.2,-872.4,490.8,0,3948,0,181,0, 
2.1967,73.8,-941.7,84.3,711.0,379.8,674.1,-444.9,237.6,1333.8,-1242.0,169.2,-8.7,-1857.0,-2920.8,-1289.7,-160.2,-7.2,-5.7,-1081.5,-1787.7,-0.9,-540.6,-881.4,492.0,0,3954,0,182,0, 
2.2000,69.6,-940.8,83.1,714.0,389.4,671.7,-437.4,237.3,1778.4,-1240.2,166.2,-10.5,-1857.6,-2925.3,-1302.6,-162.0,-7.2,-6.0,-1083.3,-1791.3,-0.9,-547.5,-897.3,485.1,0,3960,0,183,0, 
2.2033,67.2,-942.6,81.9,715.8,389.1,670.2,-444.9,229.2,1778.4,-1250.7,159.0,-12.9,-1858.5,-2915.1,-1286.4,-164.1,-7.2,-5.7,-1090.2,-1797.0,-0.6,-545.4,-886.8,489.0,0,3966,0,184,0, 
2.2067,70.5,-940.8,80.7,716.1,379.2,671.7,-442.8,231.3,1482.0,-1257.9,163.2,-11.1,-1863.6,-2901.6,-1275.3,-162.9,-6.9,-5.4,-1087.8,-1786.8,-0.9,-548.4,-888.6,485.4,0,3972,0,185,0, 
2.2100,76.5,-929.7,95.1,731.7,388.2,680.1,-447.0,247.8,1259.7,-1239.9,174.3,-0.6,-1850.1,-2914.5,-1287.9,-154.2,-6.6,-6.0,-1071.6,-1776.6,-0.6,-540.9,-885.9,494.7,0,3978,0,186,0, 
2.2133,75.0,-931.5,88.2,723.9,385.5,673.2,-442.2,243.0,1259.7,-1245.3,165.9,-4.2,-1854.0,-2909.7,-1289.4,-160.5,-6.6,-5.7,-1081.8,-1780.5,-0.9,-540.3,-893.7,488.1,0,3984,0,187,0, 
2.2167,67.2,-937.5,85.2,721.5,386.1,670.8,-448.5,233.7,1704.3,-1247.1,166.2,-8.4,-1858.2,-2912.1,-1285.2,-154.8,-6.6,-6.0,-1082.4,-1786.2,-0.6,-546.6,-888.9,485.1,0,3990,0,188,0, 
