Time,P3,C3,F3,Fz,F4,C4,P4,Cz,CM,A1,Fp1,Fp2,T3,T5,O1,O2,X3,X2,F7,F8,X1,A2,T6,T4,Trigger,Time_Offset,ADC_Status,ADC_Sequence,Event,Comments
0.0033,-561.9,-676.2,-2464.5,-324.6,-245.1,454.2,-405.0,-134.1,-2445.3,-253.8,-352.2,-440.7,147.9,-9827.4,-477.0,-4097.4,-6.9,-6.0,-720.0,-1406.7,-0.6,-289.2,917.1,1785.6,0,6,0,16,0, 
0.0067,-491.7,-597.0,-2422.2,452.4,530.7,210.6,364.8,-204.6,-2148.9,512.4,426.9,337.2,243.9,-9827.4,-1278.9,-3934.8,-6.6,-6.3,56.7,-544.8,-0.9,484.8,885.3,2410.8,0,12,0,17,0, 
0.0100,-483.6,-567.0,-2401.5,830.4,912.9,-20.7,748.8,-226.2,-1926.6,897.9,804.0,714.0,218.1,-9827.4,-2336.4,-3810.0,-7.2,-5.7,432.0,308.1,-0.6,874.5,790.2,2762.1,0,18,0,18,0, 
0.0133,-466.5,-589.5,-2393.4,344.7,430.5,128.1,265.8,-138.0,-1852.5,420.3,319.8,228.0,62.7,-9827.4,-2073.9,-3818.7,-6.9,-6.3,-48.9,-39.0,-0.6,379.8,798.0,2418.0,0,24,0,19,0, 
0.0167,-666.3,-663.0,-2442.6,-341.4,-260.1,394.5,-421.2,-84.9,-2148.9,-277.5,-373.2,-460.2,46.8,-9827.4,-939.3,-3922.2,-7.5,-5.7,-739.8,-1192.5,-1.2,-308.4,895.8,1848.3,0,30,0,20,0, 
0.0200,-672.3,-618.9,-2497.5,-313.8,-233.7,407.7,-399.0,-174.3,-2371.2,-243.6,-343.2,-428.7,37.5,-9827.4,-337.5,-4029.9,-6.6,-5.7,-712.5,-1561.2,-0.6,-275.4,957.0,1825.8,0,36,0,21,0, 
0.0233,-565.5,-616.5,-2568.3,465.0,548.4,272.4,382.8,-144.0,-2148.9,535.8,441.9,358.5,138.6,-9827.4,-1120.8,-3909.0,-6.9,-6.0,73.8,-442.2,-0.9,509.1,959.1,2460.0,0,42,0,22,0, 
0.0267,-462.3,-581.4,-2582.7,862.8,951.0,157.2,780.0,-111.9,-1852.5,919.2,839.7,756.9,31.5,-9827.4,-2259.6,-3802.2,-6.9,-6.0,467.1,643.2,-1.2,901.8,892.5,2844.0,0,48,0,23,0, 
0.0300,-521.1,-639.9,-2602.8,297.6,379.5,301.2,212.1,-50.1,-2000.7,363.3,275.7,190.2,-61.5,-9827.4,-2052.0,-3801.9,-6.9,-6.0,-96.3,-30.3,0.0,348.3,950.1,2416.5,0,54,0,24,0, 
0.0333,-681.0,-698.4,-2643.0,-442.2,-363.3,454.5,-526.8,-65.7,-2371.2,-384.0,-471.3,-555.9,-46.5,-9827.4,-813.6,-3976.8,-6.6,-5.7,-840.6,-1514.7,-0.6,-401.1,1001.1,1722.3,0,60,0,25,0, 
0.0367,-763.5,-674.1,-2610.0,-471.9,-391.2,449.4,-558.0,-197.4,-2593.5,-403.5,-497.1,-583.5,135.9,-9827.4,-116.4,-4077.0,-6.9,-6.0,-863.7,-1892.7,-0.6,-433.8,1072.8,1678.8,0,66,0,26,0, 
0.0400,-599.4,-557.7,-2561.1,386.1,465.3,252.9,291.9,-153.9,-2223.0,463.2,360.9,276.9,229.8,-9827.4,-816.9,-3945.3,-7.2,-6.3,-3.9,-358.5,-0.6,427.8,1119.0,2379.3,0,72,0,27,0, 
0.0433,-491.4,-452.7,-2523.0,965.1,1043.7,206.7,868.5,-90.6,-2000.7,1038.0,941.7,851.4,125.4,-9827.4,-2017.2,-3717.0,-6.9,-6.3,572.7,896.7,-0.6,1003.8,1063.5,2948.7,0,78,0,28,0, 
0.0467,-585.0,-509.7,-2545.8,396.9,482.1,363.6,313.2,15.0,-1852.5,456.0,371.1,285.3,80.7,-9827.4,-1813.2,-3702.3,-7.2,-6.0,1.8,30.0,-0.6,434.4,1021.8,2485.8,0,84,0,29,0, 
0.0500,-789.0,-570.6,-2572.2,-412.8,-333.3,466.8,-494.7,-23.4,-2371.2,-354.3,-443.4,-531.0,89.7,-9827.4,-522.9,-3893.7,-6.9,-5.7,-813.0,-1856.7,-0.6,-380.1,1110.6,1800.6,0,90,0,30,0, 
0.0533,-841.2,-633.0,-2611.8,-430.2,-347.7,353.4,-512.1,-134.7,-2445.3,-363.6,-458.7,-546.3,327.0,-9827.4,258.3,-3998.4,-6.6,-5.7,-825.9,-2121.6,-0.6,-396.3,1124.1,1732.2,0,96,0,31,0, 
0.0567,-650.4,-599.7,-2663.1,466.8,544.5,196.5,379.2,-125.7,-2223.0,522.9,438.0,351.3,326.1,-9827.4,-710.7,-3850.8,-6.9,-5.4,67.2,-218.1,-0.6,498.3,1101.6,2496.0,0,102,0,32,0, 
0.0600,-532.8,-600.9,-2741.7,968.1,1048.2,164.1,882.3,-99.3,-1926.6,1038.0,945.6,852.0,43.5,-9827.4,-2025.0,-3651.9,-6.9,-6.3,574.2,1171.5,-0.6,998.7,1079.1,2986.2,0,108,0,33,0, 
0.0633,-629.4,-628.5,-2881.5,363.3,437.1,218.1,278.1,-92.4,-1852.5,424.2,333.0,239.1,-216.3,-9827.4,-1877.4,-3708.3,-6.9,-5.4,-36.9,-203.1,-0.6,389.1,1085.7,2518.2,0,114,0,34,0, 
0.0667,-750.9,-681.3,-2901.3,-494.1,-407.7,285.3,-573.9,-108.3,-2445.3,-441.9,-528.6,-618.9,-47.1,-9827.4,-369.0,-3893.4,-6.6,-6.3,-896.7,-2259.9,-0.9,-471.9,1068.3,1752.6,0,120,0,35,0, 
0.0700,-786.9,-753.6,-2976.9,-544.5,-465.6,207.3,-628.2,-151.2,-2741.7,-492.3,-579.3,-671.7,156.9,-9827.4,417.0,-4075.8,-6.6,-6.0,-949.2,-2427.3,-0.9,-525.9,1151.1,1656.3,0,126,0,36,0, 
0.0733,-721.5,-801.9,-3085.5,290.1,365.4,17.7,201.0,-258.6,-2445.3,351.9,273.9,185.1,150.9,-9827.4,-647.7,-3956.7,-6.9,-6.0,-97.8,-165.3,-0.9,313.8,1174.5,2369.4,0,132,0,37,0, 
0.0767,-694.2,-814.2,-3182.4,739.2,821.1,42.0,660.9,-209.4,-2000.7,789.3,725.7,642.0,-180.3,-9827.4,-2013.3,-3875.7,-7.2,-6.0,347.4,1255.8,-0.6,767.7,1145.7,2790.9,0,138,0,38,0, 
0.0800,-695.1,-812.4,-3198.9,196.5,274.8,125.1,112.8,-20.7,-2000.7,243.9,188.7,94.5,-267.0,-9827.4,-1766.1,-3892.5,-6.9,-6.0,-188.7,-172.2,-0.9,213.0,1077.0,2365.8,0,144,0,39,0, 
0.0833,-816.3,-831.3,-3180.9,-661.8,-582.6,220.2,-742.2,-4.8,-2445.3,-619.5,-671.7,-763.8,-130.2,-9827.4,-207.9,-4022.1,-6.9,-6.0,-1050.0,-2436.0,-0.6,-647.4,1199.7,1636.5,0,150,0,40,0, 
0.0867,-817.8,-891.0,-3186.3,-702.6,-624.6,120.6,-802.5,-24.0,-2593.5,-645.6,-701.4,-791.1,266.7,-9827.4,763.2,-4158.6,-7.5,-5.7,-1078.8,-2515.5,-1.2,-687.6,1277.7,1549.2,0,156,0,41,0, 
0.0900,-717.9,-899.4,-3188.4,172.2,251.1,4.2,79.5,-121.2,-2741.7,229.5,175.2,84.9,219.6,-9827.4,-333.0,-4069.8,-7.2,-5.7,-204.9,-135.9,-0.6,192.0,1272.6,2281.2,0,162,0,42,0, 
0.0933,-605.1,-909.3,-3337.2,710.1,790.2,34.5,612.9,-134.7,-2148.9,765.9,716.1,624.0,-59.7,-9827.4,-1845.9,-3891.6,-6.9,-5.7,336.0,1373.7,-0.9,723.3,1300.5,2818.5,0,168,0,43,0, 
0.0967,-579.3,-892.8,-3355.8,151.8,228.9,195.6,49.5,1.2,-2000.7,215.4,161.1,73.2,-142.2,-9827.4,-1557.0,-3827.4,-6.6,-5.4,-217.5,-237.0,-1.2,168.0,1251.3,2409.3,0,174,0,44,0, 
0.1000,-685.5,-867.3,-3315.3,-681.9,-605.4,252.0,-782.4,4.8,-2445.3,-632.1,-677.4,-770.7,124.8,-9827.4,24.6,-4085.1,-6.6,-6.0,-1053.6,-2582.4,-0.6,-678.3,1167.3,1711.5,0,180,0,45,0, 
0.1033,-664.5,-805.2,-3197.7,-698.7,-620.1,243.9,-804.6,91.8,-2593.5,-658.8,-700.5,-791.7,549.9,-9827.4,965.1,-4188.6,-6.9,-6.0,-1071.9,-2583.6,-0.3,-703.2,1197.6,1664.4,0,186,0,46,0, 
0.1067,-506.7,-752.7,-3186.0,184.8,258.6,88.2,88.5,48.9,-2519.4,232.8,183.0,93.9,507.9,-9827.4,-88.5,-4041.0,-6.9,-5.7,-198.6,-64.2,-0.9,192.3,1276.8,2452.5,0,192,0,47,0, 
0.1100,-374.1,-830.4,-3331.2,682.2,757.5,139.8,582.0,52.2,-2148.9,738.3,684.3,592.5,93.6,-9827.4,-1633.8,-3864.0,-6.9,-6.0,300.9,1501.2,-0.3,689.7,1227.3,3001.5,0,198,0,48,0, 
0.1133,-441.6,-780.0,-3363.9,108.9,192.6,219.3,15.0,163.5,-2000.7,158.4,111.0,21.0,-69.6,-9827.4,-1425.3,-3877.2,-6.9,-5.7,-269.7,-84.6,-0.6,125.7,1200.3,2549.7,0,204,0,49,0, 
0.1167,-564.3,-715.2,-3316.5,-867.3,-785.7,273.0,-958.8,138.9,-2593.5,-813.9,-867.9,-961.5,169.2,-9827.4,203.4,-4116.9,-6.9,-6.0,-1246.8,-2653.5,-0.3,-855.6,1136.1,1662.9,0,210,0,50,0, 
0.1200,-622.5,-679.2,-3216.0,-916.8,-832.8,122.4,-1006.8,84.3,-2964.0,-855.6,-913.2,-999.9,572.4,-9827.4,1169.1,-4321.5,-6.9,-6.3,-1290.0,-2754.9,-0.9,-888.0,1127.7,1551.6,0,216,0,51,0, 
0.1233,-543.6,-727.5,-3201.9,24.0,99.3,29.7,-72.0,-6.9,-2667.6,86.4,27.9,-65.4,566.1,-9827.4,42.9,-4228.2,-6.6,-6.3,-353.4,169.8,-0.6,41.7,1121.7,2405.1,0,222,0,52,0, 
0.1267,-465.0,-765.9,-3265.5,601.8,680.4,171.0,507.9,18.6,-2074.8,662.1,604.2,510.9,195.3,-9827.4,-1583.1,-4029.0,-7.5,-6.0,223.2,1867.5,-0.3,621.3,1213.2,2976.3,0,228,0,53,0, 
0.1300,-550.8,-687.9,-3262.5,-9.3,71.1,418.5,-99.9,82.8,-2223.0,46.2,-4.2,-100.8,70.2,-9827.4,-1294.5,-4031.7,-6.9,-6.3,-382.5,-18.0,-0.9,9.0,1206.0,2530.2,0,234,0,54,0, 
0.1333,-687.3,-734.7,-3267.6,-929.1,-845.4,357.0,-1025.7,-49.8,-2741.7,-878.4,-929.4,-1024.5,287.4,-9827.4,456.6,-4226.4,-6.6,-6.0,-1304.7,-2980.5,-0.6,-912.9,1052.4,1674.9,0,240,0,55,0, 
0.1367,-647.1,-642.9,-3077.1,-945.3,-870.0,303.6,-1040.1,-69.0,-2815.8,-886.5,-945.6,-1043.1,700.2,-9827.4,1511.7,-4348.5,-6.9,-5.7,-1320.9,-2845.5,-0.6,-938.7,999.0,1606.2,0,246,0,56,0, 
0.1400,-641.7,-829.5,-3235.8,-76.5,1.2,163.8,-167.1,-71.7,-2667.6,-5.1,-70.8,-166.2,573.6,-9827.4,354.3,-4300.5,-6.9,-6.0,-448.5,258.9,-0.9,-60.3,949.5,2296.8,0,252,0,57,0, 
0.1433,-550.8,-890.1,-3266.4,490.8,572.7,462.9,399.0,-11.4,-2223.0,553.5,500.4,407.1,216.6,-9827.4,-1286.4,-4146.0,-6.9,-5.7,116.1,2119.8,-0.6,516.3,1037.7,2922.6,0,258,0,58,0, 
0.1467,-687.6,-930.9,-3312.0,-170.7,-88.2,624.6,-260.4,39.9,-2371.2,-111.9,-165.0,-265.2,12.9,-9827.4,-955.2,-4123.2,-6.9,-6.0,-542.7,-42.3,-0.3,-156.3,935.1,2381.4,0,264,0,59,0, 
0.1500,-751.8,-855.0,-3159.6,-1118.7,-1035.6,564.9,-1205.1,32.7,-2741.7,-1066.2,-1115.4,-1214.1,399.3,-9827.4,1015.8,-4352.1,-6.9,-5.7,-1492.8,-3130.8,-0.6,-1101.6,933.3,1570.5,0,270,0,60,0, 
0.1533,-759.6,-701.4,-2943.3,-1067.7,-980.7,487.5,-1156.2,97.8,-2964.0,-1002.9,-1063.5,-1159.5,1004.4,-9827.4,2249.1,-4426.2,-6.6,-6.0,-1440.0,-2856.6,-0.9,-1038.3,969.3,1540.5,0,276,0,61,0, 
0.1567,-692.1,-814.2,-3074.4,-31.5,51.9,407.1,-125.7,0.3,-2667.6,36.6,-24.9,-120.3,882.3,-9827.4,913.8,-4301.1,-6.6,-6.0,-405.6,546.6,-1.2,-5.4,906.3,2404.8,0,282,0,62,0, 
0.1600,-740.1,-1046.1,-3256.5,496.5,580.8,531.3,398.7,-8.4,-2297.1,552.0,498.6,402.6,320.1,-9827.4,-880.2,-4156.8,-6.9,-6.3,116.7,2459.1,-0.9,512.4,865.5,2976.6,0,288,0,63,0, 
0.1633,-756.9,-1031.1,-3294.6,-188.4,-104.4,688.2,-281.1,75.6,-2593.5,-135.6,-186.3,-283.8,210.0,-9827.4,-461.4,-4099.2,-6.9,-6.0,-565.8,-75.9,-0.3,-177.3,881.1,2492.4,0,294,0,64,0, 
0.1667,-847.2,-894.9,-3144.6,-1283.4,-1196.4,576.3,-1362.9,59.7,-2889.9,-1221.9,-1278.0,-1377.6,650.7,-9827.4,1618.5,-4410.0,-6.9,-6.0,-1653.0,-3273.0,-0.9,-1270.8,864.9,1515.3,0,300,0,65,0, 
0.1700,-847.2,-913.5,-2982.3,-1328.1,-1242.3,378.9,-1410.0,-18.9,-3186.3,-1269.3,-1327.5,-1429.2,1122.3,-9827.4,2728.5,-4596.6,-7.2,-6.0,-1701.0,-2977.2,-0.9,-1314.0,859.2,1352.1,0,306,0,66,0, 
0.1733,-690.0,-867.0,-2993.7,-261.6,-176.4,447.6,-348.0,-19.2,-3112.2,-203.4,-263.7,-360.6,1029.3,-9827.4,1380.0,-4404.3,-7.2,-5.7,-643.5,782.7,-0.6,-243.0,939.6,2296.2,0,312,0,67,0, 
0.1767,-577.8,-961.5,-3120.3,405.9,496.8,605.7,320.1,64.2,-2445.3,458.4,409.8,311.7,523.5,-9827.4,-417.9,-4136.7,-6.9,-5.7,26.1,2528.7,-0.3,436.5,1005.3,2967.9,0,318,0,68,0, 
0.1800,-647.1,-970.5,-3216.6,-346.2,-256.2,708.9,-427.8,66.3,-2519.4,-291.6,-346.2,-445.5,293.4,-9827.4,-165.9,-4143.9,-7.2,-6.3,-724.8,-261.6,-0.9,-323.4,966.9,2347.5,0,324,0,69,0, 
0.1833,-782.1,-939.0,-3159.9,-1422.9,-1335.3,624.9,-1503.3,105.0,-3038.1,-1372.2,-1423.2,-1521.9,716.1,-9827.4,1840.5,-4430.4,-6.6,-6.0,-1799.7,-3517.5,-0.6,-1406.7,900.6,1360.5,0,330,0,70,0, 
0.1867,-773.7,-899.1,-3022.2,-1470.9,-1384.8,435.6,-1553.4,64.8,-3408.6,-1411.2,-1472.1,-1567.8,1131.3,-9827.4,2883.3,-4662.3,-6.9,-5.4,-1842.0,-3247.8,-0.9,-1459.8,968.1,1219.2,0,336,0,71,0, 
0.1900,-577.8,-933.9,-3106.5,-436.2,-352.2,425.4,-519.3,32.1,-3186.3,-379.8,-436.8,-536.1,974.1,-9827.4,1476.6,-4560.6,-7.2,-6.0,-812.7,639.0,-0.3,-415.2,976.5,2132.7,0,342,0,72,0, 
0.1933,-351.9,-967.5,-3162.3,201.6,289.2,757.8,111.3,116.4,-2667.6,254.4,201.9,106.5,412.2,-9827.4,-462.6,-4284.3,-6.6,-5.7,-179.1,2425.5,-0.9,232.5,1086.9,2784.9,0,348,0,73,0, 
0.1967,-330.3,-855.3,-3134.1,-523.5,-433.2,949.2,-605.7,153.3,-2667.6,-468.6,-525.3,-620.4,240.9,-9827.4,-220.2,-4326.3,-7.2,-6.3,-905.7,-448.2,-0.6,-501.9,1040.1,2184.9,0,354,0,74,0, 
0.2000,-294.0,-729.9,-2947.2,-1545.0,-1458.6,886.2,-1630.5,148.8,-3186.3,-1502.7,-1551.3,-1650.6,791.1,-9827.4,1877.7,-4556.7,-6.6,-5.7,-1923.6,-3732.0,-0.3,-1529.1,1010.7,1233.3,0,360,0,75,0, 
0.2033,-320.4,-743.4,-2736.6,-1522.5,-1434.9,535.8,-1605.6,100.8,-3408.6,-1463.1,-1525.8,-1627.2,1243.2,-9827.4,2837.7,-4693.5,-7.2,-6.0,-1902.9,-3297.6,-0.6,-1498.2,1004.7,1161.0,0,366,0,76,0, 
0.2067,-159.3,-871.5,-2789.7,-466.2,-379.8,513.9,-559.2,215.1,-3186.3,-409.5,-471.0,-569.7,1054.2,-9827.4,1273.8,-4616.7,-6.6,-6.0,-846.0,719.4,-0.9,-449.4,1112.4,2083.2,0,372,0,77,0, 
0.2100,-124.8,-959.4,-2936.4,126.0,211.8,753.0,37.8,197.4,-2741.7,174.0,120.6,20.1,479.4,-9827.4,-775.8,-4351.8,-6.9,-5.7,-260.4,2458.5,-0.6,136.8,1188.0,2691.3,0,378,0,78,0, 
0.2133,-87.6,-891.0,-3031.8,-533.1,-452.4,853.8,-612.6,285.3,-2741.7,-499.8,-553.2,-655.8,407.1,-9827.4,-374.1,-4317.6,-6.9,-6.0,-927.6,-481.2,-0.9,-525.0,1165.8,2170.2,0,384,0,79,0, 
0.2167,-143.7,-816.6,-2856.0,-1479.0,-1395.9,771.0,-1554.6,364.5,-3186.3,-1440.3,-1494.6,-1601.4,897.9,-9827.4,1731.0,-4506.0,-7.2,-5.7,-1868.7,-3844.2,-0.9,-1470.3,1090.2,1289.7,0,390,0,80,0, 
0.2200,-138.3,-755.4,-2718.9,-1460.1,-1378.8,436.2,-1554.9,210.6,-3482.7,-1408.5,-1449.6,-1550.1,1338.9,-9827.4,2752.5,-4682.7,-6.6,-6.0,-1826.4,-3306.0,-0.9,-1444.2,1072.2,1216.5,0,396,0,81,0, 
0.2233,-70.5,-854.7,-2835.9,-355.5,-278.7,420.9,-451.5,83.1,-3112.2,-300.6,-335.7,-432.9,1102.2,-9827.4,1239.3,-4539.0,-6.9,-5.7,-720.6,775.5,-0.3,-328.8,1101.0,2184.9,0,402,0,82,0, 
0.2267,25.5,-881.1,-3039.0,200.7,278.7,598.5,103.5,89.7,-2519.4,247.5,215.4,114.0,467.7,-9827.4,-680.1,-4305.6,-6.6,-5.7,-172.5,2517.6,-0.6,215.7,954.3,2749.2,0,408,0,83,0, 
0.2300,-41.7,-861.0,-3073.5,-536.4,-459.3,678.6,-630.6,258.3,-2741.7,-490.8,-522.6,-621.9,240.0,-9827.4,-383.7,-4337.1,-6.9,-6.0,-909.3,-549.3,-0.9,-529.2,960.3,2143.8,0,414,0,84,0, 
0.2333,-58.2,-742.8,-2840.1,-1576.8,-1497.0,501.9,-1665.6,315.3,-3186.3,-1520.7,-1555.8,-1656.3,708.3,-9827.4,1801.5,-4578.3,-6.6,-5.4,-1936.2,-3960.9,-0.6,-1563.6,996.6,1218.9,0,420,0,85,0, 
0.2367,-86.1,-638.7,-2677.8,-1502.4,-1420.8,296.7,-1590.9,201.0,-3482.7,-1459.2,-1485.9,-1580.1,1133.7,-9827.4,2792.1,-4703.7,-6.9,-5.7,-1865.7,-3485.4,-0.9,-1488.0,927.6,1193.7,0,426,0,86,0, 
0.2400,-14.7,-699.0,-2834.7,-369.0,-292.8,203.1,-466.5,61.8,-2964.0,-325.5,-348.6,-443.4,919.8,-9827.4,1204.2,-4580.7,-6.6,-6.0,-738.0,675.6,-0.9,-360.3,982.8,2174.7,0,432,0,87,0, 
0.2433,52.8,-849.3,-2938.5,247.2,330.6,441.6,153.0,215.4,-2519.4,294.0,276.3,181.5,385.2,-9827.4,-713.7,-4317.9,-6.9,-6.3,-115.2,2499.9,-0.3,260.1,1013.7,2810.4,0,438,0,88,0, 
0.2467,38.7,-720.6,-2937.0,-431.4,-346.2,606.3,-520.8,277.2,-2445.3,-374.4,-401.7,-503.7,252.0,-9827.4,-332.1,-4269.6,-7.2,-6.3,-786.6,-425.1,-0.6,-422.7,997.5,2282.7,0,444,0,89,0, 
0.2500,-75.3,-546.9,-2752.5,-1467.6,-1386.9,402.9,-1554.3,256.5,-3038.1,-1427.7,-1444.8,-1539.3,641.1,-9827.4,1772.4,-4483.2,-6.9,-6.0,-1829.1,-3891.3,-0.6,-1455.0,906.3,1320.6,0,450,0,90,0, 
0.2533,-118.2,-531.3,-2694.0,-1483.5,-1400.1,145.5,-1570.5,117.0,-3408.6,-1439.7,-1458.3,-1555.2,1115.7,-9827.4,2776.8,-4687.5,-7.2,-6.0,-1844.4,-3368.7,-0.6,-1471.2,795.3,1194.0,0,456,0,91,0, 
0.2567,-42.6,-698.1,-2804.7,-426.6,-345.0,78.9,-510.3,87.0,-3186.3,-381.9,-398.4,-498.3,859.2,-9827.4,1165.2,-4596.3,-6.6,-5.7,-787.5,729.3,-0.6,-416.7,816.9,2113.5,0,462,0,92,0, 
0.2600,78.6,-692.7,-2989.5,152.7,238.5,389.1,63.0,129.0,-2667.6,193.8,177.3,82.2,320.4,-9827.4,-888.6,-4358.1,-7.2,-6.0,-217.2,2454.3,-0.9,167.4,890.4,2688.3,0,468,0,93,0, 
0.2633,75.6,-635.7,-2949.3,-492.3,-405.9,535.2,-574.8,214.2,-2593.5,-448.2,-468.6,-563.1,225.3,-9827.4,-435.0,-4297.5,-6.9,-5.7,-859.8,-536.7,-0.6,-474.3,918.6,2172.9,0,474,0,94,0, 
0.2667,-10.5,-559.2,-2745.3,-1425.9,-1339.2,447.9,-1502.1,210.0,-3038.1,-1366.5,-1401.6,-1500.3,729.3,-9827.4,1649.4,-4466.1,-7.5,-5.7,-1784.1,-3959.7,-0.6,-1402.8,868.2,1328.7,0,480,0,95,0, 
0.2700,20.4,-495.6,-2602.8,-1318.8,-1233.6,215.7,-1396.2,105.6,-3260.4,-1258.5,-1297.5,-1397.7,1094.4,-9827.4,2664.9,-4605.0,-6.9,-5.7,-1684.8,-3250.8,-0.3,-1295.7,766.8,1325.7,0,486,0,96,0, 
0.2733,28.5,-589.8,-2704.8,-195.0,-115.8,255.0,-283.8,63.9,-2964.0,-138.0,-171.6,-273.0,855.9,-9827.4,1024.8,-4467.6,-6.9,-6.0,-561.9,782.7,-0.9,-180.6,840.6,2323.2,0,492,0,97,0, 
0.2767,97.5,-753.9,-2897.1,386.7,462.0,370.2,293.4,32.7,-2519.4,447.3,409.2,309.0,221.7,-9827.4,-1024.8,-4275.9,-6.9,-6.0,12.9,2619.6,-0.6,395.4,900.3,2916.0,0,498,0,98,0, 
0.2800,-0.9,-713.7,-3029.1,-347.7,-269.4,327.3,-430.8,64.2,-2519.4,-293.4,-320.1,-417.3,6.3,-9827.4,-767.4,-4295.4,-6.9,-6.0,-709.5,-614.4,-0.9,-336.6,771.9,2324.4,0,504,0,99,0, 
0.2833,-120.6,-583.5,-2844.0,-1376.7,-1298.1,147.3,-1455.0,55.5,-2964.0,-1339.5,-1356.0,-1454.7,549.0,-9827.4,1437.9,-4550.7,-6.6,-6.0,-1744.5,-4091.4,-0.6,-1369.8,665.7,1354.8,0,510,0,100,0, 
0.2867,-169.2,-546.6,-2694.0,-1257.6,-1180.5,-107.7,-1334.7,-37.5,-3186.3,-1210.8,-1234.8,-1335.0,974.1,-9827.4,2287.5,-4659.9,-6.6,-6.0,-1625.4,-3437.1,-0.9,-1245.9,678.0,1365.0,0,516,0,101,0, 
0.2900,13.5,-620.1,-2706.0,-65.7,16.5,0.3,-146.7,-18.0,-3038.1,-4.8,-42.0,-134.4,845.4,-9827.4,665.4,-4484.1,-6.9,-5.4,-431.7,909.0,-0.9,-33.9,761.4,2405.7,0,522,0,102,0, 
0.2933,132.0,-588.3,-2821.8,588.0,670.8,305.1,504.0,99.9,-2371.2,651.3,606.0,512.4,250.8,-9827.4,-1375.5,-4185.0,-6.9,-5.4,216.3,2655.9,-0.9,601.2,777.6,3047.4,0,528,0,103,0, 
0.2967,70.8,-570.9,-2897.1,-141.6,-57.6,303.6,-220.8,123.3,-2371.2,-83.1,-124.5,-220.5,9.9,-9827.4,-1052.7,-4228.2,-6.9,-6.3,-510.6,-460.5,-0.9,-135.6,654.3,2465.7,0,534,0,104,0, 
0.3000,17.7,-473.7,-2824.5,-1187.7,-1104.9,26.4,-1270.2,103.2,-2815.8,-1148.4,-1173.6,-1269.0,507.6,-9827.4,944.7,-4461.3,-6.9,-5.7,-1558.5,-3970.8,-0.9,-1176.9,616.8,1489.5,0,540,0,105,0, 
0.3033,1.2,-422.1,-2677.5,-1068.0,-982.2,-109.8,-1156.8,54.9,-3112.2,-1024.8,-1050.9,-1148.1,1000.8,-9827.4,2001.0,-4537.8,-6.9,-5.7,-1440.6,-3216.0,-0.6,-1058.7,563.1,1541.4,0,546,0,106,0, 
0.3067,102.3,-494.1,-2800.2,80.1,162.9,-148.5,-12.9,8.7,-2815.8,126.0,93.6,-2.7,732.3,-9827.4,276.9,-4411.2,-6.9,-6.3,-297.3,964.2,-0.9,82.2,671.4,2529.0,0,552,0,107,0, 
0.3100,154.2,-621.0,-2979.3,747.6,832.8,39.9,657.3,-23.7,-2148.9,793.5,765.9,671.1,49.8,-9827.4,-1909.8,-4092.9,-7.2,-5.4,375.6,2752.8,-0.9,761.1,699.9,3240.3,0,558,0,108,0, 
0.3133,170.1,-518.1,-3017.1,12.0,90.9,131.4,-79.5,145.8,-2297.1,56.1,25.5,-71.4,-22.5,-9827.4,-1570.2,-4098.9,-6.6,-6.0,-362.1,-309.6,-0.6,16.2,673.8,2658.9,0,564,0,109,0, 
0.3167,88.5,-428.4,-2874.0,-1029.0,-942.9,-21.0,-1115.4,73.5,-2667.6,-985.8,-1016.1,-1111.2,451.2,-9827.4,399.3,-4325.1,-6.9,-5.4,-1399.8,-3906.9,-0.6,-1023.6,557.7,1715.1,0,570,0,110,0, 
0.3200,82.5,-445.2,-2721.9,-907.8,-823.2,-292.8,-993.9,1.8,-2964.0,-854.7,-892.8,-991.8,921.0,-9827.4,1392.0,-4434.6,-6.3,-5.7,-1278.9,-3321.6,-0.9,-904.2,592.8,1761.9,0,576,0,111,0, 
0.3233,144.3,-536.4,-2781.9,247.8,330.0,-457.2,152.4,-67.8,-2371.2,306.6,263.4,164.7,733.8,-9827.4,-255.3,-4264.2,-7.2,-5.7,-124.5,788.4,-0.6,247.5,657.9,2746.8,0,582,0,112,0, 
0.3267,257.4,-559.5,-2958.6,965.1,1048.5,-251.7,872.1,-46.2,-2000.7,1005.0,978.0,881.7,234.3,-9827.4,-2321.4,-3971.7,-6.6,-6.0,587.1,2640.6,-0.9,964.5,642.3,3447.9,0,588,0,113,0, 
0.3300,267.9,-587.1,-3047.1,296.4,385.8,-209.4,214.2,30.9,-2000.7,338.7,310.2,211.5,101.1,-9827.4,-2198.1,-3918.0,-6.9,-6.3,-77.1,-72.9,-0.9,300.6,643.2,2917.8,0,594,0,114,0, 
0.3333,129.9,-519.6,-2946.0,-650.4,-559.5,-289.8,-725.7,137.7,-2445.3,-615.0,-636.3,-734.7,542.7,-9827.4,-284.4,-4116.9,-6.9,-6.3,-1023.3,-3315.9,-0.3,-651.0,622.8,2049.0,0,600,0,115,0, 
0.3367,154.2,-454.2,-2807.4,-614.7,-525.3,-514.5,-692.7,137.1,-2741.7,-570.9,-599.4,-698.4,917.7,-9827.4,655.5,-4296.0,-6.9,-6.3,-986.7,-2940.0,-0.3,-613.5,579.6,1970.4,0,606,0,116,0, 
0.3400,191.7,-447.6,-2903.7,354.9,441.6,-607.2,274.8,81.3,-2371.2,395.1,369.3,273.6,827.4,-9827.4,-683.1,-4150.5,-6.9,-5.7,-20.7,280.2,-0.6,357.3,448.2,2751.9,0,612,0,117,0, 
0.3433,292.2,-512.1,-3027.9,948.9,1035.3,-540.0,868.2,69.9,-1926.6,993.3,962.1,865.2,359.1,-9827.4,-2407.5,-3878.1,-6.9,-6.0,570.6,1842.6,-0.6,960.0,458.4,3313.5,0,618,0,118,0, 
0.3467,271.8,-570.6,-3115.5,423.3,506.4,-523.8,339.9,63.6,-1852.5,472.8,431.1,332.7,158.7,-9827.4,-2286.0,-3814.5,-7.2,-5.7,42.0,-30.6,-0.9,427.5,367.5,2876.7,0,624,0,119,0, 
0.3500,111.3,-647.1,-3154.5,-336.0,-245.7,-500.7,-409.2,111.0,-2297.1,-285.6,-324.3,-420.6,288.6,-9827.4,-913.5,-4035.6,-6.6,-5.7,-712.5,-2093.4,-0.3,-323.1,484.5,2208.3,0,630,0,120,0, 
0.3533,35.1,-648.3,-3195.3,-265.8,-178.5,-590.4,-345.6,5.1,-2519.4,-207.3,-251.7,-349.2,449.7,-9827.4,-327.9,-4136.4,-7.2,-6.0,-635.1,-1873.8,-0.6,-260.1,536.1,2206.8,0,636,0,121,0, 
0.3567,141.0,-681.0,-3223.5,564.6,652.5,-655.8,483.3,-95.1,-2223.0,617.1,581.7,485.1,551.7,-9827.4,-1383.6,-4028.1,-6.9,-5.7,192.3,354.9,-0.6,568.5,543.9,2907.3,0,642,0,122,0, 
0.3600,159.6,-492.3,-3203.1,1065.0,1152.9,-775.5,981.3,6.9,-1704.3,1114.8,1083.6,988.2,395.1,-9827.4,-2540.4,-3750.0,-6.9,-5.7,696.9,1089.0,-0.9,1074.9,536.4,3343.2,0,648,0,123,0, 
0.3633,131.7,-486.6,-3243.0,626.4,711.3,-745.8,546.9,-0.9,-1630.2,674.4,643.5,545.7,293.7,-9827.4,-2304.6,-3714.0,-6.6,-6.0,255.6,-103.2,-0.6,637.8,414.0,2986.8,0,654,0,124,0, 
0.3667,-13.5,-598.2,-3345.6,-65.4,23.1,-710.1,-141.0,-39.6,-1926.6,-18.6,-50.1,-148.8,423.6,-9827.4,-1078.8,-3857.4,-6.9,-6.0,-438.6,-1755.0,-0.6,-55.2,415.5,2349.9,0,660,0,125,0, 
0.3700,-12.9,-618.6,-3340.8,70.8,156.9,-733.2,-8.4,60.6,-2148.9,120.3,85.5,-18.0,687.6,-9827.4,-491.4,-3914.1,-6.6,-6.3,-298.2,-1356.9,-0.9,77.7,498.0,2386.2,0,666,0,126,0, 
0.3733,-6.3,-499.8,-3303.9,904.8,989.4,-851.7,821.1,39.6,-1926.6,950.4,920.7,823.8,685.8,-9827.4,-1461.6,-3769.2,-6.9,-6.0,534.0,502.8,-1.2,919.5,451.2,3077.7,0,672,0,127,0, 
0.3767,43.2,-439.8,-3279.0,1246.5,1331.7,-918.6,1163.4,53.7,-1407.9,1284.0,1260.0,1159.2,598.2,-9827.4,-2641.2,-3666.9,-6.9,-6.0,873.3,1231.5,-0.6,1259.1,383.7,3395.7,0,678,0,128,0, 
0.3800,-16.2,-480.6,-3301.8,773.4,860.4,-905.1,694.5,81.3,-1482.0,812.7,785.7,683.1,385.2,-9827.4,-2432.1,-3655.2,-6.9,-6.0,400.5,-60.0,-0.3,779.4,345.0,3013.5,0,684,0,129,0, 
0.3833,-115.5,-644.4,-3354.3,111.0,196.5,-810.9,38.1,86.7,-1852.5,152.7,126.9,20.7,444.6,-9827.4,-1145.7,-3803.4,-6.9,-6.3,-259.2,-1528.5,-0.9,117.3,365.4,2439.9,0,690,0,130,0, 
0.3867,-151.8,-652.5,-3377.4,221.1,305.4,-943.5,146.1,-48.6,-2074.8,269.7,235.5,129.0,674.4,-9827.4,-576.0,-3815.4,-6.6,-5.4,-145.5,-1342.2,-0.9,233.1,375.6,2515.5,0,696,0,131,0, 
0.3900,-73.2,-615.9,-3407.7,979.5,1057.5,-1191.3,901.8,-116.1,-1704.3,1037.7,997.8,889.2,807.3,-9827.4,-1563.6,-3731.7,-6.9,-6.0,614.1,582.0,-1.2,982.5,352.5,3163.2,0,702,0,132,0, 
0.3933,-21.3,-531.6,-3360.9,1413.0,1495.5,-1157.4,1333.2,-36.0,-1333.8,1471.8,1430.4,1324.8,690.9,-9827.4,-2551.2,-3496.5,-6.6,-5.4,1047.9,1463.1,-0.3,1430.7,395.4,3575.4,0,708,0,133,0, 
0.3967,-68.7,-519.9,-3300.6,963.6,1050.6,-1062.3,890.4,-15.3,-1259.7,1015.5,980.4,872.1,604.2,-9827.4,-2226.0,-3411.0,-6.9,-6.0,596.1,234.9,-0.9,973.2,382.2,3206.7,0,714,0,134,0, 
0.4000,-240.6,-697.8,-3403.5,282.3,366.9,-894.3,210.6,-5.4,-1704.3,333.0,296.4,188.7,596.7,-9827.4,-967.2,-3578.4,-7.2,-5.7,-84.3,-1290.3,-0.6,291.0,262.2,2629.8,0,720,0,135,0, 
0.4033,-292.8,-641.1,-3365.7,422.4,502.8,-858.0,346.2,7.5,-1704.3,477.6,438.0,329.7,732.3,-9827.4,-334.5,-3648.6,-6.9,-6.0,60.0,-1056.6,-0.6,434.7,312.9,2728.8,0,726,0,136,0, 
0.4067,-195.6,-581.1,-3359.1,1189.5,1272.9,-1026.9,1107.0,-57.6,-1407.9,1255.2,1205.1,1099.2,886.2,-9827.4,-1164.9,-3522.3,-6.9,-6.0,828.3,749.1,-0.3,1211.7,290.1,3375.3,0,732,0,137,0, 
0.4100,-117.9,-454.8,-3366.6,1570.5,1655.7,-1080.9,1495.8,-157.8,-1111.5,1625.1,1587.6,1483.8,864.0,-9827.4,-2191.5,-3387.9,-6.9,-5.7,1206.9,1497.6,-0.6,1593.0,175.5,3713.4,0,738,0,138,0, 
0.4133,-162.6,-598.8,-3394.8,1088.1,1176.0,-965.7,1015.5,-98.7,-1111.5,1138.8,1104.0,996.9,693.0,-9827.4,-1989.3,-3382.2,-6.6,-6.0,721.5,308.7,-0.6,1102.8,204.6,3320.1,0,744,0,139,0, 
0.4167,-180.9,-528.6,-3379.5,489.3,571.8,-759.3,412.8,-61.8,-1482.0,540.6,499.2,394.5,756.9,-9827.4,-658.5,-3406.8,-6.6,-6.0,115.5,-1118.1,-0.6,506.7,351.6,2757.6,0,750,0,140,0, 
0.4200,-226.8,-585.3,-3355.2,608.7,695.1,-834.6,529.8,-132.9,-1556.1,663.0,621.6,514.5,832.2,-9827.4,-78.3,-3484.2,-6.3,-6.0,238.2,-966.6,-0.6,636.9,400.8,2855.1,0,756,0,141,0, 
0.4233,-149.7,-417.6,-3326.1,1395.9,1486.5,-972.0,1317.3,-241.2,-1407.9,1453.5,1413.3,1306.2,867.3,-9827.4,-942.9,-3367.2,-6.6,-6.0,1035.3,824.1,-0.6,1418.7,349.8,3526.2,0,762,0,142,0, 
0.4267,-133.2,-440.1,-3468.0,1754.7,1839.6,-1044.0,1685.7,-313.5,-889.2,1804.8,1766.1,1663.8,710.1,-9827.4,-2069.7,-3217.2,-6.9,-6.0,1388.1,1765.8,-0.6,1779.6,228.6,3861.9,0,768,0,143,0, 
0.4300,-232.2,-497.1,-3524.1,1212.0,1294.8,-999.0,1141.8,-228.6,-1037.4,1266.3,1228.2,1123.2,631.5,-9827.4,-1847.7,-3263.1,-6.9,-5.7,844.8,387.0,-0.3,1230.0,170.7,3417.3,0,774,0,144,0, 
0.4333,-274.5,-540.6,-3431.4,666.9,747.9,-753.0,595.8,-190.5,-1333.8,720.9,682.5,579.0,726.9,-9827.4,-517.2,-3286.8,-6.9,-5.7,297.6,-1103.1,-0.9,678.3,337.2,2938.8,0,780,0,145,0, 
0.4367,-331.2,-483.9,-3479.7,781.8,864.6,-831.6,708.0,-292.5,-1407.9,842.4,795.9,690.0,930.9,-9827.4,59.7,-3332.7,-7.2,-5.7,419.4,-921.3,-0.6,783.6,335.7,3000.9,0,786,0,146,0, 
0.4400,-166.8,-527.4,-3436.8,1557.6,1635.9,-952.2,1476.3,-418.5,-1185.6,1616.7,1574.4,1468.8,909.3,-9827.4,-879.9,-3219.0,-6.9,-6.0,1198.8,1060.2,-0.6,1569.9,310.8,3644.1,0,792,0,147,0, 
0.4433,-49.2,-390.6,-3378.6,1943.4,2025.0,-966.3,1867.2,-396.9,-889.2,2004.6,1962.9,1859.4,735.3,-9827.4,-2025.6,-3042.9,-6.9,-5.7,1582.8,1957.8,-0.3,1967.4,420.9,4024.8,0,798,0,148,0, 
0.4467,-84.3,-485.4,-3384.6,1530.6,1616.7,-731.7,1455.3,-305.4,-889.2,1591.2,1551.0,1452.0,591.3,-9827.4,-1829.4,-2986.8,-7.2,-5.7,1169.1,744.9,-0.9,1551.6,417.0,3704.4,0,804,0,149,0, 
0.4500,-188.1,-565.2,-3414.9,838.8,924.6,-592.2,765.6,-345.3,-1111.5,894.9,857.1,756.3,596.7,-9827.4,-526.8,-3162.9,-6.9,-6.3,480.6,-948.9,-0.6,860.1,436.5,3092.4,0,810,0,150,0, 
0.4533,-134.4,-504.3,-3307.5,864.3,952.2,-610.2,787.2,-355.5,-1111.5,930.3,883.2,780.6,923.7,-9827.4,332.1,-3262.5,-7.2,-5.4,504.3,-750.9,-1.2,882.9,475.2,3070.8,0,816,0,151,0, 
0.4567,-71.7,-523.8,-3420.9,1663.5,1751.4,-861.3,1587.6,-525.9,-1037.4,1724.1,1678.2,1579.2,861.6,-9827.4,-757.8,-3176.7,-6.9,-6.0,1297.5,1152.6,-0.6,1685.4,471.3,3750.3,0,822,0,152,0, 
0.4600,18.0,-531.9,-3491.4,2161.2,2242.2,-891.6,2082.0,-432.6,-592.8,2217.6,2172.6,2076.6,666.6,-9827.4,-2077.8,-3009.3,-6.9,-6.0,1792.2,2457.9,-1.2,2174.7,507.0,4229.4,0,828,0,153,0, 
0.4633,-59.1,-591.0,-3648.9,1642.2,1729.8,-815.1,1572.9,-493.8,-666.9,1700.7,1657.2,1557.3,479.4,-9827.4,-1858.2,-2973.3,-7.2,-6.0,1275.6,858.3,-1.2,1657.5,482.4,3810.0,0,834,0,154,0, 
0.4667,-94.5,-565.5,-3622.5,817.8,906.0,-709.8,744.3,-436.2,-1037.4,876.9,831.6,735.0,675.3,-9827.4,-326.1,-3104.7,-6.9,-5.7,450.0,-1256.1,-0.6,828.6,469.5,3102.0,0,840,0,155,0, 
0.4700,-98.7,-536.1,-3617.4,873.0,960.0,-738.0,793.8,-454.5,-1185.6,934.8,888.9,790.5,1011.0,-9827.4,389.4,-3222.9,-6.9,-6.0,508.8,-1129.8,-0.9,887.7,493.8,3047.4,0,846,0,156,0, 
0.4733,-25.2,-540.9,-3629.4,1780.2,1868.4,-900.6,1701.0,-488.4,-889.2,1839.9,1797.6,1700.4,1035.0,-9827.4,-698.7,-3058.8,-7.2,-5.4,1415.1,1348.2,-0.6,1800.9,471.6,3821.7,0,852,0,157,0, 
0.4767,31.8,-564.9,-3771.6,2319.9,2403.9,-914.1,2238.3,-406.2,-444.6,2372.7,2334.0,2240.7,677.4,-9827.4,-2142.9,-2808.6,-6.9,-5.7,1948.2,2895.6,-0.6,2347.5,435.9,4337.7,0,858,0,158,0, 
0.4800,-43.5,-648.3,-3796.8,1748.1,1831.5,-770.4,1667.1,-284.7,-518.7,1799.1,1764.3,1671.9,489.3,-9827.4,-1875.9,-2812.5,-6.6,-6.0,1381.2,1112.4,-0.6,1776.0,358.2,3888.9,0,864,0,159,0, 
0.4833,-109.8,-599.7,-3748.2,960.0,1041.0,-705.3,886.5,-270.0,-815.1,1011.9,975.3,880.2,747.0,-9827.4,-290.7,-2930.1,-6.6,-5.7,595.8,-1225.5,-0.9,989.1,375.9,3201.6,0,870,0,160,0, 
0.4867,-227.7,-647.7,-3738.3,936.9,1022.1,-855.6,864.3,-353.1,-1259.7,989.4,950.4,856.5,1090.8,-9827.4,582.9,-3059.7,-6.9,-5.7,569.4,-1144.2,-0.3,962.1,339.9,3120.3,0,876,0,161,0, 
0.4900,-159.6,-580.8,-3762.3,1806.0,1886.1,-1013.7,1732.2,-361.2,-889.2,1868.1,1820.7,1725.3,1085.1,-9827.4,-390.0,-2901.3,-6.9,-6.0,1438.8,1571.7,-0.9,1827.9,455.1,3874.2,0,882,0,162,0, 
0.4933,-125.1,-582.9,-3900.3,2287.2,2366.7,-938.4,2208.3,-398.1,-518.7,2346.9,2302.5,2200.8,659.4,-9827.4,-1791.3,-2785.2,-7.2,-6.0,1922.7,3069.9,-0.3,2301.9,456.0,4361.7,0,888,0,163,0, 
0.4967,-257.7,-662.4,-3969.3,1709.1,1794.6,-798.6,1640.7,-291.9,-518.7,1778.1,1727.7,1632.6,561.6,-9827.4,-1519.2,-2770.2,-6.9,-6.0,1347.3,1178.1,-0.6,1734.3,451.8,3916.5,0,894,0,164,0, 
0.5000,-360.3,-675.3,-3875.7,928.2,1013.7,-664.5,856.2,-250.2,-889.2,986.1,943.2,845.1,828.0,-9827.4,189.3,-2823.9,-7.2,-5.7,565.5,-1295.7,-1.2,949.5,521.1,3212.1,0,900,0,165,0, 
0.5033,-452.4,-663.9,-3803.4,879.9,961.2,-853.8,804.9,-319.5,-1037.4,936.0,891.6,792.9,1078.8,-9827.4,1032.6,-3017.7,-6.9,-6.0,516.0,-1124.7,-0.9,895.5,445.5,3131.1,0,906,0,166,0, 
0.5067,-415.5,-702.6,-3821.1,1680.0,1755.0,-1077.6,1599.9,-377.4,-963.3,1736.1,1687.5,1591.8,1112.1,-9827.4,60.9,-2924.4,-6.9,-5.7,1313.7,1462.5,-0.6,1690.2,346.5,3785.7,0,912,0,167,0, 
0.5100,-362.7,-804.9,-3900.9,2115.0,2197.8,-993.0,2028.3,-336.6,-518.7,2161.2,2125.8,2029.2,841.8,-9827.4,-1263.6,-2768.7,-6.9,-5.7,1748.7,2782.8,-0.9,2137.2,378.3,4249.5,0,918,0,168,0, 
0.5133,-368.7,-811.8,-3909.0,1592.1,1669.5,-749.1,1506.6,-211.5,-666.9,1639.2,1598.4,1499.7,710.7,-9827.4,-915.9,-2771.4,-6.9,-5.7,1219.5,1111.8,-0.6,1612.8,407.7,3813.6,0,924,0,169,0, 
0.5167,-494.1,-835.2,-3938.1,808.2,891.9,-589.5,738.3,-212.1,-963.3,858.9,817.5,720.0,894.9,-9827.4,551.4,-2895.3,-6.9,-6.0,442.8,-1028.7,-0.9,836.7,471.9,3144.3,0,930,0,170,0, 
0.5200,-526.8,-786.9,-3825.0,824.7,904.5,-626.4,746.7,-228.6,-1259.7,887.7,836.4,738.9,1258.2,-9827.4,1396.8,-3031.2,-6.6,-6.0,460.2,-952.2,-0.6,855.3,466.8,3134.7,0,936,0,171,0, 
0.5233,-435.9,-769.2,-3736.8,1626.9,1710.3,-717.3,1549.2,-233.7,-963.3,1683.3,1638.3,1544.1,1224.6,-9827.4,462.9,-2919.3,-6.9,-6.0,1261.8,1238.4,-0.9,1653.6,449.1,3807.9,0,942,0,172,0, 
0.5267,-387.6,-735.0,-3832.2,2000.1,2077.2,-730.8,1919.7,-266.7,-815.1,2067.3,2016.3,1916.7,945.0,-9827.4,-719.4,-2725.5,-6.3,-6.0,1642.5,2387.7,-0.6,2022.6,313.8,4155.0,0,948,0,173,0, 
0.5300,-372.3,-764.1,-3917.7,1485.0,1563.6,-603.6,1414.2,-164.1,-741.0,1539.9,1499.4,1402.5,774.6,-9827.4,-429.0,-2728.2,-6.9,-6.0,1122.9,932.1,-0.9,1506.0,336.6,3794.4,0,954,0,174,0, 
0.5333,-489.6,-847.8,-3993.9,724.8,802.2,-419.1,655.8,-135.9,-1185.6,786.9,738.0,642.6,832.5,-9827.4,789.3,-2844.6,-6.6,-5.7,361.2,-725.4,-0.6,751.8,430.5,3150.0,0,960,0,175,0, 
0.5367,-464.4,-790.2,-3883.5,805.5,883.2,-363.6,741.6,-211.5,-1333.8,868.8,821.7,731.1,1047.6,-9827.4,1445.1,-2901.6,-6.9,-6.0,446.1,-614.1,-0.9,834.9,598.2,3192.6,0,966,0,176,0, 
0.5400,-402.9,-748.2,-3855.6,1483.5,1560.0,-579.3,1405.5,-282.0,-1037.4,1551.0,1499.4,1407.3,1140.0,-9827.4,620.7,-2853.9,-6.9,-5.4,1124.1,1124.1,-0.9,1517.7,562.8,3768.3,0,972,0,177,0, 
0.5433,-370.2,-695.4,-3871.5,1837.2,1917.6,-608.7,1764.9,-161.1,-815.1,1906.2,1853.7,1758.0,973.2,-9827.4,-477.3,-2711.4,-6.9,-5.7,1473.6,1916.7,-0.6,1869.0,573.6,4121.1,0,978,0,178,0, 
0.5467,-553.2,-798.3,-3964.5,1231.5,1309.8,-568.5,1157.4,-179.4,-1111.5,1291.8,1248.6,1152.9,807.0,-9827.4,-326.4,-2837.1,-6.6,-5.7,864.9,695.7,-0.6,1268.1,494.4,3644.4,0,984,0,179,0, 
0.5500,-670.5,-915.9,-4083.3,465.0,545.4,-453.3,399.0,-150.6,-1407.9,517.5,481.2,387.6,767.4,-9827.4,824.7,-3070.5,-6.6,-5.7,99.3,-893.4,-0.6,505.5,573.0,2967.0,0,990,0,180,0, 
0.5533,-667.8,-889.2,-4053.0,528.0,605.1,-391.5,454.5,-207.9,-1556.1,590.4,544.2,448.5,978.6,-9827.4,1338.6,-3144.3,-7.2,-5.7,162.9,-790.8,-0.6,556.8,752.1,2955.9,0,996,0,181,0, 
0.5567,-566.1,-846.3,-4011.0,1196.4,1272.9,-591.9,1124.4,-186.9,-1333.8,1257.0,1209.9,1117.2,1075.2,-9827.4,487.2,-3106.2,-6.9,-5.7,833.1,880.8,-0.6,1216.2,809.1,3489.0,0,1002,0,182,0, 
0.5600,-443.7,-742.8,-3947.1,1560.6,1633.5,-562.2,1479.6,-141.9,-963.3,1620.0,1569.9,1471.5,937.5,-9827.4,-495.3,-2959.5,-6.9,-5.7,1189.5,1609.8,-0.9,1582.5,758.1,3824.4,0,1008,0,183,0, 
0.5633,-484.5,-847.5,-3976.8,1038.0,1110.6,-384.0,965.4,-123.6,-1185.6,1097.4,1047.9,953.7,841.8,-9827.4,-366.6,-2978.1,-7.5,-6.0,668.1,470.4,-0.6,1064.7,755.4,3405.0,0,1014,0,184,0, 
0.5667,-668.1,-1013.1,-4045.2,327.0,398.7,-162.3,256.5,-8.1,-1704.3,388.8,340.5,245.4,862.5,-9827.4,756.9,-3127.8,-7.2,-5.7,-41.1,-899.4,-0.3,350.7,796.5,2824.8,0,1020,0,185,0, 
0.5700,-610.8,-1046.1,-3976.5,380.7,454.2,-62.7,315.3,-52.5,-1704.3,438.9,391.2,294.0,1004.7,-9827.4,1257.0,-3219.0,-6.9,-6.0,11.4,-761.4,-0.6,403.5,994.5,2808.0,0,1026,0,186,0, 
0.5733,-397.2,-884.4,-3933.0,1093.2,1168.5,-181.2,1018.2,-37.8,-1556.1,1149.9,1110.3,1013.1,1074.6,-9827.4,448.8,-3177.9,-6.9,-5.7,730.8,848.1,-0.9,1120.8,1061.7,3385.2,0,1032,0,187,0, 
0.5767,-314.4,-875.7,-3833.7,1434.0,1510.5,-195.3,1361.7,-18.0,-1333.8,1490.4,1448.4,1354.5,966.0,-9827.4,-529.8,-3081.0,-6.9,-6.3,1067.4,1599.6,-0.9,1465.2,1084.2,3714.6,0,1038,0,188,0, 
0.5800,-394.5,-933.9,-3817.5,945.9,1022.1,-16.8,877.5,-30.9,-1407.9,998.1,962.1,866.7,772.2,-9827.4,-372.9,-3082.5,-6.9,-6.0,577.2,528.3,-0.6,965.4,1045.5,3340.2,0,1044,0,189,0, 
0.5833,-535.2,-999.6,-3904.5,285.3,363.0,135.3,217.8,-96.6,-1630.2,339.0,296.1,200.4,618.6,-9827.4,712.2,-3247.5,-6.9,-5.7,-86.7,-934.2,-0.9,306.9,1023.9,2733.0,0,1050,0,190,0, 
0.5867,-531.6,-1040.7,-3928.8,253.8,332.1,65.4,186.3,-139.5,-1778.4,308.1,265.2,172.5,799.8,-9827.4,1284.6,-3408.6,-7.2,-6.3,-118.5,-859.2,-0.6,279.9,1116.3,2666.1,0,1056,0,191,0, 
0.5900,-447.9,-1003.8,-3881.4,959.1,1039.2,-69.6,882.9,-153.0,-1778.4,1007.1,973.8,883.5,818.4,-9827.4,407.7,-3344.4,-6.9,-6.0,595.2,797.7,-0.9,982.8,1104.0,3260.1,0,1062,0,192,0, 
0.5933,-417.9,-946.2,-3830.4,1316.7,1396.5,-84.6,1240.2,-80.4,-1259.7,1371.3,1332.0,1240.5,663.3,-9827.4,-661.5,-3184.5,-6.9,-6.3,948.0,1789.2,-0.6,1338.3,1060.2,3611.7,0,1068,0,193,0, 
0.5967,-453.6,-963.9,-3896.7,832.5,914.4,133.8,761.4,-40.5,-1482.0,884.4,840.9,751.2,407.7,-9827.4,-459.6,-3234.6,-6.9,-5.7,458.7,616.5,-0.9,854.4,1081.8,3209.4,0,1074,0,194,0, 
0.6000,-662.4,-1039.8,-3987.3,101.1,179.4,275.1,33.6,-47.1,-1704.3,147.9,107.4,19.8,355.5,-9827.4,651.0,-3402.0,-6.6,-5.7,-272.7,-1256.4,-0.6,117.3,1101.9,2549.7,0,1080,0,195,0, 
0.6033,-719.4,-1089.3,-4020.3,27.0,112.5,130.5,-39.6,-168.0,-2148.9,80.1,37.5,-51.9,448.8,-9827.4,1280.1,-3543.6,-7.2,-6.0,-341.7,-1360.8,-1.2,48.9,1116.6,2434.8,0,1086,0,196,0, 
0.6067,-642.6,-972.0,-4011.0,709.2,789.9,23.4,638.4,-131.4,-1926.6,767.1,723.0,637.2,546.3,-9827.4,457.2,-3498.9,-6.9,-6.0,342.6,705.6,-0.6,724.5,1091.7,3025.2,0,1092,0,197,0, 
0.6100,-561.0,-962.7,-4062.0,1112.1,1193.7,129.0,1041.0,-66.9,-1704.3,1169.4,1125.0,1037.1,280.5,-9827.4,-708.0,-3358.2,-6.6,-5.7,741.3,2000.1,-0.6,1137.3,1179.9,3429.9,0,1098,0,198,0, 
0.6133,-664.2,-1030.5,-4183.2,608.4,688.2,271.5,541.5,75.0,-1556.1,663.3,621.0,534.9,88.8,-9827.4,-618.9,-3356.4,-6.9,-5.7,233.4,512.1,-0.6,630.6,1201.2,3040.2,0,1104,0,199,0, 
0.6167,-724.5,-1085.4,-4191.0,-162.6,-83.4,396.0,-226.2,57.0,-2000.7,-108.3,-152.4,-241.8,182.1,-9827.4,761.7,-3517.5,-6.9,-6.0,-534.0,-1556.1,-0.9,-138.9,1278.0,2362.8,0,1110,0,200,0, 
0.6200,-779.4,-1022.4,-4095.6,-153.0,-77.7,318.3,-216.3,-14.7,-2223.0,-102.3,-139.8,-226.8,466.2,-9827.4,1508.7,-3651.3,-7.2,-6.0,-522.3,-1649.1,-0.9,-120.9,1235.7,2313.3,0,1116,0,201,0, 
0.6233,-721.5,-1034.1,-4011.0,568.2,642.9,267.0,503.4,-36.0,-2148.9,626.4,578.4,495.3,435.9,-9827.4,529.8,-3617.4,-7.2,-5.7,197.1,705.3,-0.9,599.1,1258.5,2910.6,0,1122,0,202,0, 
0.6267,-609.9,-975.6,-4050.0,1074.3,1156.5,352.2,1014.6,60.9,-1704.3,1133.4,1085.7,1000.8,238.8,-9827.4,-740.4,-3423.9,-6.6,-6.0,704.7,2072.4,-0.9,1103.1,1244.7,3420.6,0,1128,0,203,0, 
0.6300,-668.7,-1061.4,-4212.6,504.3,590.1,532.2,448.5,21.3,-1778.4,574.2,523.5,436.5,-76.8,-9827.4,-624.9,-3470.4,-6.9,-6.0,139.2,555.0,-0.9,534.0,1303.8,2986.8,0,1134,0,204,0, 
0.6333,-789.0,-1076.7,-4242.3,-317.1,-234.3,641.4,-374.7,35.4,-2223.0,-255.3,-302.7,-388.5,48.3,-9827.4,766.5,-3694.8,-6.9,-6.0,-684.0,-1791.6,-0.9,-295.5,1230.6,2250.9,0,1140,0,205,0, 
0.6367,-784.2,-952.5,-4102.2,-315.6,-231.3,544.2,-387.6,18.0,-2297.1,-259.5,-303.9,-387.6,355.2,-9827.4,1541.4,-3824.7,-6.9,-6.0,-682.8,-1788.9,-0.9,-303.9,1276.2,2184.9,0,1146,0,206,0, 
0.6400,-723.9,-906.3,-3987.9,518.4,594.9,442.2,443.7,13.5,-2148.9,561.6,525.6,444.0,405.9,-9827.4,676.5,-3726.3,-6.9,-5.7,145.5,620.1,-0.6,530.7,1211.7,2890.8,0,1152,0,207,0, 
0.6433,-658.2,-830.4,-3966.0,982.2,1061.4,591.6,911.1,121.8,-1630.2,1031.7,993.9,911.1,232.2,-9827.4,-661.8,-3522.3,-6.9,-6.3,607.2,2129.1,-0.9,1002.9,1316.1,3352.5,0,1158,0,208,0, 
0.6467,-776.4,-838.2,-4016.1,563.7,642.0,711.9,488.7,142.8,-1704.3,618.6,572.4,483.6,21.0,-9827.4,-477.3,-3454.8,-6.9,-5.4,188.4,509.7,-0.9,583.2,1298.4,3001.5,0,1164,0,209,0, 
0.6500,-840.6,-795.6,-4018.8,-186.9,-102.0,867.9,-252.6,132.9,-1926.6,-125.4,-173.4,-264.0,153.6,-9827.4,965.1,-3617.7,-6.9,-6.0,-558.3,-1708.2,-0.6,-166.8,1308.3,2364.3,0,1170,0,210,0, 
0.6533,-848.4,-737.7,-3970.2,-212.4,-133.8,692.7,-281.4,123.0,-2223.0,-157.8,-200.7,-289.5,494.7,-9827.4,1783.2,-3725.4,-6.9,-6.0,-583.8,-1753.5,-0.9,-190.8,1282.8,2288.4,0,1176,0,211,0, 
0.6567,-754.5,-706.2,-3959.4,546.3,625.5,586.5,474.3,109.8,-2074.8,599.7,557.7,470.1,517.2,-9827.4,746.7,-3721.2,-7.2,-5.7,170.7,777.3,-0.6,566.1,1291.2,2927.4,0,1182,0,212,0, 
0.6600,-758.4,-753.6,-3989.7,960.6,1034.1,655.8,885.3,94.8,-1704.3,1006.5,969.0,886.8,248.7,-9827.4,-542.4,-3578.4,-6.9,-6.3,582.6,1995.9,-0.9,981.3,1220.7,3334.2,0,1188,0,213,0, 
0.6633,-826.8,-787.2,-4052.7,409.8,495.3,845.4,342.3,114.0,-1778.4,456.9,422.4,342.0,-14.7,-9827.4,-390.3,-3507.0,-6.6,-6.3,31.8,363.6,-0.3,441.6,1108.5,2924.4,0,1194,0,214,0, 
0.6667,-973.5,-894.0,-4080.0,-395.4,-311.7,893.4,-453.9,157.2,-2297.1,-344.1,-382.2,-464.4,91.8,-9827.4,940.8,-3728.1,-6.6,-6.0,-769.5,-1775.7,-0.6,-371.7,1128.9,2226.9,0,1200,0,215,0, 
0.6700,-1017.0,-940.2,-4062.3,-450.6,-375.9,756.3,-517.8,124.8,-2593.5,-393.3,-440.4,-521.1,350.7,-9827.4,1666.5,-3893.7,-6.9,-5.7,-828.3,-1745.7,-0.3,-426.6,1227.9,2131.5,0,1206,0,216,0, 
0.6733,-935.1,-850.2,-3921.9,345.3,423.9,732.3,278.7,119.1,-2297.1,396.0,354.9,270.9,567.3,-9827.4,766.8,-3805.5,-7.2,-5.7,-30.0,624.0,-0.6,367.2,1296.6,2804.4,0,1212,0,217,0, 
0.6767,-846.9,-819.9,-3919.8,810.6,890.7,796.8,742.5,42.6,-1926.6,868.8,820.2,734.7,243.3,-9827.4,-447.9,-3675.3,-6.9,-6.0,432.9,1756.8,-0.3,834.6,1302.0,3280.2,0,1218,0,218,0, 
0.6800,-904.2,-879.6,-3949.2,322.5,402.6,903.9,257.4,41.4,-1926.6,369.3,326.1,242.7,73.8,-9827.4,-95.1,-3644.1,-6.9,-6.0,-58.8,233.1,-1.2,343.8,1237.2,2918.7,0,1224,0,219,0, 
0.6833,-989.1,-947.4,-3964.5,-500.4,-412.8,982.5,-558.0,127.2,-2297.1,-456.6,-494.7,-570.0,184.5,-9827.4,1332.3,-3848.4,-6.6,-6.0,-884.4,-1922.4,-0.6,-467.1,1237.2,2177.1,0,1230,0,220,0, 
0.6867,-1036.5,-969.6,-3926.7,-477.6,-391.8,965.4,-548.1,-0.3,-2593.5,-423.6,-467.1,-550.8,508.8,-9827.4,2018.4,-3992.7,-7.2,-6.0,-852.9,-1730.1,-0.9,-453.9,1266.9,2149.8,0,1236,0,221,0, 
0.6900,-943.5,-874.2,-3895.5,296.4,372.9,826.5,226.2,-7.8,-2371.2,367.2,309.9,222.3,472.2,-9827.4,998.7,-3922.8,-6.9,-6.0,-71.1,654.3,-0.6,315.9,1284.3,2772.3,0,1242,0,222,0, 
0.6933,-856.8,-844.5,-3938.4,662.7,738.9,910.8,588.3,54.9,-1926.6,723.0,674.4,590.4,200.1,-9827.4,-231.3,-3829.8,-6.9,-6.0,288.9,1639.2,-0.9,679.2,1295.1,3156.6,0,1248,0,223,0, 
0.6967,-918.3,-892.2,-3984.9,63.3,140.7,937.2,-6.3,64.2,-2074.8,125.1,78.6,-7.5,-66.0,-9827.4,42.0,-3856.8,-6.9,-6.0,-303.9,-178.2,-0.6,88.5,1298.4,2698.5,0,1254,0,224,0, 
0.7000,-984.6,-889.2,-3966.0,-667.5,-591.0,1064.1,-733.5,111.6,-2519.4,-614.7,-660.9,-745.8,212.1,-9827.4,1575.6,-3978.9,-6.6,-6.0,-1046.7,-2180.4,-0.9,-657.0,1369.8,2029.5,0,1260,0,225,0, 
0.7033,-989.7,-914.7,-3906.9,-632.7,-551.4,1042.5,-701.1,21.9,-2741.7,-574.5,-626.1,-704.7,414.9,-9827.4,2272.5,-4123.2,-6.9,-6.0,-1011.3,-1758.9,-0.6,-613.5,1356.0,2011.5,0,1266,0,226,0, 
0.7067,-915.9,-933.9,-3878.4,204.0,287.4,1035.0,130.2,-11.7,-2445.3,259.5,213.0,138.6,429.0,-9827.4,1234.8,-4011.3,-6.9,-6.0,-175.8,624.0,-0.9,230.4,1363.8,2730.3,0,1272,0,227,0, 
0.7100,-822.9,-848.4,-3764.4,619.8,705.6,1149.3,551.1,85.2,-2000.7,687.3,634.2,551.4,254.7,-9827.4,126.9,-3809.4,-7.2,-6.0,246.9,1562.7,-0.9,642.6,1337.7,3139.5,0,1278,0,228,0, 
0.7133,-903.6,-881.1,-3821.1,36.6,119.1,1202.4,-27.9,96.3,-2074.8,102.9,41.4,-38.1,96.6,-9827.4,435.3,-3831.0,-7.2,-5.7,-340.5,-300.0,-0.9,50.1,1262.4,2682.9,0,1284,0,229,0, 
0.7167,-1047.9,-1003.5,-3871.8,-759.3,-673.8,1221.9,-820.8,-15.9,-2519.4,-705.9,-759.0,-838.2,246.9,-9827.4,1892.7,-4067.1,-6.9,-5.7,-1142.4,-2291.1,-0.9,-753.0,1249.8,1973.1,0,1290,0,230,0, 
0.7200,-1124.4,-1013.7,-3832.5,-719.7,-636.6,1124.4,-781.2,34.2,-2889.9,-666.0,-715.5,-788.7,420.0,-9827.4,2403.3,-4178.1,-6.9,-6.0,-1098.3,-1792.5,-0.9,-710.1,1257.0,1935.6,0,1296,0,231,0, 
0.7233,-1065.9,-962.1,-3792.9,-0.9,82.5,1106.4,-63.3,76.5,-2593.5,56.1,8.7,-66.3,465.3,-9827.4,1372.2,-4167.9,-6.9,-5.7,-375.0,531.9,-0.9,18.6,1250.1,2555.1,0,1302,0,232,0, 
0.7267,-1058.4,-913.5,-3841.8,303.6,383.7,993.3,237.9,-19.5,-2297.1,355.8,310.5,229.8,194.1,-9827.4,170.7,-4094.7,-7.2,-6.0,-77.4,1256.4,-0.9,311.1,1140.3,2861.7,0,1308,0,233,0, 
0.7300,-1059.6,-1023.0,-3862.8,-237.6,-155.4,1151.1,-302.7,18.0,-2593.5,-196.5,-237.9,-316.8,163.5,-9827.4,665.1,-4060.5,-6.9,-6.0,-624.9,-630.9,-0.6,-229.5,1124.1,2413.2,0,1314,0,234,0, 
0.7333,-1164.3,-1043.4,-3868.8,-995.7,-914.4,1144.8,-1056.9,46.5,-2815.8,-966.0,-996.9,-1068.9,278.7,-9827.4,2085.0,-4242.6,-7.2,-6.0,-1385.7,-2472.3,-0.9,-978.3,1196.7,1755.6,0,1320,0,235,0, 
0.7367,-1146.3,-1117.8,-3863.7,-939.9,-856.5,1101.0,-1004.1,31.5,-3038.1,-910.5,-941.7,-1014.3,360.6,-9827.4,2586.3,-4413.6,-6.6,-5.7,-1329.3,-1896.6,-0.9,-933.3,1170.9,1730.4,0,1326,0,236,0, 
0.7400,-1076.7,-1025.4,-3869.1,-131.1,-44.4,1012.5,-196.8,46.2,-2815.8,-81.0,-122.7,-198.6,318.0,-9827.4,1454.1,-4320.9,-6.9,-5.7,-510.0,377.7,-0.6,-112.2,1197.0,2463.6,0,1332,0,237,0, 
0.7433,-971.4,-933.0,-3811.8,192.3,282.6,1094.4,127.8,50.7,-2519.4,246.3,202.8,128.1,109.5,-9827.4,354.9,-4141.5,-6.9,-6.0,-184.2,1143.9,-0.6,205.8,1151.7,2794.5,0,1338,0,238,0, 
0.7467,-1005.0,-991.2,-3882.3,-381.0,-299.4,1170.3,-446.4,90.9,-2593.5,-340.2,-377.1,-457.5,69.0,-9827.4,756.0,-4218.0,-6.6,-6.0,-756.0,-880.5,-0.9,-379.8,1093.5,2298.0,0,1344,0,239,0, 
0.7500,-1118.4,-1077.6,-3903.6,-1164.6,-1080.6,1215.0,-1228.8,116.1,-3038.1,-1125.6,-1163.1,-1242.9,128.7,-9827.4,2139.3,-4447.8,-7.2,-6.0,-1543.8,-2766.0,-0.6,-1165.5,1077.3,1610.4,0,1350,0,240,0, 
0.7533,-1063.2,-1081.2,-3783.0,-984.3,-892.2,1187.4,-1047.9,181.5,-3112.2,-940.5,-980.1,-1056.0,347.4,-9827.4,2732.1,-4504.5,-6.9,-5.7,-1364.7,-2139.3,-0.9,-970.2,1126.5,1746.3,0,1356,0,241,0, 
0.7567,-968.1,-1049.7,-3693.9,-156.3,-66.0,1190.1,-228.6,172.2,-2741.7,-115.8,-149.7,-224.7,360.3,-9827.4,1616.4,-4362.3,-7.2,-5.7,-537.0,400.8,-0.6,-134.4,1204.5,2468.4,0,1362,0,242,0, 
0.7600,-891.6,-983.4,-3651.0,204.3,292.5,1221.3,126.0,242.1,-2371.2,239.4,209.4,130.2,175.8,-9827.4,505.2,-4225.8,-6.6,-6.0,-178.5,1005.3,-0.9,219.3,1220.7,2803.5,0,1368,0,243,0, 
0.7633,-865.5,-999.0,-3591.6,-308.1,-222.3,1257.6,-390.3,317.4,-2593.5,-269.4,-309.6,-390.3,158.7,-9827.4,1095.9,-4154.1,-6.9,-6.3,-696.9,-870.6,-0.9,-308.1,1131.3,2379.9,0,1374,0,244,0, 
0.7667,-1021.8,-1105.2,-3655.8,-1028.1,-942.3,1284.9,-1106.1,181.5,-2964.0,-981.6,-1026.3,-1107.0,271.5,-9827.4,2479.2,-4327.5,-6.9,-6.0,-1410.6,-2721.3,-0.6,-1022.1,1126.5,1736.1,0,1380,0,245,0, 
0.7700,-1012.2,-1110.0,-3592.2,-951.6,-864.3,1224.6,-1029.9,183.3,-3260.4,-885.3,-943.8,-1025.1,470.4,-9827.4,3082.2,-4407.9,-6.9,-6.3,-1329.9,-1937.4,-0.9,-934.8,1173.6,1752.9,0,1386,0,246,0, 
0.7733,-1003.2,-1107.3,-3658.5,-219.3,-133.8,1141.8,-297.6,83.1,-2889.9,-161.7,-210.3,-294.0,395.7,-9827.4,1884.9,-4416.9,-6.9,-6.0,-594.0,373.8,-0.9,-210.3,1197.6,2397.6,0,1392,0,247,0, 
0.7767,-902.1,-1039.2,-3623.7,125.7,210.9,1146.3,48.6,172.2,-2593.5,186.3,137.1,56.7,240.3,-9827.4,740.4,-4263.0,-7.2,-6.0,-249.0,987.3,-0.9,138.6,1231.5,2737.8,0,1398,0,248,0, 
0.7800,-1030.5,-1086.3,-3692.1,-563.4,-474.9,1052.7,-635.1,124.8,-2741.7,-511.8,-557.4,-639.6,134.7,-9827.4,1208.4,-4388.7,-7.2,-6.0,-941.1,-1068.6,-1.2,-557.4,1116.0,2147.1,0,1404,0,249,0, 
0.7833,-1105.2,-1164.9,-3731.7,-1345.5,-1254.3,1048.5,-1419.9,93.6,-3260.4,-1300.5,-1338.0,-1423.2,319.8,-9827.4,2733.6,-4567.8,-7.2,-5.7,-1720.8,-3097.8,-0.9,-1331.4,1106.4,1464.9,0,1410,0,250,0, 
0.7867,-1092.3,-1176.3,-3616.2,-1232.4,-1144.5,934.2,-1306.2,30.3,-3408.6,-1169.7,-1219.5,-1300.8,596.7,-9827.4,3299.7,-4718.7,-6.9,-6.3,-1609.2,-2348.4,-1.5,-1215.3,1116.0,1510.5,0,1416,0,251,0, 
0.7900,-1001.7,-1162.2,-3555.3,-474.6,-390.6,893.1,-555.0,-2.4,-3260.4,-420.9,-463.2,-544.2,515.1,-9827.4,2184.0,-4630.5,-6.9,-6.0,-846.9,142.2,-0.3,-458.1,1086.0,2157.9,0,1422,0,252,0, 
0.7933,-828.0,-1040.1,-3510.0,-96.3,-9.9,992.7,-171.3,122.1,-2815.8,-51.0,-87.0,-165.6,395.1,-9827.4,1147.5,-4461.3,-6.9,-6.0,-479.1,772.8,-0.9,-73.5,1187.7,2550.3,0,1428,0,253,0, 
0.7967,-933.0,-1140.6,-3580.5,-719.1,-627.9,889.5,-794.4,157.2,-2964.0,-668.7,-707.4,-787.2,391.8,-9827.4,1643.1,-4481.7,-6.6,-5.7,-1099.8,-1464.0,-0.3,-701.1,995.4,1991.7,0,1434,0,254,0, 
0.8000,-1060.8,-1140.9,-3528.9,-1455.9,-1369.2,884.1,-1524.6,114.3,-3260.4,-1400.1,-1444.8,-1526.4,601.8,-9827.4,3217.5,-4656.3,-6.9,-6.0,-1830.6,-3220.2,-1.2,-1432.5,967.2,1326.0,0,1440,0,255,0, 
0.8033,-1138.5,-1230.9,-3516.9,-1410.9,-1326.3,756.3,-1482.0,39.9,-3556.8,-1353.3,-1396.2,-1476.3,807.9,-9827.4,3670.8,-4864.8,-6.9,-5.7,-1784.1,-2471.1,-0.9,-1386.9,998.7,1311.3,0,1446,0,0,0, 
0.8067,-1065.6,-1216.8,-3530.4,-698.7,-610.2,654.3,-767.7,-11.7,-3408.6,-637.8,-684.9,-763.2,649.8,-9827.4,2521.2,-4830.6,-7.2,-5.7,-1077.3,-137.4,-0.6,-678.6,927.9,1898.7,0,1452,0,1,0, 
0.8100,-966.6,-1080.6,-3490.8,-314.7,-231.6,692.1,-391.2,94.5,-2964.0,-261.3,-303.9,-381.6,477.0,-9827.4,1412.4,-4655.1,-6.9,-5.4,-689.1,496.5,-0.9,-299.4,983.7,2277.0,0,1458,0,2,0, 
0.8133,-948.0,-1020.9,-3459.0,-994.2,-910.2,661.8,-1069.5,111.3,-3038.1,-944.1,-984.0,-1058.4,442.2,-9827.4,2008.2,-4725.3,-6.9,-5.7,-1374.9,-1792.5,-0.9,-973.5,874.8,1702.5,0,1464,0,3,0, 
0.8167,-1079.1,-1037.1,-3472.8,-1747.5,-1658.1,602.7,-1816.2,43.8,-3482.7,-1694.1,-1736.1,-1814.4,687.3,-9827.4,3441.9,-4913.7,-6.9,-6.6,-2123.4,-3596.4,-0.6,-1728.9,826.5,1022.1,0,1470,0,4,0, 
0.8200,-1117.5,-1027.5,-3287.4,-1737.9,-1647.6,442.8,-1809.0,7.8,-3779.1,-1684.5,-1725.3,-1802.4,1065.9,-9827.4,4332.0,-5056.8,-7.2,-6.0,-2105.7,-3501.3,-0.9,-1721.1,775.8,934.2,0,1476,0,5,0, 
0.8233,-1099.2,-976.8,-3224.7,-864.6,-777.0,330.0,-938.1,-81.9,-3630.9,-800.1,-847.5,-925.5,1110.3,-9827.4,3240.0,-4940.4,-6.6,-5.7,-1230.9,-575.1,-0.3,-844.5,740.1,1681.8,0,1482,0,6,0, 
0.8267,-991.8,-895.8,-3185.7,-443.4,-356.4,417.6,-516.9,96.0,-2964.0,-401.1,-432.6,-505.5,951.0,-9827.4,2018.7,-4791.6,-7.2,-6.0,-822.3,511.5,-0.9,-426.3,661.8,2091.0,0,1488,0,7,0, 
0.8300,-919.2,-815.4,-3127.8,-1003.8,-916.8,480.3,-1075.8,203.1,-3038.1,-958.5,-993.0,-1068.0,969.3,-9827.4,2543.4,-4754.7,-7.5,-6.0,-1376.7,-1701.6,-0.9,-985.8,666.9,1641.9,0,1494,0,8,0, 
0.8333,-988.5,-900.9,-3134.4,-1706.7,-1620.9,402.9,-1778.4,231.6,-3482.7,-1660.5,-1696.5,-1773.3,1252.8,-9827.4,4142.4,-4914.6,-7.2,-6.3,-2081.1,-3767.1,-0.3,-1695.0,634.5,968.1,0,1500,0,9,0, 
0.8367,-871.2,-831.0,-3022.8,-1481.1,-1393.5,345.9,-1554.3,188.4,-3556.8,-1428.6,-1468.5,-1542.9,1461.3,-9827.4,4633.2,-4919.1,-7.2,-6.3,-1855.5,-2801.4,-0.6,-1460.4,738.0,1139.4,0,1506,0,10,0, 
0.8400,-816.6,-887.7,-3101.1,-653.4,-574.5,163.2,-735.3,136.5,-3334.5,-600.3,-643.5,-720.9,1182.0,-9827.4,3256.8,-4908.9,-6.6,-5.7,-1029.3,-67.2,-0.3,-639.3,691.2,1854.0,0,1512,0,11,0, 
0.8433,-732.3,-906.6,-3198.6,-248.4,-163.5,348.6,-327.0,160.8,-2889.9,-201.9,-232.8,-311.7,925.8,-9827.4,1924.8,-4692.3,-6.9,-6.3,-626.1,720.9,-1.2,-232.5,682.5,2251.2,0,1518,0,12,0, 
0.8467,-730.5,-805.8,-3085.5,-818.4,-734.1,422.7,-898.8,287.7,-2815.8,-775.5,-807.3,-885.6,908.1,-9827.4,2547.3,-4626.0,-6.6,-6.0,-1198.5,-1578.9,-0.6,-802.2,686.7,1782.0,0,1524,0,13,0, 
0.8500,-884.1,-823.5,-3125.4,-1640.1,-1555.2,373.5,-1718.7,223.8,-3482.7,-1600.8,-1626.6,-1710.0,1213.8,-9827.4,4060.2,-4857.0,-7.2,-6.0,-2013.0,-3684.0,-0.6,-1627.8,647.7,1051.5,0,1530,0,14,0, 
0.8533,-961.2,-887.4,-3106.5,-1581.6,-1501.2,177.9,-1656.9,83.7,-3779.1,-1525.2,-1567.5,-1646.4,1427.1,-9827.4,4485.0,-5048.7,-6.9,-5.4,-1957.2,-2871.3,-0.6,-1551.9,597.9,1025.7,0,1536,0,15,0, 
0.8567,-818.1,-866.7,-3080.4,-686.7,-606.6,117.0,-771.3,-6.6,-3408.6,-644.7,-678.9,-754.8,1269.0,-9827.4,3027.9,-4953.0,-6.6,-5.7,-1068.9,-117.3,-0.6,-669.0,582.3,1794.3,0,1542,0,16,0, 
0.8600,-692.1,-756.3,-3038.7,-289.8,-211.5,193.8,-369.3,82.8,-2964.0,-241.2,-279.3,-354.9,927.6,-9827.4,1746.3,-4774.8,-6.6,-5.4,-669.6,777.9,-0.9,-274.2,691.8,2194.2,0,1548,0,17,0, 
0.8633,-681.0,-618.3,-2957.4,-914.4,-832.8,282.9,-991.5,258.3,-3038.1,-861.9,-906.9,-982.2,964.2,-9827.4,2237.7,-4784.1,-6.6,-6.3,-1296.3,-1696.8,-0.9,-892.2,687.6,1665.9,0,1554,0,18,0, 
0.8667,-893.7,-709.8,-3042.0,-1793.4,-1710.9,153.3,-1867.5,197.7,-3482.7,-1733.7,-1781.7,-1860.9,1180.5,-9827.4,3810.9,-5144.4,-6.9,-5.7,-2172.6,-3929.1,-0.6,-1775.4,565.2,852.3,0,1560,0,19,0, 
0.8700,-878.7,-676.5,-2986.2,-1581.3,-1499.7,92.1,-1654.2,129.0,-3853.2,-1526.1,-1572.3,-1647.3,1407.3,-9827.4,4226.7,-5200.8,-6.9,-6.3,-1956.6,-2909.1,-0.6,-1557.9,500.7,951.3,0,1566,0,20,0, 
0.8733,-712.8,-736.8,-2938.2,-653.1,-570.6,87.0,-729.6,126.9,-3408.6,-596.7,-645.0,-719.4,1292.1,-9827.4,2767.8,-5019.6,-6.9,-6.0,-1031.4,98.1,-0.9,-640.5,574.8,1793.7,0,1572,0,21,0, 
0.8767,-606.6,-677.4,-2969.7,-242.7,-162.3,261.9,-324.9,189.9,-2889.9,-198.6,-241.5,-310.2,1000.2,-9827.4,1377.3,-4830.9,-7.2,-5.7,-630.6,808.8,-0.9,-230.7,614.4,2227.2,0,1578,0,22,0, 
0.8800,-683.7,-768.9,-3034.2,-960.0,-881.4,176.7,-1044.9,127.2,-3038.1,-923.1,-956.7,-1030.5,892.2,-9827.4,1857.3,-4925.7,-6.9,-6.0,-1343.4,-1794.9,-0.9,-942.6,385.2,1578.0,0,1584,0,23,0, 
0.8833,-739.5,-708.9,-3031.8,-1708.8,-1625.1,84.6,-1789.8,93.0,-3482.7,-1670.7,-1708.2,-1781.7,1321.8,-9827.4,3631.5,-5095.5,-6.3,-5.7,-2095.8,-4040.4,-0.6,-1686.3,381.6,889.8,0,1590,0,24,0, 
0.8867,-747.0,-697.8,-2889.9,-1516.5,-1434.6,-57.3,-1593.0,111.0,-3779.1,-1469.4,-1514.4,-1589.7,1561.5,-9827.4,4118.4,-5165.4,-6.9,-5.7,-1902.0,-3010.5,-0.9,-1496.7,409.5,983.1,0,1596,0,25,0, 
0.8900,-587.7,-724.5,-2818.5,-525.3,-446.4,-38.1,-614.7,167.4,-3334.5,-476.4,-519.6,-593.7,1367.7,-9827.4,2674.5,-4989.0,-7.2,-5.7,-906.9,267.6,-0.6,-510.0,402.6,1867.5,0,1602,0,26,0, 
0.8933,-444.6,-634.8,-2842.8,-117.0,-41.1,117.0,-201.3,278.4,-2889.9,-68.4,-110.7,-189.3,1101.0,-9827.4,1248.9,-4785.6,-6.6,-6.0,-498.3,1024.8,-1.2,-102.6,552.3,2304.0,0,1608,0,27,0, 
0.8967,-554.7,-695.1,-2882.4,-779.7,-702.9,90.3,-858.0,219.6,-2889.9,-735.9,-778.5,-856.8,1019.4,-9827.4,1746.9,-4814.4,-7.5,-6.0,-1167.9,-1636.5,-0.9,-764.7,380.7,1748.4,0,1614,0,28,0, 
0.9000,-606.6,-622.2,-2775.0,-1568.7,-1485.6,-55.5,-1641.9,229.5,-3334.5,-1525.8,-1563.9,-1642.2,1333.2,-9827.4,3506.1,-5001.6,-6.9,-5.7,-1949.1,-3980.4,-0.6,-1555.5,262.8,1010.7,0,1620,0,29,0, 
0.9033,-680.7,-639.0,-2791.5,-1509.9,-1432.8,-210.0,-1592.1,90.9,-3630.9,-1470.6,-1505.7,-1586.1,1591.8,-9827.4,3936.3,-5203.2,-6.9,-6.0,-1893.9,-2881.2,-0.9,-1509.0,225.6,999.9,0,1626,0,30,0, 
0.9067,-482.1,-561.0,-2807.4,-555.6,-480.6,-178.2,-642.6,17.7,-3260.4,-509.7,-551.1,-633.0,1426.8,-9827.4,2497.8,-5114.1,-6.9,-6.0,-941.1,195.6,-0.9,-548.7,302.7,1830.3,0,1632,0,31,0, 
0.9100,-453.3,-588.3,-2883.0,-167.4,-87.3,-144.6,-252.6,52.5,-2964.0,-118.5,-157.8,-235.2,1051.8,-9827.4,1074.6,-4931.1,-6.9,-6.0,-552.9,975.9,-0.6,-143.7,291.9,2208.3,0,1638,0,32,0, 
0.9133,-537.9,-501.0,-2849.1,-807.0,-721.8,-158.4,-888.9,151.5,-2964.0,-769.2,-798.9,-878.4,1087.8,-9827.4,1689.3,-4889.1,-6.6,-6.0,-1194.3,-1774.8,-0.6,-784.5,256.2,1649.4,0,1644,0,33,0, 
0.9167,-597.0,-440.7,-2793.9,-1617.3,-1541.4,-346.2,-1692.3,83.7,-3482.7,-1575.6,-1612.2,-1690.8,1393.8,-9827.4,3446.4,-5077.5,-6.9,-5.4,-2008.8,-4129.8,-1.2,-1598.1,132.9,906.0,0,1650,0,34,0, 
0.9200,-587.4,-561.9,-2775.9,-1427.1,-1346.1,-449.4,-1503.3,-13.5,-3556.8,-1390.8,-1422.6,-1501.8,1634.4,-9827.4,3924.0,-5179.5,-6.9,-5.7,-1817.7,-2972.7,-0.9,-1414.5,85.5,1004.1,0,1656,0,35,0, 
0.9233,-503.7,-630.9,-2838.3,-459.9,-383.7,-496.2,-535.5,-36.9,-3260.4,-420.3,-453.0,-532.2,1498.5,-9827.4,2363.7,-5044.5,-6.9,-5.7,-850.2,362.4,-0.9,-446.7,162.9,1880.4,0,1662,0,36,0, 
0.9267,-402.9,-688.8,-2902.5,-116.7,-40.2,-316.5,-199.5,78.0,-2964.0,-81.3,-108.3,-187.2,1021.5,-9827.4,921.9,-4923.3,-7.2,-6.3,-506.1,1127.7,-0.9,-98.4,216.3,2250.6,0,1668,0,37,0, 
0.9300,-441.9,-613.8,-2901.9,-815.7,-729.0,-248.4,-887.7,113.1,-3038.1,-774.3,-806.7,-885.6,1076.1,-9827.4,1559.1,-4941.3,-6.9,-5.7,-1205.7,-1722.3,-0.6,-796.2,196.8,1686.3,0,1674,0,38,0, 
0.9333,-573.6,-633.9,-2863.2,-1715.7,-1633.2,-432.6,-1788.9,-60.3,-3482.7,-1668.0,-1707.3,-1791.6,1451.1,-9827.4,3355.5,-5206.8,-6.9,-6.3,-2100.6,-4311.9,-0.9,-1706.4,61.2,832.5,0,1680,0,39,0, 
0.9367,-563.7,-561.3,-2786.4,-1561.5,-1479.9,-601.2,-1633.8,-80.1,-3705.0,-1518.6,-1550.7,-1630.5,1747.8,-9827.4,3906.9,-5306.1,-6.6,-6.0,-1944.9,-3219.6,-0.6,-1542.6,87.0,879.6,0,1686,0,40,0, 
0.9400,-461.4,-596.7,-2817.6,-519.9,-438.9,-611.7,-599.4,-91.5,-3260.4,-479.7,-508.8,-586.5,1509.9,-9827.4,2229.0,-5112.3,-6.6,-5.7,-906.6,325.2,-0.6,-500.7,146.4,1803.0,0,1692,0,41,0, 
0.9433,-416.1,-555.3,-2917.2,-21.6,60.6,-447.9,-94.5,-16.8,-2741.7,12.9,-13.8,-89.7,1053.0,-9827.4,663.3,-4895.7,-7.2,-6.0,-411.0,1247.1,-1.2,-1.2,242.7,2340.9,0,1698,0,42,0, 
0.9467,-438.3,-571.8,-2837.1,-724.8,-638.1,-414.3,-796.2,-4.2,-2815.8,-682.8,-715.8,-793.8,997.8,-9827.4,1297.8,-4914.3,-6.9,-6.0,-1108.8,-1698.3,-0.6,-708.3,281.1,1767.3,0,1704,0,43,0, 
0.9500,-498.6,-459.6,-2710.5,-1601.4,-1519.5,-594.9,-1668.3,-2.4,-3408.6,-1568.1,-1595.4,-1676.1,1443.6,-9827.4,3250.2,-5140.2,-7.2,-5.7,-1985.4,-4307.4,-0.6,-1594.8,311.7,894.0,0,1710,0,44,0, 
0.9533,-543.9,-454.8,-2625.9,-1425.9,-1346.7,-796.2,-1497.3,-144.3,-3705.0,-1376.4,-1415.7,-1496.4,1741.8,-9827.4,3822.0,-5271.9,-6.9,-6.0,-1808.4,-3108.6,-0.3,-1416.6,247.2,962.1,0,1716,0,45,0, 
0.9567,-420.9,-508.8,-2730.0,-370.8,-291.6,-780.3,-442.5,-276.6,-3112.2,-325.5,-356.4,-438.3,1449.9,-9827.4,2230.2,-5100.0,-6.9,-6.0,-755.7,426.6,-0.9,-351.3,316.2,1912.5,0,1722,0,46,0, 
0.9600,-397.2,-573.6,-2829.0,79.5,168.3,-563.1,3.6,-201.6,-2741.7,115.2,91.5,13.5,1024.2,-9827.4,612.6,-4860.6,-7.2,-6.0,-309.3,1287.9,-0.6,97.5,301.2,2385.9,0,1728,0,47,0, 
0.9633,-399.3,-506.1,-2857.5,-668.4,-581.7,-477.3,-736.2,-219.0,-2741.7,-633.3,-659.4,-734.1,1025.1,-9827.4,1315.5,-4851.0,-6.9,-6.3,-1055.7,-1640.1,-0.3,-654.3,299.7,1777.5,0,1734,0,48,0, 
0.9667,-435.0,-464.7,-2699.4,-1616.7,-1536.6,-626.7,-1691.4,-20.1,-3334.5,-1584.3,-1605.6,-1684.5,1462.2,-9827.4,3312.0,-5130.0,-6.9,-6.3,-1999.5,-4273.8,-0.3,-1611.3,287.7,909.9,0,1740,0,49,0, 
0.9700,-490.5,-370.5,-2618.7,-1302.3,-1223.4,-875.1,-1374.3,-120.0,-3408.6,-1253.1,-1288.5,-1364.7,1722.0,-9827.4,3929.4,-5136.6,-6.9,-5.7,-1680.3,-3106.2,-0.9,-1289.7,181.2,1078.5,0,1746,0,50,0, 
0.9733,-444.9,-471.6,-2627.7,-201.6,-117.3,-870.9,-278.1,-271.5,-3038.1,-147.0,-185.7,-264.3,1395.0,-9827.4,2229.3,-4980.3,-6.9,-6.0,-583.8,705.9,-0.6,-175.2,229.5,2074.8,0,1752,0,51,0, 
0.9767,-394.2,-541.5,-2819.4,168.6,253.8,-682.8,93.3,-148.2,-2593.5,219.0,184.5,106.8,858.9,-9827.4,592.8,-4771.5,-6.3,-6.0,-207.6,1495.2,-0.6,189.3,265.2,2466.0,0,1758,0,52,0, 
0.9800,-478.5,-601.2,-2830.8,-633.9,-551.7,-612.0,-707.1,-53.1,-2741.7,-585.6,-619.8,-699.9,832.8,-9827.4,1253.1,-4815.0,-6.9,-6.0,-1013.1,-1694.4,-0.6,-612.3,203.1,1792.8,0,1764,0,53,0, 
0.9833,-579.6,-560.1,-2777.4,-1638.9,-1561.2,-835.2,-1716.6,-117.3,-3260.4,-1584.6,-1623.0,-1709.4,1294.2,-9827.4,3228.3,-5138.4,-6.9,-5.7,-2011.8,-4442.1,-0.9,-1618.8,152.1,855.3,0,1770,0,54,0, 
0.9867,-519.0,-496.5,-2615.4,-1480.2,-1404.3,-976.5,-1557.3,-143.1,-3630.9,-1426.5,-1464.0,-1552.2,1658.4,-9827.4,3883.2,-5293.5,-6.9,-6.0,-1855.8,-3241.8,-0.9,-1474.2,91.5,917.4,0,1776,0,55,0, 
0.9900,-464.7,-498.6,-2655.3,-403.5,-325.5,-912.9,-476.1,-158.4,-3186.3,-349.5,-388.2,-472.8,1422.6,-9827.4,2222.1,-5082.6,-6.6,-6.0,-784.8,577.5,-0.6,-391.5,160.8,1900.2,0,1782,0,56,0, 
0.9933,-448.2,-567.0,-2862.6,-4.5,71.7,-748.2,-78.3,-150.9,-2889.9,35.4,9.6,-75.6,865.5,-9827.4,561.9,-4919.1,-6.9,-6.0,-391.8,1359.9,-1.2,3.6,90.6,2302.2,0,1788,0,57,0, 
0.9967,-526.8,-459.0,-2836.2,-711.3,-631.2,-667.8,-782.1,-19.2,-2741.7,-659.7,-692.4,-780.6,879.3,-9827.4,1272.9,-4855.5,-7.2,-5.7,-1087.2,-1754.1,-0.3,-693.3,5.7,1719.3,0,1794,0,58,0, 
1.0000,-646.8,-401.7,-2748.9,-1658.7,-1575.9,-823.5,-1727.7,-66.6,-3260.4,-1608.3,-1641.6,-1727.7,1324.8,-9827.4,3310.5,-5075.1,-6.9,-6.0,-2032.5,-4589.1,-0.9,-1637.1,-94.8,869.1,0,1800,0,59,0, 
1.0033,-630.0,-451.2,-2621.4,-1449.6,-1370.7,-1007.4,-1522.5,-179.4,-3556.8,-1398.6,-1434.0,-1522.5,1687.5,-9827.4,4077.3,-5146.2,-7.2,-5.4,-1826.4,-3321.9,0.0,-1432.2,13.2,976.5,0,1806,0,60,0, 
1.0067,-528.0,-512.1,-2757.3,-303.9,-225.0,-902.1,-381.0,-182.4,-3112.2,-253.5,-285.0,-368.7,1424.4,-9827.4,2346.9,-4969.8,-6.9,-6.3,-681.6,597.6,-0.6,-283.5,153.0,1996.5,0,1812,0,61,0, 
1.0100,-418.2,-623.4,-2769.0,123.6,193.2,-575.1,41.4,-101.7,-2741.7,165.3,141.0,56.7,961.8,-9827.4,743.4,-4725.9,-6.9,-6.3,-256.2,1553.7,-0.6,150.0,201.6,2454.0,0,1818,0,62,0, 
1.0133,-500.1,-647.1,-2832.6,-735.6,-657.0,-614.4,-811.5,-6.6,-2889.9,-683.4,-719.1,-806.7,830.7,-9827.4,1397.4,-4888.2,-7.2,-6.0,-1119.3,-1758.0,-0.6,-711.9,147.3,1710.6,0,1824,0,63,0, 
1.0167,-634.5,-554.4,-2643.3,-1711.5,-1629.6,-701.1,-1786.2,55.5,-3260.4,-1657.2,-1692.3,-1776.9,1367.7,-9827.4,3564.6,-5136.0,-7.2,-6.0,-2083.5,-4597.5,-0.9,-1695.3,47.7,807.3,0,1830,0,64,0, 
1.0200,-627.0,-499.5,-2496.9,-1479.6,-1401.6,-857.4,-1560.9,20.7,-3630.9,-1419.9,-1458.0,-1544.1,1659.6,-9827.4,4201.2,-5221.5,-6.3,-6.0,-1851.9,-3244.8,-1.2,-1456.5,69.3,922.2,0,1836,0,65,0, 
1.0233,-482.4,-590.4,-2664.9,-347.1,-270.9,-762.0,-430.2,-51.0,-3112.2,-297.9,-331.8,-408.9,1357.5,-9827.4,2445.3,-5043.3,-6.6,-5.7,-730.8,672.6,-0.9,-325.5,243.6,1921.5,0,1842,0,66,0, 
1.0267,-409.2,-627.0,-2716.2,96.3,170.1,-529.8,10.5,-29.4,-2741.7,140.1,111.9,33.3,822.6,-9827.4,743.7,-4834.2,-6.9,-5.7,-289.8,1551.9,-0.9,117.3,322.2,2404.2,0,1848,0,67,0, 
1.0300,-494.4,-638.4,-2689.5,-720.3,-646.5,-524.4,-795.9,36.0,-2815.8,-671.1,-706.8,-785.7,868.2,-9827.4,1419.0,-4878.9,-6.6,-5.7,-1103.1,-1685.7,-1.2,-708.6,263.7,1734.9,0,1854,0,68,0, 
1.0333,-678.6,-579.0,-2588.1,-1694.1,-1618.8,-680.1,-1768.2,-81.3,-3260.4,-1647.3,-1680.3,-1765.2,1402.5,-9827.4,3495.3,-5121.9,-6.9,-5.4,-2075.7,-4626.0,-1.2,-1681.2,267.0,818.7,0,1860,0,69,0, 
1.0367,-648.3,-547.2,-2508.9,-1491.0,-1419.0,-830.7,-1574.7,-90.6,-3630.9,-1459.2,-1482.3,-1560.3,1745.7,-9827.4,4256.7,-5290.5,-6.9,-5.7,-1878.0,-3292.5,-0.9,-1478.7,231.3,898.5,0,1866,0,70,0, 
1.0400,-602.7,-624.9,-2527.2,-417.0,-344.7,-801.3,-501.9,-89.7,-3186.3,-385.8,-406.5,-487.2,1493.1,-9827.4,2452.2,-5130.3,-6.9,-6.0,-811.5,636.6,-0.9,-398.1,306.6,1866.3,0,1872,0,71,0, 
1.0433,-491.7,-592.5,-2685.3,18.6,97.2,-609.6,-65.4,-71.1,-2889.9,56.4,33.6,-47.1,904.2,-9827.4,735.9,-4877.1,-6.9,-5.7,-369.6,1494.9,-0.9,31.2,400.5,2319.3,0,1878,0,72,0, 
1.0467,-518.4,-560.1,-2677.5,-825.3,-753.0,-552.9,-905.4,-30.0,-2889.9,-786.3,-808.2,-891.6,924.3,-9827.4,1525.8,-4944.3,-6.9,-5.7,-1210.2,-1814.4,-0.9,-808.5,261.0,1623.9,0,1884,0,73,0, 
1.0500,-565.2,-445.2,-2423.7,-1676.7,-1596.6,-690.9,-1751.4,39.6,-3260.4,-1642.8,-1664.7,-1745.7,1557.9,-9827.4,3601.2,-5112.9,-6.9,-5.7,-2062.8,-4634.1,-0.9,-1663.2,227.4,785.7,0,1890,0,74,0, 
1.0533,-555.6,-392.7,-2354.4,-1389.6,-1311.0,-871.8,-1467.9,-54.3,-3482.7,-1345.2,-1377.9,-1460.1,1892.7,-9827.4,4323.9,-5199.9,-6.6,-6.3,-1774.8,-3303.9,-0.3,-1374.0,233.1,956.1,0,1896,0,75,0, 
1.0567,-531.3,-531.6,-2492.7,-310.5,-235.5,-869.1,-393.0,-214.5,-3186.3,-273.3,-299.7,-381.9,1443.6,-9827.4,2373.0,-5067.9,-6.9,-5.7,-699.6,733.2,-0.6,-294.0,147.3,1911.0,0,1902,0,76,0, 
1.0600,-449.4,-627.9,-2660.1,63.3,142.2,-562.2,-17.1,-74.4,-2815.8,96.0,78.3,-0.9,885.6,-9827.4,673.5,-4845.0,-6.9,-5.4,-326.7,1597.2,-0.9,81.9,342.9,2331.3,0,1908,0,77,0, 
1.0633,-458.7,-462.6,-2580.3,-772.5,-693.0,-402.0,-845.7,-23.7,-2741.7,-740.7,-759.9,-839.7,975.6,-9827.4,1515.3,-4904.1,-7.5,-6.0,-1160.1,-1774.8,-1.2,-748.8,294.3,1609.5,0,1914,0,78,0, 
1.0667,-512.1,-381.3,-2414.4,-1737.9,-1652.7,-556.5,-1805.7,-18.0,-3186.3,-1703.4,-1721.7,-1801.8,1543.2,-9827.4,3609.3,-5136.9,-7.2,-6.0,-2116.5,-4787.4,-0.6,-1717.8,196.5,733.2,0,1920,0,79,0, 
1.0700,-540.3,-331.5,-2273.7,-1588.2,-1510.8,-649.2,-1655.7,-133.5,-3705.0,-1550.7,-1572.6,-1653.3,1924.8,-9827.4,4245.0,-5345.4,-6.6,-5.7,-1971.3,-3268.5,-0.3,-1569.0,267.6,739.2,0,1926,0,80,0, 
1.0733,-415.5,-405.3,-2388.6,-344.1,-261.9,-450.9,-420.9,-108.0,-3260.4,-304.8,-327.6,-405.9,1559.1,-9827.4,2342.4,-5179.2,-7.2,-6.0,-728.1,765.0,-0.9,-326.4,442.5,1838.1,0,1932,0,81,0, 
1.0767,-346.2,-466.5,-2566.2,7.8,86.1,-270.3,-70.2,-86.1,-2741.7,45.0,22.8,-57.0,891.0,-9827.4,531.3,-4966.2,-6.9,-6.0,-377.7,1627.8,-1.2,19.2,494.7,2258.1,0,1938,0,82,0, 
1.0800,-345.9,-335.1,-2474.4,-862.8,-776.7,-207.6,-939.9,87.0,-2815.8,-830.7,-851.4,-927.3,980.7,-9827.4,1401.3,-4989.0,-6.9,-5.7,-1247.4,-1929.6,-0.6,-849.6,501.9,1506.3,0,1944,0,83,0, 
1.0833,-501.9,-272.4,-2327.4,-1833.6,-1754.1,-445.8,-1911.6,108.6,-3334.5,-1800.9,-1824.9,-1896.6,1530.9,-9827.4,3567.6,-5328.3,-6.9,-5.7,-2218.8,-4898.7,-0.6,-1818.9,405.9,592.5,0,1950,0,84,0, 
1.0867,-428.4,-255.9,-2146.5,-1569.0,-1486.8,-616.8,-1650.3,37.5,-3630.9,-1532.1,-1558.5,-1633.2,1887.6,-9827.4,4274.7,-5410.5,-7.2,-6.0,-1953.9,-3397.2,-0.6,-1553.1,387.0,752.1,0,1956,0,85,0, 
1.0900,-381.9,-330.9,-2331.3,-436.2,-357.0,-489.0,-518.1,54.0,-3260.4,-411.6,-423.6,-493.8,1460.4,-9827.4,2351.7,-5232.6,-6.6,-6.0,-822.9,791.7,-0.6,-421.5,551.4,1777.8,0,1962,0,86,0, 
1.0933,-346.8,-442.8,-2485.8,-44.7,27.3,-195.9,-128.1,41.4,-2889.9,-6.6,-35.7,-111.3,826.5,-9827.4,554.4,-5005.2,-6.6,-5.7,-438.0,1539.0,-0.9,-28.8,512.1,2186.7,0,1968,0,87,0, 
1.0967,-406.8,-401.7,-2543.7,-1050.3,-979.5,-115.2,-1127.4,39.6,-3038.1,-1009.8,-1041.6,-1114.8,802.2,-9827.4,1430.7,-5180.4,-6.6,-6.0,-1438.5,-2006.7,-0.9,-1044.6,532.5,1326.9,0,1974,0,88,0, 
1.1000,-479.1,-322.2,-2398.5,-2019.3,-1950.3,-290.4,-2102.4,100.8,-3630.9,-1978.5,-2010.3,-2089.5,1413.3,-9827.4,3667.2,-5420.1,-7.2,-6.0,-2401.5,-4905.6,-0.9,-2016.6,470.7,400.5,0,1980,0,89,0, 
1.1033,-452.1,-199.2,-2210.1,-1700.7,-1623.3,-430.8,-1787.1,50.7,-3630.9,-1665.6,-1693.2,-1769.1,1829.4,-9827.4,4338.6,-5472.9,-6.6,-5.7,-2083.8,-3399.3,-0.9,-1701.9,436.5,610.8,0,1986,0,90,0, 
1.1067,-376.2,-291.9,-2332.8,-595.2,-526.8,-355.2,-680.1,-1.8,-3334.5,-553.2,-582.9,-659.4,1501.2,-9827.4,2456.1,-5354.7,-6.9,-6.0,-978.6,519.6,-0.6,-586.5,473.7,1600.8,0,1992,0,91,0, 
1.1100,-323.7,-351.6,-2418.3,-234.6,-162.3,-114.3,-322.8,87.0,-3112.2,-198.6,-223.5,-299.4,1002.9,-9827.4,704.4,-5149.5,-6.3,-5.4,-620.1,1246.5,-0.6,-229.2,622.5,1984.8,0,1998,0,92,0, 
1.1133,-364.5,-291.9,-2400.9,-1058.7,-981.9,-94.5,-1137.9,201.6,-3112.2,-1016.4,-1044.9,-1124.7,1119.3,-9827.4,1528.2,-5161.5,-6.9,-5.7,-1439.1,-1957.5,-0.9,-1052.4,594.3,1290.6,0,2004,0,93,0, 
1.1167,-429.0,-215.7,-2220.0,-2033.4,-1954.5,-151.8,-2110.2,190.5,-3630.9,-1997.7,-2016.0,-2094.0,1674.0,-9827.4,3621.3,-5441.7,-6.9,-5.7,-2411.1,-4762.2,-0.3,-2030.7,623.7,378.6,0,2010,0,94,0, 
1.1200,-445.2,-229.8,-2201.7,-1804.8,-1730.4,-348.3,-1888.8,67.2,-3927.3,-1771.2,-1790.1,-1868.1,1950.0,-9827.4,4268.1,-5590.5,-7.2,-6.0,-2186.4,-3443.7,-0.9,-1800.0,530.4,494.1,0,2016,0,95,0, 
1.1233,-270.6,-271.8,-2137.5,-633.6,-566.1,-252.9,-728.1,87.3,-3408.6,-603.6,-618.0,-694.2,1764.3,-9827.4,2536.2,-5376.3,-7.2,-5.7,-1014.0,259.2,-0.3,-627.0,668.7,1520.4,0,2022,0,96,0, 
1.1267,-164.7,-367.8,-2337.6,-258.6,-192.6,-38.1,-346.5,217.8,-3112.2,-220.8,-242.4,-324.0,1287.6,-9827.4,1006.5,-5199.6,-7.2,-5.7,-640.8,1041.9,-0.9,-250.5,741.9,1950.6,0,2028,0,97,0, 
1.1300,-213.3,-272.1,-2263.8,-1082.4,-1013.7,69.3,-1167.9,297.6,-3186.3,-1049.1,-1069.5,-1151.4,1261.5,-9827.4,1676.4,-5237.7,-7.2,-6.0,-1464.6,-1836.9,-0.6,-1074.0,749.7,1263.0,0,2034,0,98,0, 
1.1333,-345.0,-273.9,-2226.0,-1966.2,-1893.6,-1.5,-2046.0,218.7,-3556.8,-1928.1,-1955.4,-2035.5,1613.4,-9827.4,3604.8,-5508.6,-7.2,-6.0,-2344.2,-4455.9,-0.9,-1964.4,653.4,463.2,0,2040,0,99,0, 
1.1367,-332.7,-251.1,-2073.9,-1735.8,-1667.4,-153.9,-1816.8,158.4,-3779.1,-1701.6,-1728.6,-1804.8,1913.1,-9827.4,4183.2,-5576.1,-6.6,-6.3,-2124.0,-3316.8,-0.6,-1739.1,644.1,595.5,0,2046,0,100,0, 
1.1400,-251.7,-295.2,-2035.5,-720.9,-649.8,-171.6,-807.3,140.4,-3334.5,-684.0,-709.8,-783.0,1668.0,-9827.4,2622.9,-5424.6,-7.2,-5.7,-1106.1,-77.4,-1.2,-713.4,727.2,1518.0,0,2052,0,101,0, 
1.1433,-153.9,-309.6,-2204.7,-333.9,-265.5,-36.9,-423.3,205.8,-3038.1,-306.3,-330.3,-398.1,1305.3,-9827.4,1138.8,-5199.6,-6.6,-5.7,-731.4,726.6,-0.3,-330.0,696.3,1902.9,0,2058,0,102,0, 
1.1467,-184.2,-343.5,-2195.7,-1089.6,-1013.7,95.7,-1172.7,263.7,-3186.3,-1050.9,-1077.9,-1145.7,1221.6,-9827.4,1637.4,-5263.2,-7.2,-5.7,-1478.1,-1889.4,-0.6,-1076.7,669.9,1291.8,0,2064,0,103,0, 
1.1500,-303.6,-304.5,-2145.0,-1941.0,-1870.8,109.5,-2023.2,261.3,-3630.9,-1893.0,-1926.0,-1995.6,1563.3,-9827.4,3391.2,-5494.2,-6.9,-6.0,-2320.5,-4124.4,-1.2,-1922.7,662.4,483.0,0,2070,0,104,0, 
1.1533,-296.1,-331.2,-2075.4,-1810.5,-1737.9,-59.1,-1889.4,155.7,-3927.3,-1767.6,-1796.7,-1863.6,1826.4,-9827.4,3961.5,-5646.0,-6.6,-6.0,-2186.4,-3216.0,-0.6,-1792.8,645.3,542.4,0,2076,0,105,0, 
1.1567,-118.2,-282.9,-2024.7,-853.2,-782.1,-18.0,-932.7,189.6,-3556.8,-809.1,-843.3,-910.2,1776.9,-9827.4,2591.4,-5463.3,-6.9,-5.7,-1239.3,-393.0,-0.9,-840.0,676.2,1391.1,0,2082,0,106,0, 
1.1600,-89.7,-386.7,-2044.5,-485.4,-412.5,-13.2,-569.1,222.0,-3112.2,-450.3,-473.7,-539.4,1420.8,-9827.4,1256.1,-5285.1,-6.9,-5.7,-869.4,305.4,-0.9,-464.7,705.0,1749.0,0,2088,0,107,0, 
1.1633,-166.8,-458.7,-2032.5,-1174.5,-1098.6,78.0,-1250.1,303.9,-3260.4,-1132.2,-1157.1,-1224.0,1387.5,-9827.4,1825.8,-5329.8,-6.9,-6.3,-1555.8,-1925.4,-0.6,-1152.9,679.5,1179.0,0,2094,0,108,0, 
1.1667,-341.7,-453.6,-2058.3,-1920.6,-1842.9,41.4,-1990.2,214.8,-3630.9,-1872.0,-1902.9,-1971.6,1636.2,-9827.4,3426.6,-5534.1,-6.6,-6.0,-2301.0,-3824.4,-0.9,-1900.2,638.1,513.6,0,2100,0,109,0, 
1.1700,-337.2,-343.5,-2037.6,-1714.2,-1638.0,-57.9,-1791.9,136.2,-3927.3,-1683.0,-1699.8,-1762.5,1962.6,-9827.4,3965.1,-5611.5,-6.9,-5.7,-2096.4,-3044.7,-0.9,-1692.6,677.4,657.0,0,2106,0,110,0, 
1.1733,-198.0,-328.2,-1980.9,-768.9,-693.0,-72.0,-855.9,171.3,-3482.7,-734.7,-754.8,-823.2,1864.2,-9827.4,2605.8,-5403.0,-6.6,-6.0,-1153.8,-494.1,-0.9,-759.0,775.5,1457.1,0,2112,0,111,0, 
1.1767,-99.0,-281.7,-1968.0,-358.8,-290.1,-40.2,-448.5,91.2,-3038.1,-321.3,-344.4,-413.1,1543.2,-9827.4,1336.2,-5158.2,-6.6,-5.7,-741.3,215.1,-0.9,-341.7,731.4,1876.2,0,2118,0,112,0, 
1.1800,-177.6,-255.3,-2025.0,-1075.2,-1002.9,77.4,-1151.7,261.6,-3186.3,-1043.1,-1061.1,-1128.6,1494.0,-9827.4,1904.1,-5211.9,-6.9,-5.7,-1460.1,-1820.7,-0.6,-1058.4,635.1,1286.4,0,2124,0,113,0, 
1.1833,-345.6,-282.0,-1996.8,-1875.6,-1800.6,-51.9,-1949.1,201.0,-3630.9,-1845.0,-1861.8,-1932.6,1587.9,-9827.4,3406.2,-5425.2,-6.9,-5.7,-2258.4,-3721.2,-0.6,-1866.6,622.8,556.5,0,2130,0,114,0, 
1.1867,-328.5,-288.6,-1946.1,-1699.2,-1618.2,-108.6,-1773.9,158.1,-3705.0,-1668.9,-1685.4,-1752.3,1928.7,-9827.4,3879.0,-5531.1,-6.9,-5.7,-2085.3,-3027.9,-0.9,-1687.2,642.0,665.4,0,2136,0,115,0, 
1.1900,-240.0,-325.2,-1854.6,-825.3,-756.3,-222.3,-907.8,49.8,-3556.8,-800.1,-816.9,-886.2,1816.5,-9827.4,2513.4,-5450.4,-6.9,-6.0,-1216.5,-560.4,-0.6,-813.9,656.1,1446.9,0,2142,0,116,0, 
1.1933,-157.2,-402.6,-1950.6,-453.3,-382.5,-234.6,-534.9,42.0,-3260.4,-414.9,-438.0,-505.5,1423.8,-9827.4,1131.0,-5264.1,-6.9,-6.0,-843.0,196.8,-0.6,-431.1,547.2,1807.8,0,2148,0,117,0, 
1.1967,-214.5,-362.7,-1962.3,-1162.2,-1085.1,-46.8,-1248.3,98.4,-3260.4,-1143.3,-1152.3,-1221.0,1330.5,-9827.4,1763.4,-5339.7,-6.9,-5.7,-1550.7,-1851.6,-0.6,-1150.8,537.0,1228.2,0,2154,0,118,0, 
1.2000,-382.2,-469.2,-1955.4,-1977.6,-1901.4,-227.4,-2053.5,32.4,-3630.9,-1955.1,-1970.4,-2034.9,1573.8,-9827.4,3390.6,-5546.4,-6.9,-6.0,-2370.0,-3971.1,-0.9,-1967.7,469.8,499.2,0,2160,0,119,0, 
1.2033,-389.7,-369.3,-1869.6,-1812.0,-1737.6,-277.8,-1888.8,-31.5,-3853.2,-1782.6,-1802.1,-1868.1,1864.5,-9827.4,3977.4,-5661.0,-6.9,-6.0,-2199.0,-3126.3,-0.6,-1808.1,544.8,573.6,0,2166,0,120,0, 
1.2067,-284.1,-375.0,-1872.0,-814.8,-744.3,-269.1,-902.1,-88.8,-3482.7,-774.0,-802.5,-872.7,1768.2,-9827.4,2526.6,-5518.8,-6.9,-5.7,-1200.6,-410.1,-0.3,-814.8,511.5,1431.0,0,2172,0,121,0, 
1.2100,-102.0,-306.3,-1873.8,-439.5,-368.1,-134.1,-528.9,45.6,-3112.2,-400.8,-429.9,-499.8,1455.0,-9827.4,1190.7,-5244.9,-6.9,-5.7,-828.6,384.3,-0.6,-437.4,490.8,1833.0,0,2178,0,122,0, 
1.2133,-194.1,-358.8,-1984.8,-1235.4,-1163.7,-106.5,-1314.3,102.6,-3260.4,-1207.5,-1228.2,-1296.9,1327.8,-9827.1,1701.3,-5403.6,-6.9,-5.4,-1624.8,-1942.5,-0.6,-1228.2,414.0,1136.1,0,2184,0,123,0, 
1.2167,-322.5,-321.6,-1920.3,-2091.6,-2013.6,-101.1,-2167.2,48.0,-3927.3,-2063.4,-2087.7,-2155.2,1659.0,-9827.4,3381.3,-5625.0,-6.6,-6.0,-2485.2,-4184.7,-0.9,-2086.5,458.4,351.3,0,2190,0,124,0, 
1.2200,-312.3,-253.5,-1783.2,-1864.8,-1791.9,-199.8,-1948.2,17.1,-3853.2,-1833.9,-1858.2,-1925.1,2001.6,-9827.4,3939.6,-5774.4,-6.9,-5.7,-2253.6,-3315.6,-0.6,-1857.3,555.3,505.2,0,2196,0,125,0, 
1.2233,-177.9,-248.1,-1701.9,-787.8,-711.3,-197.4,-865.8,-67.8,-3556.8,-758.4,-779.1,-840.9,1810.2,-9826.8,2487.3,-5559.3,-6.9,-6.0,-1178.4,-297.3,-0.9,-769.2,627.0,1465.2,0,2202,0,126,0, 
1.2267,-81.6,-234.3,-1756.8,-378.0,-302.7,-103.2,-455.1,92.1,-2964.0,-347.7,-369.0,-434.4,1446.9,-9827.4,990.9,-5334.3,-6.6,-5.7,-766.5,562.5,-0.6,-359.7,621.9,1883.7,0,2208,0,127,0, 
1.2300,-117.9,-240.9,-1873.5,-1126.2,-1055.4,-30.3,-1205.1,89.4,-3260.4,-1088.1,-1116.0,-1188.6,1314.6,-9824.1,1537.5,-5380.2,-6.9,-5.7,-1509.0,-1938.0,-0.6,-1115.4,510.3,1266.9,0,2214,0,128,0, 
1.2333,-345.3,-177.3,-1815.0,-2076.6,-2006.7,-76.2,-2152.8,-28.8,-3705.0,-2034.3,-2067.3,-2143.8,1592.4,-9827.4,3319.8,-5673.6,-6.9,-5.7,-2456.4,-4366.2,-0.6,-2084.1,421.8,366.3,0,2220,0,129,0, 
1.2367,-352.5,-223.5,-1753.2,-1851.6,-1781.1,-210.0,-1925.1,-42.3,-4075.5,-1796.1,-1839.6,-1916.4,1880.1,-9802.5,3835.8,-5736.9,-6.9,-6.0,-2229.6,-3363.3,-0.9,-1856.1,433.5,515.4,0,2226,0,130,0, 
1.2400,-236.7,-227.7,-1723.8,-761.1,-692.7,-228.3,-840.3,13.8,-3556.8,-706.5,-743.4,-815.7,1694.7,-9803.4,2259.6,-5557.2,-6.3,-5.7,-1142.1,-149.4,-0.6,-747.0,430.8,1479.9,0,2232,0,131,0, 
1.2433,-67.8,-194.7,-1780.2,-300.3,-234.6,-97.8,-383.1,151.5,-3112.2,-250.8,-283.5,-357.0,1352.4,-9827.4,848.1,-5264.1,-7.2,-5.7,-682.8,795.9,-0.6,-281.1,538.5,1961.1,0,2238,0,132,0, 
1.2467,-66.3,-261.3,-1804.8,-1041.6,-972.9,-28.5,-1115.7,165.9,-3186.3,-1004.4,-1026.0,-1098.6,1281.0,-9811.5,1557.0,-5300.1,-6.9,-6.0,-1424.1,-2006.4,-0.6,-1029.6,464.4,1335.9,0,2244,0,133,0, 
1.2500,-200.1,-273.0,-1726.2,-1924.5,-1860.3,-126.6,-1997.7,35.4,-3630.9,-1887.6,-1905.9,-1980.0,1617.0,-9827.4,3340.8,-5566.8,-7.2,-6.3,-2297.7,-4389.3,-0.9,-1907.1,424.2,507.9,0,2250,0,134,0, 
1.2533,-266.7,-218.1,-1640.7,-1768.5,-1695.0,-227.7,-1848.9,-47.1,-3779.1,-1725.9,-1754.4,-1827.3,2006.7,-9672.6,3892.8,-5667.9,-6.6,-6.0,-2151.6,-3323.4,-0.3,-1763.4,399.9,576.0,0,2256,0,135,0, 
1.2567,-151.2,-270.6,-1785.3,-753.6,-692.1,-286.5,-829.8,-83.1,-3630.9,-705.0,-735.6,-807.0,1734.6,-9791.7,2127.3,-5530.8,-6.9,-5.7,-1131.6,-37.8,-0.9,-737.7,453.3,1464.9,0,2262,0,136,0, 
1.2600,-157.8,-300.0,-1903.2,-369.6,-302.7,-166.5,-449.4,-74.1,-3112.2,-323.1,-354.9,-428.4,1271.1,-9827.4,493.2,-5335.5,-6.9,-6.3,-751.5,785.4,-0.6,-353.1,405.6,1901.1,0,2268,0,137,0, 
1.2633,-180.3,-205.5,-1879.5,-1132.8,-1063.8,-51.3,-1209.0,192.0,-3112.2,-1092.9,-1120.5,-1188.6,1271.4,-9818.1,1141.5,-5337.6,-6.9,-5.7,-1512.0,-1981.8,-0.6,-1122.0,558.0,1267.5,0,2274,0,138,0, 
1.2667,-232.5,-193.2,-1764.0,-1924.2,-1854.6,-115.5,-1998.3,219.0,-3556.8,-1886.1,-1909.8,-1981.5,1732.5,-9827.4,3176.4,-5529.3,-6.6,-6.0,-2306.4,-4479.0,-0.6,-1907.7,535.2,516.3,0,2280,0,139,0, 
1.2700,-246.3,-215.4,-1749.6,-1687.2,-1620.3,-311.7,-1764.9,93.3,-3853.2,-1644.3,-1670.4,-1745.7,1942.2,-9655.5,3638.1,-5598.6,-6.9,-6.3,-2061.6,-3255.0,-0.6,-1670.7,408.9,664.8,0,2286,0,140,0, 
1.2733,-131.7,-307.8,-1823.1,-594.3,-527.4,-191.4,-678.3,6.6,-3482.7,-536.4,-573.9,-649.8,1679.4,-9773.1,1982.4,-5421.9,-7.2,-6.0,-971.1,225.6,-0.6,-576.6,515.1,1611.9,0,2292,0,141,0, 
1.2767,-51.6,-370.8,-1950.9,-162.3,-94.2,-45.0,-249.6,50.7,-2964.0,-124.8,-146.1,-216.0,1228.5,-9827.4,371.4,-5178.6,-6.9,-6.0,-546.0,960.9,-0.6,-151.5,523.5,2093.4,0,2298,0,142,0, 
1.2800,-119.7,-272.4,-1975.5,-1011.3,-936.9,37.5,-1097.7,103.2,-3038.1,-980.7,-998.4,-1068.6,1173.0,-9810.9,1061.7,-5224.5,-6.6,-5.7,-1393.5,-1922.1,-0.6,-998.1,544.8,1393.2,0,2304,0,143,0, 
1.2833,-190.2,-212.7,-1887.9,-1910.7,-1840.5,-77.7,-2001.0,80.1,-3630.9,-1869.3,-1897.8,-1971.0,1530.0,-9827.4,2950.8,-5486.1,-6.6,-6.0,-2289.3,-4502.7,-0.9,-1907.1,356.1,523.5,0,2310,0,144,0, 
1.2867,-185.1,-185.1,-1831.8,-1593.0,-1524.3,-189.0,-1680.9,6.0,-3705.0,-1547.1,-1573.2,-1650.9,1902.3,-9582.0,3504.6,-5521.8,-6.9,-5.7,-1968.0,-3279.0,-1.2,-1584.0,331.5,753.6,0,2316,0,145,0, 
1.2900,-100.5,-330.0,-1907.7,-460.8,-393.0,-111.9,-559.2,-8.4,-3260.4,-419.1,-444.0,-517.2,1693.8,-9761.7,1690.5,-5331.6,-6.6,-5.4,-837.9,234.9,-0.6,-450.6,496.2,1746.3,0,2322,0,146,0, 
1.2933,-67.5,-324.6,-2103.6,-125.7,-50.7,41.4,-216.9,-49.5,-2889.9,-73.5,-105.0,-178.5,1227.9,-9827.4,47.4,-5157.3,-6.9,-6.0,-503.1,1118.4,-0.9,-110.7,524.7,2146.2,0,2328,0,147,0, 
1.2967,-144.0,-375.0,-2162.4,-993.6,-923.4,79.2,-1079.4,9.6,-3112.2,-949.5,-977.4,-1051.5,1038.9,-9817.5,681.9,-5276.1,-6.9,-6.0,-1372.5,-1954.5,-0.6,-988.5,493.8,1420.5,0,2334,0,148,0, 
1.3000,-206.4,-210.3,-1953.0,-1823.1,-1754.7,24.6,-1910.1,146.7,-3482.7,-1789.8,-1809.6,-1886.1,1583.1,-9820.8,2770.2,-5420.4,-6.6,-6.0,-2196.0,-4415.1,-1.2,-1825.2,456.6,664.2,0,2340,0,149,0, 
1.3033,-238.2,-222.3,-1905.9,-1578.0,-1511.1,-119.4,-1668.3,70.2,-3630.9,-1533.3,-1565.1,-1637.4,1870.2,-9508.8,3360.6,-5515.2,-6.6,-5.7,-1959.0,-3253.5,-0.6,-1574.4,555.9,794.7,0,2346,0,150,0, 
1.3067,-190.5,-367.8,-1987.5,-442.8,-371.1,-101.1,-539.7,-20.4,-3334.5,-408.3,-431.4,-499.8,1537.5,-9787.5,1588.2,-5336.7,-6.6,-6.0,-825.6,255.0,-1.2,-443.7,501.3,1786.8,0,2352,0,151,0, 
1.3100,-104.1,-429.3,-2106.9,-17.1,46.2,-33.6,-111.0,78.0,-2964.0,15.0,-11.4,-83.4,928.5,-9827.4,-105.6,-5066.7,-6.6,-5.7,-408.0,1130.4,-0.6,-7.8,593.7,2245.5,0,2358,0,152,0, 
1.3133,-117.0,-303.9,-2097.3,-790.2,-720.3,156.0,-876.9,211.5,-2889.9,-767.4,-783.0,-855.0,962.7,-9825.9,769.8,-5057.1,-7.2,-6.0,-1174.8,-1776.6,-0.6,-786.9,581.4,1596.9,0,2364,0,153,0, 
1.3167,-240.3,-277.2,-1986.0,-1689.6,-1624.2,25.2,-1782.3,179.7,-3334.5,-1673.1,-1688.7,-1762.8,1432.8,-9798.3,2816.4,-5339.1,-6.3,-6.0,-2080.5,-4435.8,-0.9,-1692.0,519.6,758.7,0,2370,0,154,0, 
1.3200,-376.5,-288.3,-1870.8,-1463.4,-1398.6,-242.7,-1559.4,84.6,-3556.8,-1436.1,-1453.2,-1524.0,1836.0,-9451.2,3427.2,-5492.1,-6.9,-5.4,-1846.8,-3129.9,-0.6,-1472.4,515.1,912.0,0,2376,0,155,0, 
1.3233,-244.8,-333.9,-1964.1,-327.9,-264.0,-146.7,-431.7,116.4,-3186.3,-301.5,-312.0,-386.4,1499.4,-9786.6,1656.6,-5243.7,-6.6,-5.4,-711.3,490.5,-0.9,-331.2,543.0,1902.3,0,2382,0,156,0, 
1.3267,-186.3,-410.1,-2136.0,81.6,147.0,0.3,-16.5,169.8,-2667.6,108.9,99.6,24.3,920.7,-9827.4,-48.9,-5023.2,-6.3,-5.7,-301.5,1429.8,-0.9,75.3,634.5,2341.5,0,2388,0,157,0, 
1.3300,-293.4,-255.0,-2134.2,-763.5,-702.6,62.4,-863.4,262.8,-2964.0,-727.2,-749.7,-829.5,879.0,-9821.1,770.1,-5089.5,-6.9,-5.7,-1144.8,-1690.2,-0.9,-770.7,643.8,1644.6,0,2394,0,158,0, 
1.3333,-435.0,-203.4,-2119.8,-1798.2,-1740.9,-113.7,-1899.3,116.1,-3408.6,-1768.2,-1781.7,-1859.4,1301.1,-9806.1,2814.0,-5405.1,-6.9,-6.0,-2174.1,-4369.2,-0.6,-1812.6,587.1,680.1,0,2400,0,159,0, 
1.3367,-389.1,-162.3,-1940.1,-1557.6,-1493.4,-233.7,-1658.1,71.7,-3630.9,-1525.5,-1540.8,-1618.8,1746.9,-9353.1,3363.6,-5540.1,-6.6,-5.7,-1936.8,-3138.0,-1.2,-1566.0,560.4,810.0,0,2406,0,160,0, 
1.3400,-226.8,-273.9,-2019.0,-350.1,-287.1,-180.3,-447.9,-2.7,-3260.4,-312.3,-328.2,-402.3,1458.9,-9764.7,1569.3,-5274.3,-6.9,-6.0,-728.1,563.1,-0.9,-347.1,691.5,1880.7,0,2412,0,161,0, 
1.3433,-178.5,-355.2,-2229.3,48.0,114.9,-18.6,-55.5,83.1,-2964.0,84.6,70.2,-0.6,931.5,-9827.4,-105.0,-5014.2,-6.9,-5.7,-330.0,1361.7,-0.6,55.5,710.7,2286.3,0,2418,0,162,0, 
1.3467,-214.5,-264.9,-2269.2,-810.0,-749.1,32.1,-912.3,102.0,-2667.6,-779.4,-793.8,-867.6,925.8,-9824.1,649.8,-5033.7,-6.9,-6.3,-1188.3,-1743.0,-1.2,-812.1,660.3,1572.6,0,2424,0,163,0, 
1.3500,-407.4,-168.9,-2133.3,-1839.0,-1776.6,-95.4,-1940.7,81.9,-3482.7,-1795.5,-1821.9,-1900.8,1399.2,-9810.0,2760.6,-5351.1,-7.2,-5.7,-2205.9,-4454.4,-0.3,-1851.3,658.2,628.8,0,2430,0,164,0, 
1.3533,-432.9,-262.5,-1976.4,-1602.6,-1541.1,-267.9,-1702.5,25.5,-3705.0,-1559.4,-1583.4,-1660.5,1712.4,-9382.8,3334.2,-5494.2,-6.9,-6.0,-1972.2,-3109.5,-0.9,-1614.0,669.3,717.6,0,2436,0,165,0, 
1.3567,-300.0,-292.8,-2102.1,-418.5,-358.2,-140.1,-526.8,21.3,-3186.3,-376.5,-401.7,-477.6,1426.5,-9743.1,1458.6,-5254.5,-6.6,-5.7,-795.9,632.4,-0.3,-432.9,794.1,1816.2,0,2442,0,166,0, 
1.3600,-263.4,-401.1,-2248.8,-32.1,25.8,62.4,-139.8,46.2,-2815.8,2.4,-14.4,-87.9,821.4,-9827.4,-213.6,-5059.8,-6.6,-5.7,-415.5,1437.3,-0.6,-39.6,855.0,2226.0,0,2448,0,167,0, 
1.3633,-353.7,-336.3,-2277.6,-969.9,-904.5,120.9,-1074.6,57.0,-2889.9,-928.5,-950.7,-1025.7,928.2,-9818.1,636.0,-5148.0,-6.3,-5.7,-1343.1,-1809.6,-0.6,-973.2,720.3,1421.7,0,2454,0,168,0, 
1.3667,-458.4,-266.1,-2063.4,-1977.3,-1904.1,27.6,-2070.9,12.0,-3630.9,-1936.5,-1954.2,-2030.4,1417.2,-9812.4,2769.6,-5416.2,-6.9,-5.7,-2344.5,-4620.3,-0.6,-1981.8,618.0,479.7,0,2460,0,169,0, 
1.3700,-459.9,-201.6,-1975.8,-1721.1,-1656.3,-170.7,-1820.4,-137.4,-3705.0,-1676.7,-1698.9,-1774.5,1753.8,-9345.9,3393.6,-5616.9,-6.9,-5.7,-2089.5,-3235.8,-0.6,-1724.4,566.4,637.5,0,2466,0,170,0, 
1.3733,-309.3,-237.9,-2110.8,-462.9,-399.0,-152.4,-571.8,-105.9,-3334.5,-428.7,-443.7,-514.8,1475.1,-9767.7,1431.0,-5316.3,-6.9,-6.0,-839.4,771.6,-0.6,-467.7,708.6,1733.4,0,2472,0,171,0, 
1.3767,-231.0,-268.8,-2300.4,-141.9,-79.2,116.4,-246.3,-45.6,-3112.2,-99.0,-123.6,-197.1,823.5,-9827.4,-256.5,-5091.3,-7.2,-6.0,-521.4,1517.4,-0.3,-153.9,845.7,2130.0,0,2478,0,172,0, 
1.3800,-285.0,-181.8,-2267.4,-993.0,-926.7,234.9,-1092.0,101.7,-2964.0,-964.5,-978.0,-1050.0,740.4,-9827.4,563.4,-5162.7,-6.6,-5.7,-1370.4,-1802.4,-1.2,-1008.3,799.5,1406.4,0,2484,0,173,0, 
1.3833,-395.4,-148.2,-1990.5,-1920.0,-1856.1,216.9,-2015.1,122.7,-3482.7,-1897.5,-1902.6,-1974.6,1368.6,-9737.4,2775.0,-5388.6,-6.9,-5.7,-2291.7,-4506.9,-0.6,-1927.8,752.1,555.3,0,2490,0,174,0, 
1.3867,-447.0,-183.9,-1902.6,-1646.1,-1579.5,91.5,-1737.3,42.3,-3630.9,-1600.5,-1623.9,-1695.0,1638.3,-9204.6,3246.3,-5507.1,-6.9,-6.0,-2014.8,-3062.7,-0.9,-1642.5,699.0,702.9,0,2496,0,175,0, 
1.3900,-284.1,-250.2,-2043.0,-405.3,-336.9,239.7,-500.7,-5.7,-3260.4,-360.0,-384.9,-453.3,1292.7,-9695.1,1290.0,-5270.7,-6.6,-5.7,-781.5,885.9,-0.6,-408.3,827.4,1813.8,0,2502,0,176,0, 
1.3933,-249.0,-310.2,-2212.8,-43.8,25.2,469.2,-143.7,5.4,-2889.9,1.5,-23.1,-94.2,645.9,-9827.4,-534.3,-5021.4,-6.6,-6.0,-417.0,1590.6,-0.9,-48.6,855.9,2263.8,0,2508,0,177,0, 
1.3967,-290.4,-389.1,-2215.8,-1059.3,-993.9,502.2,-1153.5,98.1,-2964.0,-1025.7,-1042.5,-1113.3,651.0,-9826.5,307.8,-5142.9,-6.9,-6.0,-1437.0,-1810.2,-0.9,-1058.1,857.4,1393.8,0,2514,0,178,0, 
1.4000,-417.9,-266.1,-2080.2,-2031.9,-1965.6,374.7,-2124.9,122.7,-3556.8,-1992.6,-2019.3,-2089.5,1278.9,-9775.5,2538.9,-5380.8,-6.9,-6.0,-2411.7,-4591.8,-1.2,-2043.6,763.5,474.0,0,2520,0,179,0, 
1.4033,-364.5,-345.9,-1947.9,-1756.2,-1694.4,246.0,-1853.4,16.8,-3853.2,-1717.5,-1740.3,-1807.5,1649.7,-9266.7,3053.7,-5571.0,-6.3,-5.7,-2132.4,-3052.5,-0.6,-1758.0,785.1,637.2,0,2526,0,180,0, 
1.4067,-267.6,-374.4,-2021.1,-439.8,-378.6,519.9,-544.2,40.8,-3408.6,-396.3,-420.9,-485.1,1356.6,-9719.7,1126.8,-5298.0,-6.6,-5.7,-819.0,1038.0,-0.9,-444.3,984.9,1822.2,0,2532,0,181,0, 
1.4100,-172.8,-403.2,-2164.8,-64.8,-2.1,779.7,-162.0,159.0,-2964.0,-25.8,-45.3,-110.4,794.7,-9827.4,-609.0,-5061.9,-6.9,-6.0,-444.0,1692.0,-0.6,-63.6,1089.9,2266.5,0,2538,0,182,0, 
1.4133,-236.1,-274.5,-2152.2,-1013.4,-945.6,788.7,-1108.5,130.2,-3038.1,-975.9,-995.4,-1063.2,813.3,-9827.4,304.8,-5123.4,-6.6,-6.0,-1390.5,-1845.0,-1.2,-1014.9,1027.8,1463.4,0,2544,0,183,0, 
1.4167,-388.2,-194.4,-2019.6,-2024.7,-1959.3,526.5,-2119.2,89.1,-3556.8,-1991.7,-2006.4,-2070.9,1361.1,-9773.4,2462.7,-5416.2,-6.9,-5.7,-2394.0,-4618.2,-0.6,-2027.7,932.4,529.5,0,2550,0,184,0, 
1.4200,-451.8,-136.2,-1850.4,-1749.0,-1683.0,330.0,-1842.6,48.9,-3853.2,-1709.7,-1728.6,-1790.7,1755.9,-9413.1,2987.7,-5540.4,-6.3,-6.0,-2119.2,-3038.1,-0.9,-1760.4,908.1,664.5,0,2556,0,185,0, 
1.4233,-411.6,-315.6,-2056.2,-613.5,-544.5,419.4,-703.5,-135.9,-3482.7,-578.4,-589.5,-648.9,1224.0,-9813.3,910.5,-5406.6,-6.6,-6.0,-986.7,890.4,-0.9,-612.6,885.3,1679.7,0,2562,0,186,0, 
1.4267,-274.8,-308.7,-2178.0,-128.4,-63.3,777.3,-218.7,-21.6,-2964.0,-89.1,-105.0,-164.1,684.6,-9824.7,-804.6,-5102.7,-6.6,-5.7,-504.9,1682.7,-0.9,-117.0,973.2,2227.8,0,2568,0,187,0, 
1.4300,-259.5,-277.2,-2089.8,-1054.2,-985.2,878.4,-1142.1,110.4,-3038.1,-1017.0,-1037.7,-1100.7,733.8,-9827.4,144.0,-5178.9,-6.9,-6.0,-1436.1,-1797.6,-0.6,-1056.6,966.3,1444.5,0,2574,0,188,0, 
1.4333,-363.3,-107.1,-1811.7,-2037.0,-1966.2,661.2,-2121.3,132.3,-3630.9,-1994.1,-2025.0,-2083.5,1428.0,-9802.2,2366.4,-5451.6,-6.9,-5.7,-2415.0,-4535.7,-0.9,-2042.1,873.3,513.9,0,2580,0,189,0, 
1.4367,-367.8,-74.7,-1661.1,-1646.4,-1579.2,588.0,-1731.6,86.1,-3630.9,-1608.3,-1634.7,-1690.5,1825.8,-9383.4,2880.9,-5535.6,-6.9,-6.0,-2025.9,-2899.8,-0.6,-1645.2,929.1,783.6,0,2586,0,190,0, 
1.4400,-312.6,-267.6,-1854.3,-376.2,-302.1,720.0,-465.3,28.2,-3334.5,-329.1,-357.9,-416.1,1423.2,-9775.2,723.6,-5310.0,-6.6,-6.0,-756.9,1200.3,-0.9,-382.2,930.6,1943.4,0,2592,0,191,0, 
1.4433,-288.3,-378.9,-2032.5,-33.3,37.5,911.4,-125.7,55.8,-2815.8,5.4,-17.4,-74.1,790.5,-9827.4,-1077.9,-5067.9,-6.6,-6.0,-414.3,1857.9,-0.9,-33.3,946.2,2330.7,0,2598,0,192,0, 
1.4467,-315.9,-328.2,-1973.7,-965.1,-894.3,982.8,-1058.4,168.6,-2964.0,-932.4,-951.3,-1007.1,825.0,-9827.4,-133.8,-5163.0,-6.9,-6.3,-1343.1,-1654.8,-1.2,-964.8,920.4,1550.1,0,2604,0,193,0, 
1.4500,-399.3,-203.4,-1738.2,-1931.7,-1854.3,884.1,-2020.8,143.7,-3334.5,-1901.1,-1917.0,-1975.2,1423.5,-9758.1,2102.1,-5365.2,-7.5,-5.7,-2307.9,-4515.9,-0.9,-1942.5,896.4,664.5,0,2610,0,194,0, 
1.4533,-443.4,-177.6,-1602.0,-1572.9,-1504.8,656.1,-1663.2,76.2,-3630.9,-1534.8,-1562.1,-1617.9,1731.3,-9251.7,2663.1,-5509.2,-6.9,-6.0,-1950.9,-2758.2,-0.6,-1584.3,855.9,919.8,0,2616,0,195,0, 
1.4567,-377.1,-271.2,-1784.7,-398.4,-330.9,765.6,-489.6,-10.8,-3260.4,-360.9,-381.6,-439.8,1227.0,-9754.2,410.4,-5303.1,-6.9,-5.7,-780.0,1340.7,-0.6,-389.7,922.5,1970.1,0,2622,0,196,0, 
1.4600,-327.9,-405.6,-1980.9,-119.7,-50.1,869.1,-215.7,14.1,-2889.9,-87.0,-106.5,-163.2,587.4,-9827.4,-1372.5,-5155.5,-6.9,-6.3,-504.0,1868.4,-1.2,-123.3,883.2,2329.2,0,2628,0,197,0, 
1.4633,-414.3,-329.4,-1908.0,-1122.6,-1056.3,970.8,-1214.7,69.9,-2964.0,-1090.2,-1107.9,-1167.6,733.5,-9827.4,-380.7,-5270.4,-6.6,-5.7,-1500.3,-1859.4,-0.9,-1128.0,829.8,1461.9,0,2634,0,198,0, 
1.4667,-528.6,-217.8,-1712.4,-2124.9,-2053.8,771.9,-2210.4,124.8,-3630.9,-2095.8,-2109.0,-2164.8,1350.3,-9785.7,2055.6,-5574.9,-7.2,-6.0,-2502.0,-4633.5,-0.6,-2135.1,732.6,524.7,0,2640,0,199,0, 
1.4700,-566.4,-215.7,-1593.0,-1756.2,-1679.4,648.3,-1841.7,-11.1,-3853.2,-1722.3,-1738.5,-1795.2,1642.2,-9513.9,2514.9,-5697.0,-7.2,-6.0,-2135.7,-2859.0,-0.9,-1757.4,741.3,785.1,0,2646,0,200,0, 
1.4733,-395.4,-369.9,-1718.7,-470.1,-399.3,709.2,-566.4,65.4,-3334.5,-439.2,-455.7,-505.2,1212.3,-9812.1,391.2,-5389.5,-6.9,-6.0,-859.8,1331.4,-0.9,-464.7,879.3,1935.6,0,2652,0,201,0, 
1.4767,-382.8,-351.6,-1913.1,-70.2,-3.0,974.4,-167.1,147.0,-2964.0,-38.4,-52.5,-105.0,579.6,-9827.4,-1394.1,-5129.1,-7.2,-6.3,-456.0,1922.7,-0.9,-59.4,981.3,2389.8,0,2658,0,202,0, 
1.4800,-434.7,-299.7,-1869.0,-1066.5,-993.6,1006.2,-1160.4,248.7,-3038.1,-1040.1,-1045.2,-1099.8,581.4,-9827.4,-422.1,-5270.4,-6.9,-6.0,-1450.2,-1763.7,-0.9,-1059.6,948.9,1548.0,0,2664,0,203,0, 
1.4833,-597.0,-222.3,-1641.0,-2066.7,-1999.8,831.6,-2157.9,183.0,-3556.8,-2030.4,-2047.8,-2109.3,1214.1,-9803.4,1922.7,-5576.1,-6.6,-5.4,-2441.4,-4680.9,-0.6,-2076.6,853.8,610.2,0,2670,0,204,0, 
1.4867,-612.3,-209.4,-1492.2,-1717.5,-1647.9,597.0,-1813.2,7.2,-3779.1,-1672.8,-1694.4,-1757.4,1587.3,-9483.9,2396.7,-5691.3,-7.2,-5.7,-2092.5,-2807.7,-0.3,-1724.7,784.2,841.2,0,2676,0,205,0, 
1.4900,-445.5,-280.8,-1612.8,-335.4,-264.6,832.8,-436.8,117.0,-3260.4,-297.9,-315.6,-374.4,1172.4,-9811.8,268.8,-5363.7,-6.6,-6.0,-714.3,1488.0,-0.9,-343.5,882.3,2127.6,0,2682,0,206,0, 
1.4933,-294.3,-325.5,-1812.0,25.8,95.1,1174.2,-75.0,205.2,-2815.8,63.9,49.8,-8.4,511.8,-9824.4,-1557.0,-5095.5,-6.9,-5.7,-352.5,2025.3,-1.2,25.5,1062.0,2564.1,0,2688,0,207,0, 
1.4967,-388.2,-297.6,-1777.2,-942.6,-868.8,1164.3,-1031.7,258.9,-2889.9,-906.0,-920.1,-978.0,528.6,-9827.4,-576.3,-5212.5,-7.2,-6.0,-1315.5,-1710.3,-0.9,-944.4,944.1,1770.0,0,2694,0,208,0, 
1.5000,-515.4,-189.3,-1560.9,-1953.6,-1881.0,887.4,-2037.9,130.5,-3482.7,-1920.9,-1932.0,-1989.6,1204.2,-9796.8,1788.9,-5472.9,-6.9,-6.0,-2323.2,-4608.6,-0.6,-1950.6,805.2,807.9,0,2700,0,209,0, 
1.5033,-490.2,-88.2,-1411.2,-1574.1,-1505.7,774.6,-1664.1,15.6,-3705.0,-1532.7,-1554.3,-1610.7,1605.3,-9472.5,2311.2,-5575.2,-6.9,-6.3,-1951.8,-2696.1,-0.6,-1574.1,839.1,1070.4,0,2706,0,210,0, 
1.5067,-426.3,-263.1,-1574.1,-241.8,-174.3,954.0,-337.5,17.7,-3260.4,-202.5,-221.7,-275.4,1134.6,-9809.4,100.5,-5309.1,-6.9,-5.7,-623.4,1617.3,-0.9,-240.9,1056.0,2266.2,0,2712,0,211,0, 
1.5100,-304.5,-323.1,-1701.9,104.7,175.8,1274.1,7.2,96.6,-2741.7,141.3,123.3,75.0,400.5,-9820.8,-1654.5,-5080.8,-6.6,-6.0,-280.5,2176.2,-0.9,103.8,1093.2,2675.4,0,2718,0,212,0, 
1.5133,-346.5,-296.1,-1654.5,-864.9,-792.0,1326.0,-954.9,116.4,-2741.7,-837.6,-855.0,-904.2,504.3,-9827.4,-644.1,-5157.3,-6.9,-5.7,-1250.4,-1595.7,-0.6,-873.3,1058.1,1851.3,0,2724,0,213,0, 
1.5167,-430.2,-133.5,-1310.7,-1832.4,-1757.1,1159.5,-1918.2,163.2,-3334.5,-1799.1,-1819.5,-1872.6,1135.2,-9763.5,1758.6,-5444.4,-6.9,-6.0,-2211.3,-4531.2,-0.9,-1824.9,1038.9,935.7,0,2730,0,214,0, 
1.5200,-530.4,-151.2,-1266.9,-1457.1,-1388.1,960.0,-1551.6,9.3,-3556.8,-1424.4,-1443.9,-1498.8,1468.8,-9475.8,2042.4,-5586.6,-6.9,-6.0,-1839.6,-2502.9,-0.3,-1459.2,996.9,1201.5,0,2736,0,215,0, 
1.5233,-437.4,-279.6,-1554.3,-199.8,-132.6,1014.3,-300.3,-91.8,-3112.2,-155.7,-177.9,-232.5,871.2,-9827.4,-243.0,-5283.6,-6.9,-6.0,-581.4,1773.3,-0.9,-204.0,1056.0,2335.8,0,2742,0,216,0, 
1.5267,-384.6,-429.9,-1780.8,160.8,224.1,1271.4,56.4,28.5,-2593.5,210.6,187.8,130.2,197.4,-9815.1,-2166.0,-5028.3,-6.9,-5.7,-210.0,2332.8,-0.9,153.3,1154.4,2762.4,0,2748,0,217,0, 
1.5300,-446.7,-414.6,-1689.6,-960.3,-890.7,1323.6,-1053.0,127.8,-2889.9,-921.6,-937.5,-995.7,309.6,-9827.4,-1038.3,-5218.5,-6.9,-5.7,-1332.0,-1573.2,-0.6,-969.9,1143.9,1827.6,0,2754,0,218,0, 
1.5333,-519.9,-304.2,-1399.2,-2011.5,-1951.8,1130.1,-2105.1,239.4,-3482.7,-1966.2,-1987.8,-2046.6,1106.1,-9803.7,1410.9,-5579.4,-7.5,-6.0,-2373.3,-4490.7,-0.9,-2020.8,1072.5,828.6,0,2760,0,219,0, 
1.5367,-587.1,-377.1,-1348.5,-1650.0,-1584.9,897.6,-1745.1,102.0,-3853.2,-1601.1,-1623.0,-1681.2,1405.8,-9577.8,1734.3,-5762.7,-6.9,-6.0,-2017.8,-2652.9,-0.6,-1651.8,1031.7,1031.7,0,2766,0,220,0, 
1.5400,-477.6,-441.3,-1572.3,-316.5,-254.4,1056.3,-423.6,45.9,-3186.3,-282.3,-296.1,-356.7,996.9,-9827.4,-519.3,-5508.6,-7.2,-5.7,-695.7,1699.5,-0.3,-324.0,1061.4,2267.1,0,2772,0,221,0, 
1.5433,-450.9,-502.8,-1826.4,58.5,123.3,1391.1,-37.2,115.5,-2815.8,101.1,85.5,24.9,320.7,-9818.4,-2341.2,-5233.5,-7.2,-6.0,-313.8,2227.2,-0.9,56.1,1218.3,2726.4,0,2778,0,222,0, 
1.5467,-565.5,-401.4,-1826.7,-983.4,-915.6,1454.4,-1067.4,306.6,-2889.9,-951.0,-962.4,-1020.3,487.8,-9827.4,-1238.7,-5295.9,-7.2,-6.0,-1359.6,-1586.4,-0.3,-997.5,1221.3,1839.6,0,2784,0,223,0, 
1.5500,-729.9,-273.3,-1641.6,-2042.7,-1970.1,1185.9,-2122.5,205.2,-3482.7,-2012.7,-2024.1,-2076.6,1056.9,-9827.4,1109.1,-5634.3,-6.6,-5.7,-2415.3,-4567.2,-0.6,-2061.3,1005.3,828.9,0,2790,0,224,0, 
1.5533,-678.0,-238.5,-1427.7,-1586.1,-1524.3,1010.1,-1674.0,195.9,-3705.0,-1552.2,-1569.3,-1617.6,1425.0,-9680.4,1615.8,-5663.7,-7.2,-5.4,-1963.5,-2565.9,-0.6,-1592.4,1078.8,1143.0,0,2796,0,225,0, 
1.5567,-619.8,-460.5,-1617.6,-285.0,-225.6,1228.8,-377.1,105.6,-3186.3,-255.9,-267.0,-314.7,858.3,-9820.5,-720.9,-5449.8,-6.9,-6.0,-670.8,1866.6,-0.3,-293.1,1187.1,2347.5,0,2802,0,226,0, 
1.5600,-619.5,-575.1,-1841.1,51.0,114.6,1473.9,-48.6,143.1,-2667.6,79.8,66.9,17.4,50.1,-9827.4,-2621.1,-5204.7,-6.9,-6.0,-330.6,2305.5,-0.9,37.5,1269.6,2751.0,0,2808,0,227,0, 
1.5633,-593.7,-405.9,-1707.0,-983.1,-918.9,1519.8,-1074.6,324.0,-2964.0,-966.0,-966.0,-1017.9,247.8,-9825.6,-1492.2,-5295.9,-6.9,-6.0,-1359.0,-1578.9,-0.6,-996.3,1268.1,1874.7,0,2814,0,228,0, 
1.5667,-633.9,-166.8,-1427.1,-1950.6,-1887.3,1317.9,-2042.4,364.5,-3482.7,-1926.0,-1932.6,-1981.5,1016.1,-9826.8,986.4,-5550.9,-6.6,-5.7,-2321.4,-4448.4,-0.9,-1957.5,1188.9,918.9,0,2820,0,229,0, 
1.5700,-586.5,-218.7,-1264.5,-1449.9,-1386.6,1248.6,-1540.8,271.8,-3482.7,-1422.3,-1431.0,-1482.6,1359.0,-9674.7,1450.8,-5647.2,-6.9,-6.3,-1822.5,-2388.0,-0.6,-1458.0,1090.2,1278.0,0,2826,0,230,0, 
1.5733,-496.8,-351.3,-1429.2,-82.8,-19.5,1377.9,-176.1,209.1,-3038.1,-43.8,-60.9,-107.7,765.3,-9827.4,-894.6,-5316.3,-6.6,-6.3,-460.5,2032.2,-0.6,-84.6,1196.4,2524.5,0,2832,0,231,0, 
1.5767,-450.9,-491.1,-1633.5,257.4,318.0,1632.9,158.7,345.0,-2593.5,286.5,273.0,225.9,86.1,-9822.6,-2727.0,-5110.2,-7.2,-5.7,-128.4,2506.5,-0.9,240.9,1279.8,2937.0,0,2838,0,232,0, 
1.5800,-585.6,-392.1,-1556.1,-811.5,-745.8,1640.4,-909.6,378.9,-2741.7,-786.9,-800.4,-846.0,228.6,-9827.4,-1598.1,-5202.9,-6.6,-6.0,-1191.3,-1490.7,-0.3,-834.6,1157.1,2020.8,0,2844,0,233,0, 
1.5833,-678.6,-297.6,-1318.8,-1860.0,-1791.3,1350.3,-1950.0,334.8,-3482.7,-1838.7,-1843.5,-1892.7,896.7,-9827.4,831.0,-5560.2,-6.6,-6.3,-2235.6,-4427.1,-0.6,-1871.7,1011.0,1028.7,0,2850,0,234,0, 
1.5867,-753.0,-291.6,-1185.3,-1411.8,-1345.2,1153.5,-1508.7,245.7,-3556.8,-1387.2,-1394.1,-1437.6,1296.3,-9736.2,1225.2,-5640.9,-6.9,-6.0,-1788.3,-2305.8,-0.9,-1425.3,1090.8,1351.8,0,2856,0,235,0, 
1.5900,-558.9,-466.8,-1400.1,-87.3,-32.4,1313.1,-189.0,294.0,-3112.2,-63.9,-69.9,-116.7,684.3,-9817.5,-1053.9,-5391.0,-7.2,-5.7,-469.2,2136.6,-0.9,-94.8,1136.7,2586.9,0,2862,0,236,0, 
1.5933,-558.3,-520.5,-1702.5,210.9,274.8,1548.6,106.5,320.4,-2593.5,245.7,231.3,180.6,-3.9,-9827.4,-2889.9,-5190.3,-6.9,-6.0,-161.4,2571.0,-0.6,198.9,1179.6,2945.4,0,2868,0,237,0, 
1.5967,-567.3,-400.5,-1586.4,-882.3,-813.6,1556.1,-977.7,406.8,-2815.8,-846.3,-865.8,-910.8,160.8,-9825.3,-1692.6,-5311.2,-6.9,-5.7,-1255.8,-1454.4,-0.6,-887.1,1150.2,1995.6,0,2874,0,238,0, 
1.6000,-652.2,-245.7,-1228.2,-1844.7,-1776.6,1317.6,-1938.3,387.9,-3186.3,-1803.6,-1826.1,-1870.8,913.5,-9827.4,842.4,-5590.2,-6.3,-5.7,-2213.7,-4365.6,-0.6,-1847.7,1021.5,1070.1,0,2880,0,239,0, 
1.6033,-671.7,-189.0,-1038.6,-1383.9,-1322.1,1129.8,-1478.7,207.0,-3556.8,-1342.2,-1363.8,-1410.0,1174.2,-9756.6,1210.5,-5591.7,-7.2,-6.0,-1754.4,-2289.0,-0.6,-1393.5,986.7,1401.9,0,2886,0,240,0, 
1.6067,-682.2,-306.9,-1296.3,-93.9,-34.2,1311.9,-198.0,133.5,-3038.1,-54.6,-78.6,-118.5,556.8,-9815.7,-1160.4,-5398.8,-7.2,-6.0,-474.6,2168.4,-0.9,-105.6,1106.1,2576.4,0,2892,0,241,0, 
1.6100,-638.1,-413.4,-1582.8,226.5,286.5,1636.8,129.3,249.6,-2667.6,267.9,243.3,198.0,-109.2,-9827.1,-2844.3,-5148.9,-6.9,-6.0,-153.0,2578.2,-0.6,211.5,1247.7,2961.9,0,2898,0,242,0, 
1.6133,-661.2,-334.2,-1518.0,-896.4,-828.0,1601.1,-990.3,312.9,-2667.6,-862.2,-881.7,-921.9,13.2,-9827.4,-1739.7,-5324.1,-7.2,-6.3,-1274.1,-1518.9,-0.6,-914.4,1128.9,1981.5,0,2904,0,243,0, 
1.6167,-784.8,-86.4,-1251.3,-1894.2,-1831.5,1332.6,-1977.9,282.3,-3334.5,-1863.6,-1877.1,-1923.3,776.7,-9820.5,764.7,-5639.1,-6.9,-6.0,-2273.1,-4513.5,-0.6,-1912.5,1020.3,1022.7,0,2910,0,244,0, 
1.6200,-846.0,-100.5,-1206.6,-1505.7,-1439.1,1125.3,-1594.8,190.8,-3630.9,-1480.2,-1486.5,-1533.6,1185.3,-9827.4,1026.6,-5732.4,-6.9,-6.3,-1879.5,-2363.7,-0.6,-1515.6,935.1,1274.1,0,2916,0,245,0, 
1.6233,-674.7,-257.4,-1321.5,-132.3,-64.8,1347.3,-231.3,219.6,-3112.2,-92.7,-115.2,-156.9,680.7,-9816.6,-1181.7,-5407.5,-6.9,-6.0,-520.5,2147.4,-0.9,-136.8,1141.5,2541.6,0,2922,0,246,0, 
1.6267,-549.6,-289.8,-1468.5,266.4,336.9,1614.0,173.1,210.0,-2519.4,293.7,284.7,243.9,23.1,-9827.4,-2856.0,-5096.7,-6.3,-6.3,-116.4,2658.9,-0.9,260.7,1284.9,3027.0,0,2928,0,247,0, 
1.6300,-659.4,-273.0,-1522.8,-852.3,-792.0,1558.2,-945.9,290.4,-2815.8,-820.8,-838.8,-882.6,61.2,-9817.8,-1779.0,-5282.4,-6.3,-5.7,-1234.2,-1474.8,-1.2,-858.9,1089.0,2056.5,0,2934,0,248,0, 
1.6333,-699.3,-96.6,-1217.1,-1799.7,-1734.3,1326.0,-1887.3,292.5,-3334.5,-1770.6,-1785.0,-1832.4,937.5,-9823.8,722.1,-5489.7,-6.9,-6.0,-2179.5,-4375.2,-0.3,-1817.1,1051.8,1132.8,0,2940,0,249,0, 
1.6367,-689.7,-151.2,-1138.5,-1367.7,-1302.6,1125.6,-1460.4,168.9,-3556.8,-1332.0,-1350.9,-1392.0,1275.6,-9629.7,1091.4,-5654.1,-7.2,-6.0,-1749.0,-2239.5,-0.9,-1380.9,1012.8,1468.5,0,2946,0,250,0, 
1.6400,-532.2,-321.6,-1347.9,-38.4,28.5,1283.4,-133.5,131.1,-2964.0,0.3,-18.3,-60.9,714.0,-9822.3,-1262.1,-5302.5,-7.2,-6.0,-423.0,2304.0,-0.6,-45.0,1180.2,2679.6,0,2952,0,251,0, 
1.6433,-595.8,-544.8,-1598.4,217.8,282.9,1453.8,120.9,162.9,-2593.5,255.6,234.0,194.1,-104.1,-9827.4,-3013.5,-5114.1,-6.6,-5.7,-168.9,2595.9,-0.6,208.8,1299.0,3021.9,0,2958,0,252,0, 
1.6467,-665.4,-422.7,-1551.3,-864.6,-796.8,1461.0,-958.5,206.4,-2889.9,-849.0,-854.4,-892.8,36.9,-9826.5,-1820.1,-5296.5,-6.6,-6.0,-1252.2,-1555.5,-0.9,-883.2,1140.9,2059.5,0,2964,0,253,0, 
1.6500,-812.1,-189.9,-1245.3,-1874.1,-1807.8,1306.5,-1967.4,207.6,-3260.4,-1844.7,-1857.3,-1896.3,856.2,-9811.8,717.6,-5612.4,-6.6,-6.0,-2249.1,-4403.4,-0.6,-1889.4,1077.6,1081.8,0,2970,0,254,0, 
1.6533,-879.3,-144.0,-1173.0,-1446.3,-1379.4,1119.0,-1544.1,117.9,-3630.9,-1421.7,-1426.2,-1470.6,1226.1,-9574.8,1143.6,-5685.6,-6.9,-5.7,-1823.1,-2268.3,-0.6,-1464.9,1062.0,1364.1,0,2976,0,255,0, 
1.6567,-849.9,-414.3,-1471.8,-198.0,-129.6,1281.3,-295.8,-30.3,-3186.3,-165.6,-174.9,-215.1,574.2,-9827.4,-1275.0,-5523.9,-6.6,-6.3,-582.6,2139.0,-0.3,-214.2,1067.7,2522.7,0,2982,0,0,0, 
1.6600,-648.3,-397.5,-1676.1,216.6,285.6,1653.9,116.1,7.5,-2593.5,236.7,234.9,199.2,-37.5,-9825.9,-2945.7,-5178.9,-6.9,-6.0,-168.9,2527.8,-0.6,202.5,1194.6,3013.8,0,2988,0,1,0, 
1.6633,-732.6,-213.3,-1584.6,-882.0,-810.3,1663.5,-974.1,109.8,-2815.8,-853.8,-861.9,-898.2,173.7,-9825.3,-1755.6,-5350.8,-7.2,-5.7,-1258.5,-1522.2,-0.6,-899.1,1110.0,2053.5,0,2994,0,2,0, 
1.6667,-788.1,-89.4,-1218.6,-1845.3,-1764.0,1355.4,-1938.6,144.0,-3186.3,-1823.7,-1829.1,-1865.4,1005.0,-9811.2,764.7,-5637.3,-6.9,-6.3,-2221.8,-4407.3,-0.6,-1861.2,947.7,1127.7,0,3000,0,3,0, 
1.6700,-718.5,-147.0,-1084.8,-1417.5,-1344.6,1180.5,-1512.0,39.6,-3482.7,-1394.7,-1402.8,-1437.0,1414.5,-9398.7,1204.5,-5732.7,-6.9,-5.7,-1804.5,-2159.4,-0.6,-1434.0,861.9,1416.0,0,3006,0,4,0, 
1.6733,-619.2,-384.0,-1246.2,-125.7,-55.5,1353.9,-222.9,9.9,-3038.1,-98.4,-107.1,-139.5,811.2,-9772.5,-1101.9,-5526.3,-6.6,-6.0,-507.9,2178.6,-0.9,-141.6,927.3,2604.9,0,3012,0,5,0, 
1.6767,-549.9,-411.9,-1556.7,247.2,323.4,1668.0,142.5,43.5,-2593.5,258.0,261.0,232.2,150.0,-9827.1,-2904.6,-5258.7,-7.5,-6.0,-147.3,2553.3,-0.6,224.7,995.7,3075.9,0,3018,0,6,0, 
1.6800,-570.9,-315.9,-1545.0,-884.1,-807.9,1556.4,-980.7,149.4,-2741.7,-864.9,-869.7,-903.0,186.9,-9827.4,-1688.1,-5410.2,-6.9,-6.0,-1269.6,-1561.2,-0.6,-900.3,936.6,2132.1,0,3024,0,7,0, 
1.6833,-648.6,-72.6,-1195.8,-1865.7,-1795.5,1376.4,-1965.9,163.2,-3408.6,-1840.2,-1844.7,-1884.0,949.5,-9724.8,842.4,-5732.7,-6.9,-6.3,-2240.1,-4383.6,-0.9,-1881.3,799.8,1158.0,0,3030,0,8,0, 
1.6867,-652.8,-33.0,-1041.3,-1440.3,-1367.1,1138.5,-1539.0,31.5,-3556.8,-1418.4,-1424.7,-1464.0,1380.9,-9260.1,1239.9,-5833.2,-6.9,-5.7,-1826.1,-2163.3,-0.3,-1461.0,860.4,1464.9,0,3036,0,9,0, 
1.6900,-559.2,-170.1,-1345.5,-111.3,-39.9,1326.3,-214.5,-36.0,-3112.2,-83.7,-86.7,-126.6,834.6,-9775.5,-1140.3,-5586.0,-6.6,-6.0,-491.1,2110.8,-0.6,-129.9,954.3,2679.9,0,3042,0,10,0, 
1.6933,-494.1,-299.4,-1629.9,149.4,228.0,1519.5,41.7,14.4,-2667.6,180.6,171.6,137.4,160.8,-9819.9,-2935.8,-5383.2,-6.6,-6.0,-233.4,2491.5,-0.9,140.1,972.6,3026.1,0,3048,0,11,0, 
1.6967,-582.0,-256.8,-1570.2,-927.6,-848.4,1518.9,-1027.8,105.6,-2889.9,-897.6,-910.2,-943.2,329.7,-9827.4,-1660.2,-5505.9,-6.6,-6.0,-1312.5,-1497.9,-0.9,-942.3,887.4,2101.2,0,3054,0,12,0, 
1.7000,-696.3,-112.2,-1242.3,-1968.6,-1886.4,1245.0,-2061.6,87.3,-3408.6,-1952.4,-1947.0,-1981.5,1116.0,-9675.0,812.1,-5847.6,-7.2,-6.0,-2346.9,-4453.8,-1.2,-1981.5,789.9,1108.8,0,3060,0,13,0, 
1.7033,-760.8,-97.8,-1145.4,-1519.5,-1438.8,1011.0,-1608.3,16.8,-3630.9,-1511.1,-1501.2,-1533.9,1507.8,-9142.8,1236.6,-5983.8,-6.9,-6.0,-1905.0,-2405.1,-0.6,-1525.8,745.8,1413.6,0,3066,0,14,0, 
1.7067,-731.1,-195.9,-1327.5,-231.0,-148.5,1144.2,-315.0,-35.1,-3334.5,-201.9,-206.7,-240.9,942.9,-9764.4,-943.5,-5707.2,-7.2,-6.0,-615.9,2079.0,-1.2,-229.2,932.7,2622.0,0,3072,0,15,0, 
1.7100,-727.5,-399.3,-1572.6,79.8,161.1,1426.8,-1.8,43.2,-2741.7,111.6,103.8,69.0,231.9,-9817.2,-2691.9,-5493.6,-7.2,-5.7,-303.9,2453.4,-0.9,77.7,1065.6,3004.2,0,3078,0,16,0, 
1.7133,-808.8,-307.2,-1518.3,-1020.3,-941.7,1379.1,-1107.6,85.5,-3112.2,-999.3,-1004.1,-1038.0,415.5,-9827.4,-1499.4,-5674.8,-6.6,-6.0,-1400.4,-1678.8,-0.6,-1038.9,928.2,2058.9,0,3084,0,17,0, 
1.7167,-924.3,-145.2,-1222.8,-2020.2,-1938.0,1061.4,-2096.1,104.1,-3482.7,-1988.1,-2001.0,-2033.4,1111.8,-9625.8,906.6,-6009.0,-6.3,-6.0,-2394.0,-4527.9,-0.9,-2025.6,762.0,1068.6,0,3090,0,18,0, 
1.7200,-855.0,-42.3,-1045.2,-1567.5,-1484.7,939.3,-1650.3,113.4,-3630.9,-1533.9,-1551.0,-1581.9,1545.9,-8970.0,1468.2,-5993.1,-6.9,-5.7,-1949.7,-2413.5,-0.6,-1576.5,899.4,1411.8,0,3096,0,19,0, 
1.7233,-724.5,-150.0,-1225.8,-199.8,-121.5,1092.9,-291.3,45.9,-3260.4,-169.8,-180.6,-211.2,1071.9,-9712.2,-713.7,-5674.5,-6.9,-5.7,-581.7,1909.2,-0.9,-207.9,1091.4,2625.0,0,3102,0,20,0, 
1.7267,-648.6,-296.1,-1465.2,95.7,176.7,1329.9,6.6,54.0,-2667.6,122.7,114.0,84.3,342.9,-9815.7,-2485.2,-5460.9,-6.6,-6.0,-288.9,2353.2,-0.9,90.6,1127.1,3032.4,0,3108,0,21,0, 
1.7300,-642.9,-166.2,-1391.1,-949.8,-863.1,1299.3,-1031.4,180.3,-2889.9,-929.7,-935.4,-964.8,546.9,-9827.4,-1223.1,-5523.3,-6.9,-6.0,-1329.6,-1656.3,-0.6,-970.2,1084.8,2122.5,0,3114,0,22,0, 
1.7333,-789.6,-47.4,-1122.9,-1935.9,-1853.7,938.4,-2017.5,110.4,-3408.6,-1913.4,-1920.0,-1953.6,1280.7,-9558.6,1256.1,-5816.1,-6.9,-5.7,-2316.9,-4507.5,-1.2,-1946.1,843.0,1160.7,0,3120,0,23,0, 
1.7367,-762.9,-38.4,-980.1,-1487.7,-1406.4,834.3,-1571.7,98.4,-3630.9,-1456.5,-1470.9,-1501.8,1794.0,-8862.9,1695.9,-5877.0,-6.6,-5.7,-1872.6,-2283.3,-1.2,-1504.5,897.3,1495.5,0,3126,0,24,0, 
1.7400,-643.2,-238.5,-1242.6,-148.2,-75.3,1041.0,-237.3,-31.2,-2964.0,-112.5,-127.2,-159.0,1124.1,-9684.9,-531.6,-5560.5,-6.9,-6.3,-529.5,2010.3,-0.9,-156.6,1011.3,2703.6,0,3132,0,25,0, 
1.7433,-603.0,-316.5,-1555.5,98.1,177.6,1283.7,6.3,20.1,-2667.6,129.6,110.4,84.0,475.2,-9818.4,-2304.6,-5421.6,-6.9,-6.3,-286.8,2395.8,-1.2,70.2,1097.7,3060.3,0,3138,0,26,0, 
1.7467,-691.2,-283.5,-1515.0,-1114.5,-1040.1,1166.4,-1198.2,75.6,-3038.1,-1072.2,-1096.8,-1128.6,588.6,-9827.4,-1102.5,-5622.3,-6.9,-5.7,-1491.9,-1669.2,-0.6,-1118.4,1013.1,1983.0,0,3144,0,27,0, 
1.7500,-865.5,-173.1,-1192.2,-2067.3,-1991.4,826.2,-2151.9,1.5,-3630.9,-2037.9,-2053.8,-2084.4,1404.9,-9487.2,1398.6,-5895.9,-6.6,-6.0,-2445.3,-4616.7,-0.9,-2084.1,870.3,1030.5,0,3150,0,28,0, 
1.7533,-802.5,-119.7,-1004.7,-1604.4,-1527.6,627.3,-1686.3,56.4,-3705.0,-1576.5,-1592.1,-1624.2,1806.0,-8725.5,1932.6,-5941.2,-6.9,-6.0,-1988.7,-2382.3,-0.6,-1615.2,1001.7,1375.5,0,3156,0,29,0, 
1.7567,-711.3,-299.1,-1284.9,-248.1,-167.7,764.4,-337.2,-45.9,-3112.2,-222.9,-233.4,-263.4,1362.6,-9645.0,-300.6,-5677.8,-7.2,-6.0,-641.1,1996.5,-0.9,-261.9,1105.8,2601.9,0,3162,0,30,0, 
1.7600,-610.8,-369.6,-1539.3,111.6,186.9,981.3,21.6,64.5,-2667.6,123.0,123.3,94.2,663.6,-9802.2,-1930.8,-5369.4,-7.2,-6.0,-279.9,2382.9,-0.6,89.1,1230.3,3071.4,0,3168,0,31,0, 
1.7633,-605.1,-234.3,-1433.4,-948.6,-876.3,1104.3,-1035.9,182.7,-2964.0,-923.1,-936.6,-969.9,840.0,-9827.4,-684.9,-5481.6,-6.6,-5.4,-1328.7,-1738.2,-0.6,-972.6,1196.1,2144.4,0,3174,0,32,0, 
1.7667,-702.3,-115.8,-1174.2,-1975.5,-1903.5,762.0,-2062.2,171.3,-3556.8,-1945.5,-1959.9,-1996.8,1606.5,-9234.9,1787.4,-5824.2,-6.9,-5.4,-2353.2,-4590.6,-1.2,-1996.5,1050.6,1165.2,0,3180,0,33,0, 
1.7700,-685.8,-162.0,-1050.9,-1572.0,-1497.9,535.2,-1655.1,6.9,-3853.2,-1539.3,-1556.7,-1584.9,1930.8,-8583.9,2096.1,-5977.2,-6.9,-5.7,-1955.1,-2388.0,-0.9,-1586.7,1035.6,1403.4,0,3186,0,34,0, 
1.7733,-542.7,-300.6,-1183.2,-249.6,-182.4,644.4,-343.5,-54.0,-3260.4,-222.0,-230.7,-264.0,1423.8,-9555.9,-164.4,-5678.7,-6.9,-6.0,-633.3,2065.2,-0.9,-269.1,1242.9,2624.1,0,3192,0,35,0, 
1.7767,-487.8,-429.0,-1463.1,24.0,95.1,969.6,-72.6,5.1,-2667.6,42.6,33.0,9.6,699.9,-9821.7,-1955.4,-5489.4,-6.9,-6.3,-370.8,2275.2,-0.6,4.8,1297.2,2994.6,0,3198,0,36,0, 
1.7800,-502.8,-329.7,-1358.4,-1063.2,-991.5,932.4,-1154.1,37.5,-2964.0,-1044.9,-1044.9,-1071.3,882.6,-9827.4,-618.3,-5577.0,-6.9,-6.0,-1447.5,-1969.5,-0.9,-1075.2,1108.5,2057.7,0,3204,0,37,0, 
1.7833,-528.3,-156.3,-1090.5,-2031.6,-1957.5,660.0,-2117.7,54.6,-3482.7,-2019.3,-2018.7,-2037.9,1647.9,-9074.1,1884.9,-5873.1,-6.9,-6.0,-2418.6,-4744.2,-0.9,-2045.1,1079.4,1120.5,0,3210,0,38,0, 
1.7867,-579.3,-156.3,-1005.0,-1635.3,-1561.5,415.8,-1726.5,-72.9,-3853.2,-1615.2,-1617.9,-1644.0,2025.9,-8471.1,2263.2,-5972.7,-6.6,-6.0,-2019.3,-2528.7,-0.6,-1647.3,1055.4,1357.8,0,3216,0,39,0, 
1.7900,-512.1,-335.4,-1335.9,-300.9,-232.2,591.3,-394.5,-100.8,-3260.4,-275.1,-282.0,-310.2,1450.5,-9498.9,-91.8,-5703.9,-6.9,-5.4,-686.1,2031.3,-0.9,-309.3,1046.1,2568.3,0,3222,0,40,0, 
1.7933,-475.5,-369.9,-1500.6,-6.0,63.9,971.1,-99.6,13.8,-2889.9,10.5,12.3,-23.4,817.8,-9824.4,-1717.5,-5406.9,-6.6,-6.0,-396.3,2253.9,-0.6,-36.3,1074.6,2955.6,0,3228,0,41,0, 
1.7967,-501.9,-248.7,-1419.0,-1058.4,-988.5,929.7,-1144.5,90.9,-2889.9,-1033.8,-1038.3,-1073.1,1038.3,-9827.4,-459.9,-5508.6,-7.2,-6.0,-1441.8,-1998.0,-0.6,-1077.9,991.8,2036.1,0,3234,0,42,0, 
1.8000,-602.4,-140.4,-1215.6,-2060.7,-1989.6,493.5,-2146.2,26.4,-3556.8,-2034.9,-2037.9,-2071.8,1757.4,-8950.5,2009.1,-5849.1,-7.5,-6.3,-2436.0,-4871.1,-0.9,-2079.9,788.1,1071.6,0,3240,0,43,0, 
1.8033,-550.8,15.9,-998.1,-1520.7,-1454.7,425.7,-1611.3,20.4,-3556.8,-1501.8,-1498.5,-1530.3,2197.2,-8189.4,2578.8,-5829.9,-6.9,-5.7,-1896.6,-2460.3,-0.3,-1538.1,926.7,1456.5,0,3246,0,44,0, 
1.8067,-546.3,-187.5,-1329.9,-298.5,-224.7,610.2,-389.7,-50.1,-3112.2,-267.9,-272.4,-300.0,1573.8,-9272.4,116.1,-5668.5,-6.9,-6.0,-681.9,2091.0,-0.9,-305.1,1015.2,2582.4,0,3252,0,45,0, 
1.8100,-441.6,-337.5,-1561.2,-30.3,32.1,861.3,-127.8,-1.5,-2741.7,-11.4,-9.9,-40.5,875.4,-9827.4,-1561.5,-5451.6,-7.2,-5.7,-417.3,2226.6,-0.9,-47.7,1049.4,2927.1,0,3258,0,46,0, 
1.8133,-513.9,-249.3,-1503.6,-1155.3,-1089.6,782.7,-1249.8,66.6,-3038.1,-1128.0,-1129.8,-1159.2,1074.0,-9827.4,-323.4,-5566.5,-6.9,-6.0,-1529.7,-2028.3,-0.6,-1185.3,1009.8,1966.2,0,3264,0,47,0, 
1.8167,-663.9,-143.1,-1284.0,-2169.0,-2108.4,420.3,-2260.5,-17.4,-3779.1,-2133.6,-2145.6,-2177.7,1815.6,-8801.7,2189.4,-5947.8,-6.9,-6.0,-2541.3,-4992.0,-0.6,-2183.1,917.4,981.0,0,3270,0,48,0, 
1.8200,-657.3,-151.8,-1095.0,-1691.7,-1624.8,216.6,-1786.8,-71.4,-3779.1,-1667.4,-1670.1,-1699.5,2164.5,-8135.4,2598.9,-6000.3,-6.9,-6.3,-2072.4,-2629.2,-0.3,-1707.0,999.3,1305.6,0,3276,0,49,0, 
1.8233,-541.2,-332.7,-1289.7,-327.3,-264.9,395.4,-434.7,-79.5,-3408.6,-299.4,-305.7,-333.0,1573.8,-9242.4,327.6,-5679.3,-6.9,-6.0,-713.4,1881.6,-0.9,-337.5,1097.4,2551.8,0,3282,0,50,0, 
1.8267,-429.3,-372.6,-1475.7,-103.8,-43.8,684.3,-212.7,17.4,-2815.8,-84.6,-81.6,-110.4,839.7,-9827.4,-1366.5,-5489.7,-6.9,-6.0,-487.8,2141.1,-0.9,-132.6,1168.2,2852.4,0,3288,0,51,0, 
1.8300,-493.8,-266.4,-1382.1,-1146.9,-1083.9,696.0,-1247.7,63.6,-3112.2,-1126.8,-1128.0,-1155.6,1111.2,-9806.7,-42.6,-5603.4,-6.9,-6.0,-1532.4,-2054.1,-0.6,-1165.8,1138.5,1916.1,0,3294,0,52,0, 
1.8333,-578.7,-125.7,-1184.4,-2136.0,-2073.3,286.8,-2234.1,12.6,-3556.8,-2127.9,-2122.2,-2157.6,1804.5,-8725.5,2373.9,-5979.0,-7.2,-6.0,-2521.2,-4912.2,-0.6,-2166.0,880.2,955.8,0,3300,0,53,0, 
1.8367,-618.9,-220.2,-1031.1,-1662.9,-1600.2,206.7,-1762.8,-20.1,-3853.2,-1636.2,-1640.7,-1672.2,2183.7,-8078.7,2830.8,-6037.5,-6.6,-5.7,-2045.1,-2539.8,-0.3,-1686.3,862.8,1288.2,0,3306,0,54,0, 
1.8400,-573.3,-372.6,-1225.5,-392.7,-333.6,403.2,-502.5,-77.4,-3408.6,-360.3,-370.2,-398.4,1591.5,-9120.0,443.1,-5787.3,-6.9,-6.0,-777.3,1869.3,-0.6,-413.1,1075.2,2459.7,0,3312,0,55,0, 
1.8433,-465.3,-376.8,-1468.8,-87.0,-21.6,723.3,-190.8,4.8,-2889.9,-64.5,-63.0,-95.1,880.5,-9827.4,-1210.2,-5532.6,-6.6,-6.0,-468.6,2098.5,-0.6,-111.0,1110.6,2866.8,0,3318,0,56,0, 
1.8467,-474.6,-204.6,-1338.0,-1167.0,-1103.1,754.2,-1263.9,96.0,-2964.0,-1135.2,-1140.0,-1172.7,1098.9,-9756.3,126.9,-5610.6,-7.2,-6.0,-1542.6,-2075.1,-0.6,-1176.6,984.3,1921.8,0,3324,0,57,0, 
1.8500,-540.3,-36.9,-1090.5,-2157.9,-2093.4,406.8,-2252.4,67.2,-3779.1,-2128.2,-2130.6,-2162.4,1923.6,-8463.0,2565.6,-5939.4,-6.9,-6.3,-2531.7,-4992.9,-0.9,-2172.3,837.6,945.6,0,3330,0,58,0, 
1.8533,-550.2,-3.6,-1070.4,-1724.1,-1648.8,171.9,-1814.7,-64.5,-3779.1,-1683.9,-1697.4,-1724.1,2161.2,-7960.8,2926.8,-6036.6,-6.9,-6.0,-2100.3,-2676.6,-0.6,-1729.2,779.7,1222.2,0,3336,0,59,0, 
1.8567,-458.7,-229.8,-1320.3,-432.0,-369.9,294.9,-529.8,-98.7,-3408.6,-407.4,-405.3,-430.5,1584.6,-9030.0,495.0,-5813.1,-6.6,-5.7,-814.8,1810.8,-1.2,-428.4,914.4,2416.2,0,3342,0,60,0, 
1.8600,-336.6,-346.8,-1532.1,-158.1,-96.3,664.2,-255.9,8.7,-3038.1,-123.3,-132.0,-161.7,907.5,-9827.4,-1162.2,-5548.5,-7.5,-5.7,-537.3,2019.9,-0.6,-160.2,1045.2,2768.7,0,3348,0,61,0, 
1.8633,-302.1,-247.5,-1440.3,-1198.2,-1133.1,600.6,-1290.6,100.8,-3038.1,-1168.2,-1171.5,-1202.7,1171.8,-9705.6,208.5,-5645.1,-7.2,-5.7,-1575.0,-2190.3,-0.9,-1214.4,883.5,1853.4,0,3354,0,62,0, 
1.8667,-425.1,-69.6,-1157.7,-2105.7,-2038.5,248.1,-2199.6,64.8,-3630.9,-2076.6,-2082.0,-2112.6,1910.7,-8459.1,2710.8,-5890.5,-6.9,-6.0,-2479.8,-5024.7,-0.6,-2124.3,739.2,959.7,0,3360,0,63,0, 
1.8700,-395.7,-86.7,-1038.3,-1627.8,-1568.7,153.6,-1722.3,2.4,-3779.1,-1593.0,-1602.3,-1630.8,2267.7,-7810.8,3030.9,-5954.4,-6.9,-6.0,-2002.2,-2549.7,-0.6,-1635.0,833.7,1307.7,0,3366,0,64,0, 
1.8733,-379.8,-225.0,-1325.4,-321.3,-261.3,351.6,-420.9,-87.0,-3334.5,-284.4,-293.1,-320.4,1636.2,-8939.1,713.4,-5706.6,-6.9,-6.0,-698.1,1973.4,-0.6,-328.8,957.3,2494.2,0,3372,0,65,0, 
1.8767,-279.9,-222.3,-1549.5,-113.4,-47.7,678.9,-209.4,0.6,-2815.8,-79.8,-90.0,-117.3,929.7,-9827.4,-1015.8,-5477.1,-6.9,-6.0,-496.5,2185.8,-0.6,-126.6,1026.0,2814.0,0,3378,0,66,0, 
1.8800,-360.3,-168.6,-1530.9,-1212.9,-1149.3,566.4,-1309.5,-55.2,-3038.1,-1175.7,-1185.6,-1220.1,1130.1,-9662.1,300.9,-5627.1,-7.2,-5.7,-1583.1,-2220.3,-0.6,-1221.0,884.1,1807.2,0,3384,0,67,0, 
1.8833,-434.1,-29.7,-1264.2,-2247.3,-2189.1,201.6,-2339.1,-30.3,-3705.0,-2211.6,-2218.8,-2255.1,1885.2,-8371.5,2799.6,-5960.4,-7.2,-5.7,-2613.6,-5084.7,-0.9,-2256.3,713.7,810.6,0,3390,0,68,0, 
1.8867,-468.6,-31.8,-1116.3,-1820.1,-1758.3,32.7,-1914.3,-38.4,-4001.4,-1785.9,-1791.6,-1823.7,2221.5,-7845.3,3083.4,-6140.7,-6.9,-6.0,-2196.9,-2763.0,-0.9,-1830.6,714.9,1083.0,0,3396,0,69,0, 
1.8900,-333.0,-137.4,-1302.0,-438.3,-377.1,289.8,-528.9,-21.3,-3334.5,-387.0,-405.3,-437.1,1670.4,-8833.2,773.1,-5818.5,-6.9,-6.0,-808.8,1847.1,-1.5,-435.0,858.6,2382.0,0,3402,0,70,0, 
1.8933,-261.0,-331.5,-1590.9,-156.6,-90.9,500.1,-245.7,9.9,-2889.9,-121.5,-123.3,-154.5,986.7,-9823.5,-906.0,-5595.3,-7.2,-6.0,-525.6,2000.7,-0.9,-156.6,1016.1,2727.0,0,3408,0,71,0, 
1.8967,-271.2,-240.6,-1501.8,-1245.3,-1179.0,432.6,-1325.7,158.1,-3112.2,-1201.8,-1215.9,-1249.8,1173.9,-9624.9,487.5,-5709.0,-7.2,-6.3,-1612.2,-2256.0,-0.9,-1240.8,876.3,1797.9,0,3414,0,72,0, 
1.9000,-348.3,-80.1,-1246.5,-2256.6,-2191.5,90.3,-2338.5,124.5,-3853.2,-2218.2,-2218.8,-2249.4,1946.1,-8314.5,2897.1,-6045.0,-7.2,-6.0,-2611.8,-5160.3,-0.9,-2261.7,706.2,781.8,0,3420,0,73,0, 
1.9033,-372.6,-25.8,-1145.1,-1725.6,-1663.5,-179.7,-1811.7,46.2,-4001.4,-1678.2,-1692.0,-1729.8,2364.3,-7871.7,3253.8,-6077.7,-6.9,-6.3,-2088.0,-2753.7,-0.9,-1723.2,680.1,1182.6,0,3426,0,74,0, 
1.9067,-242.4,-231.3,-1397.4,-451.5,-389.7,30.0,-537.6,-7.2,-3334.5,-399.3,-406.5,-441.6,1840.2,-8838.0,945.3,-5790.0,-6.9,-5.7,-815.4,1862.1,-0.6,-445.2,801.6,2333.4,0,3432,0,75,0, 
1.9100,-202.2,-318.3,-1626.0,-196.2,-137.7,319.5,-288.9,63.6,-3038.1,-154.8,-150.9,-185.4,1105.8,-9815.4,-726.0,-5568.0,-6.9,-6.0,-560.4,1988.7,-0.9,-188.4,927.9,2673.9,0,3438,0,76,0, 
1.9133,-254.7,-192.9,-1542.6,-1283.1,-1219.2,292.8,-1367.4,128.7,-3186.3,-1248.0,-1246.2,-1272.6,1311.3,-9544.2,551.4,-5692.5,-7.2,-6.0,-1645.2,-2311.2,-0.9,-1282.2,851.1,1737.0,0,3444,0,77,0, 
1.9167,-364.5,-53.4,-1247.1,-2269.5,-2201.4,-23.1,-2355.0,36.3,-3705.0,-2240.4,-2226.9,-2252.1,2071.8,-8266.8,2928.3,-6062.1,-6.9,-6.0,-2622.3,-5170.2,-0.6,-2276.4,708.0,753.3,0,3450,0,78,0, 
1.9200,-379.8,-24.3,-1139.4,-1751.7,-1688.4,-180.0,-1840.2,-99.3,-3927.3,-1709.7,-1702.8,-1731.6,2419.8,-7745.1,3255.9,-6083.1,-6.6,-5.7,-2098.8,-2694.9,-0.6,-1752.9,734.1,1110.0,0,3456,0,79,0, 
1.9233,-324.6,-268.2,-1357.5,-409.8,-351.6,-87.6,-510.0,-222.6,-3408.6,-370.5,-347.4,-378.6,1787.1,-8781.3,793.2,-5842.8,-6.9,-6.0,-761.4,1835.1,-0.9,-413.7,834.9,2333.1,0,3462,0,80,0, 
1.9267,-246.3,-226.8,-1544.1,-135.9,-78.9,324.9,-233.7,-46.8,-2964.0,-111.6,-75.6,-100.8,1161.0,-9779.1,-861.9,-5571.0,-6.9,-6.0,-488.7,1995.0,-0.6,-149.1,871.8,2697.0,0,3468,0,81,0, 
1.9300,-301.2,-213.3,-1419.9,-1142.1,-1085.1,275.1,-1241.7,15.0,-2964.0,-1125.6,-1077.9,-1106.1,1410.3,-9384.3,456.3,-5628.9,-6.9,-6.0,-1483.2,-2269.5,-0.6,-1163.7,833.4,1825.2,0,3474,0,82,0, 
1.9333,-418.2,-132.6,-1283.7,-2171.7,-2106.9,-84.6,-2264.7,26.7,-3556.8,-2151.0,-2103.0,-2124.3,2146.5,-8049.6,2846.1,-6006.9,-6.9,-5.7,-2508.0,-5097.9,-0.6,-2193.3,609.0,811.8,0,3480,0,83,0, 
1.9367,-403.5,-137.4,-1242.3,-1710.3,-1644.9,-272.7,-1806.9,-60.6,-3779.1,-1692.3,-1635.6,-1655.1,2451.3,-7610.1,3128.4,-6091.2,-7.2,-6.3,-2044.8,-2614.5,-0.9,-1739.7,625.5,1130.4,0,3486,0,84,0, 
1.9400,-307.2,-296.1,-1470.3,-471.0,-410.1,-34.2,-574.5,-149.1,-3482.7,-452.1,-386.4,-410.4,1789.5,-8647.5,800.7,-5859.3,-7.2,-6.0,-804.6,1832.4,-0.9,-505.5,816.3,2274.9,0,3492,0,85,0, 
1.9433,-298.5,-443.4,-1777.8,-273.9,-205.5,209.1,-370.8,-147.3,-3038.1,-249.9,-174.3,-193.8,1051.5,-9759.0,-1004.4,-5711.4,-7.2,-6.0,-597.0,1863.3,-0.3,-297.0,848.1,2532.6,0,3498,0,86,0, 
1.9467,-273.9,-220.8,-1571.4,-1324.5,-1255.5,259.8,-1420.2,45.3,-3260.4,-1306.2,-1231.8,-1250.7,1229.4,-9292.2,267.6,-5769.6,-7.2,-6.0,-1648.2,-2297.1,0.0,-1356.3,749.1,1652.4,0,3504,0,87,0, 
1.9500,-385.2,-163.2,-1343.4,-2307.3,-2247.9,-43.8,-2406.3,37.5,-3705.0,-2293.8,-2202.3,-2223.0,1995.3,-8098.5,2706.0,-6102.9,-7.2,-5.4,-2616.9,-5240.1,-0.6,-2336.4,588.9,627.3,0,3510,0,88,0, 
1.9533,-400.2,-142.5,-1153.2,-1774.2,-1716.0,-151.8,-1881.3,-135.3,-3927.3,-1769.1,-1666.5,-1685.7,2304.9,-7673.7,2950.5,-6168.9,-6.6,-6.3,-2087.4,-2697.6,-0.9,-1820.4,597.0,1020.6,0,3516,0,89,0, 
1.9567,-294.6,-304.2,-1384.8,-467.7,-405.9,-1.2,-580.2,-204.0,-3260.4,-464.7,-357.6,-372.9,1672.5,-8705.1,631.8,-5883.0,-6.6,-5.7,-782.7,1883.4,-0.6,-502.8,733.5,2218.2,0,3522,0,90,0, 
1.9600,-254.7,-407.4,-1671.0,-201.3,-147.6,338.1,-319.5,-121.8,-2815.8,-209.4,-80.1,-101.7,958.8,-9768.3,-1091.7,-5641.5,-6.9,-6.0,-510.0,1934.4,-0.9,-250.8,824.7,2547.6,0,3528,0,91,0, 
1.9633,-298.8,-314.4,-1600.8,-1310.7,-1249.8,296.4,-1425.9,-42.6,-3112.2,-1319.7,-1190.4,-1212.3,1119.6,-9404.4,128.7,-5838.6,-6.9,-6.0,-1615.2,-2364.0,-0.6,-1370.1,818.4,1588.8,0,3534,0,92,0, 
1.9667,-477.6,-231.9,-1326.3,-2307.3,-2249.4,-95.7,-2429.1,-54.9,-3779.1,-2316.6,-2181.3,-2201.1,1887.6,-8228.1,2503.5,-6201.6,-6.9,-6.3,-2601.6,-5183.7,-0.9,-2366.7,595.5,578.4,0,3540,0,93,0, 
1.9700,-381.0,-182.7,-1232.7,-1814.4,-1758.0,-234.6,-1935.3,-148.2,-4001.4,-1822.2,-1689.9,-1709.7,2248.2,-7757.7,2781.3,-6253.2,-7.2,-6.0,-2116.2,-2724.0,-0.6,-1867.5,573.9,930.3,0,3546,0,94,0, 
1.9733,-285.0,-286.2,-1406.1,-439.5,-383.4,53.4,-570.6,-120.9,-3408.6,-447.6,-310.8,-328.5,1731.9,-8637.0,390.0,-5955.0,-7.2,-6.0,-745.5,1953.3,-0.6,-504.3,734.4,2190.0,0,3552,0,95,0, 
1.9767,-217.8,-394.2,-1599.3,-174.9,-122.1,379.5,-302.7,-4.5,-2815.8,-184.2,-41.4,-61.5,1062.6,-9655.8,-1229.7,-5659.2,-6.6,-6.0,-468.6,1967.4,-0.6,-240.0,885.6,2537.7,0,3558,0,96,0, 
1.9800,-289.5,-259.8,-1544.1,-1315.2,-1264.2,328.8,-1437.0,47.1,-2964.0,-1332.6,-1182.3,-1203.9,1162.8,-9288.0,28.5,-5856.3,-6.9,-6.0,-1610.7,-2410.2,-0.6,-1377.3,678.6,1525.5,0,3564,0,97,0, 
1.9833,-324.6,-51.3,-1288.8,-2294.1,-2241.9,10.5,-2414.4,-10.5,-3630.9,-2310.6,-2156.7,-2182.5,1975.5,-8048.1,2546.1,-6180.3,-6.6,-6.3,-2580.3,-5219.1,-0.9,-2360.7,551.7,572.7,0,3570,0,98,0, 
1.9867,-374.7,-77.4,-1191.6,-1704.6,-1658.7,-240.0,-1832.1,-116.1,-3705.0,-1720.5,-1572.6,-1594.5,2199.6,-7588.2,2725.2,-6193.5,-6.9,-6.0,-1998.9,-2650.2,-0.6,-1769.1,479.7,1013.7,0,3576,0,99,0, 
1.9900,-275.7,-226.2,-1371.6,-408.9,-352.8,-15.6,-542.1,-162.6,-3186.3,-436.2,-272.1,-291.3,1711.2,-8626.8,330.3,-5893.2,-6.9,-6.0,-710.1,2008.2,-0.9,-477.9,736.5,2219.4,0,3582,0,100,0, 
1.9933,-187.8,-285.9,-1576.5,-139.2,-87.9,307.8,-270.6,-102.0,-2815.8,-159.9,-2.1,-22.2,988.5,-9663.3,-1406.7,-5634.0,-6.9,-6.0,-434.4,2006.4,-0.3,-212.1,755.7,2553.3,0,3588,0,101,0, 
1.9967,-168.9,-161.4,-1452.0,-1207.8,-1148.1,255.9,-1333.2,-14.4,-2889.9,-1227.9,-1064.7,-1087.5,1329.6,-9309.9,-152.7,-5762.4,-6.9,-6.3,-1493.7,-2290.8,-0.9,-1273.2,744.6,1618.5,0,3594,0,102,0, 
2.0000,-286.5,27.0,-1206.6,-2203.2,-2146.2,-7.8,-2329.2,61.8,-3630.9,-2222.7,-2065.2,-2086.2,2055.6,-8037.9,2356.2,-6070.2,-6.9,-5.7,-2488.8,-5069.4,-0.6,-2276.7,647.7,638.4,0,3600,0,103,0, 
2.0033,-307.2,85.8,-1097.1,-1663.2,-1602.6,-171.9,-1799.4,-41.4,-3779.1,-1674.9,-1521.3,-1545.9,2361.0,-7638.6,2608.2,-6153.9,-6.9,-6.0,-1945.2,-2602.8,-0.9,-1727.4,536.1,1028.1,0,3606,0,104,0, 
2.0067,-197.1,-72.3,-1321.2,-306.0,-251.4,73.8,-436.5,-118.8,-3260.4,-320.1,-168.6,-190.5,1739.4,-8667.9,154.2,-5877.9,-6.6,-6.0,-601.8,2072.4,-0.3,-372.0,649.5,2286.0,0,3612,0,105,0, 
2.0100,-160.2,-223.2,-1537.5,-41.7,22.8,386.7,-165.6,0.6,-2815.8,-59.1,92.4,72.3,1098.0,-9720.6,-1552.5,-5619.6,-7.2,-6.0,-338.7,2123.4,-0.6,-105.0,684.9,2652.0,0,3618,0,106,0, 
2.0133,-211.2,-78.9,-1360.8,-1104.3,-1047.6,371.7,-1232.1,77.1,-2815.8,-1129.5,-976.5,-1000.5,1216.8,-9206.7,-299.4,-5700.3,-6.9,-5.7,-1403.7,-2285.7,-0.6,-1169.4,596.1,1733.4,0,3624,0,107,0, 
2.0167,-340.2,38.1,-1132.5,-2085.6,-2028.0,5.4,-2207.4,0.3,-3556.8,-2095.5,-1957.2,-1984.2,1951.8,-8025.9,2148.0,-6061.5,-6.9,-5.7,-2376.6,-5026.5,-0.9,-2150.1,441.0,792.6,0,3630,0,108,0, 
2.0200,-260.4,83.1,-980.1,-1540.2,-1485.3,-44.4,-1662.6,-15.0,-3705.0,-1551.6,-1412.4,-1440.6,2323.5,-7509.6,2437.2,-6094.8,-6.6,-5.7,-1839.6,-2399.7,-0.9,-1601.7,509.7,1167.9,0,3636,0,109,0, 
2.0233,-185.7,-66.6,-1270.2,-300.6,-242.7,114.9,-427.5,-69.0,-3408.6,-311.1,-177.3,-202.2,1694.1,-8651.4,-120.6,-5819.7,-6.6,-6.0,-612.0,2183.4,-0.9,-358.5,611.1,2313.9,0,3642,0,110,0, 
2.0267,-114.6,-108.0,-1449.0,-45.9,9.9,453.6,-169.2,-19.5,-2667.6,-59.1,76.8,49.2,967.5,-9706.8,-1766.4,-5594.4,-6.9,-5.7,-354.3,2181.9,-0.6,-98.4,742.5,2663.7,0,3648,0,111,0, 
2.0300,-175.2,-36.9,-1369.2,-1086.0,-1026.9,487.5,-1200.3,68.7,-3112.2,-1102.5,-970.5,-997.5,1207.2,-9312.3,-450.3,-5659.2,-6.3,-6.0,-1395.0,-2190.9,-0.6,-1147.2,635.4,1758.0,0,3654,0,112,0, 
2.0333,-241.5,150.9,-1109.1,-1991.7,-1934.1,225.3,-2101.5,90.9,-3408.6,-2007.0,-1884.3,-1915.2,1987.2,-8017.5,1992.9,-5917.8,-6.6,-6.3,-2304.3,-5005.2,-1.2,-2055.3,540.9,843.6,0,3660,0,113,0, 
2.0367,-258.0,78.9,-946.5,-1473.6,-1414.5,12.3,-1591.8,72.6,-3630.9,-1478.7,-1362.9,-1396.2,2225.1,-7665.0,2193.3,-6016.8,-6.6,-6.0,-1786.2,-2388.6,-0.6,-1525.2,470.7,1230.6,0,3666,0,114,0, 
2.0400,-114.0,-67.8,-1149.9,-59.1,4.2,311.7,-179.4,14.7,-2964.0,-70.2,44.7,20.7,1606.8,-8574.9,-253.5,-5697.0,-6.9,-6.0,-383.1,2262.3,-1.2,-101.7,633.0,2546.7,0,3672,0,115,0, 
2.0433,-81.3,-190.5,-1413.3,204.0,261.9,616.8,85.2,91.8,-2445.3,198.3,308.7,277.8,916.2,-9661.8,-1959.9,-5387.4,-6.9,-5.7,-121.5,2375.4,-0.6,168.3,737.4,2886.9,0,3678,0,116,0, 
2.0467,-119.1,-88.8,-1356.6,-883.8,-827.1,536.7,-999.6,105.3,-2667.6,-891.3,-790.5,-818.7,1133.7,-9187.2,-624.9,-5533.2,-6.9,-5.7,-1207.5,-2041.8,-0.9,-920.4,624.9,1919.1,0,3684,0,117,0, 
2.0500,-129.9,-10.8,-1029.3,-1833.6,-1770.6,181.8,-1939.8,116.1,-3334.5,-1840.2,-1746.9,-1777.8,1877.4,-7900.8,1818.9,-5834.7,-7.2,-6.0,-2160.9,-4800.3,-0.9,-1879.5,477.3,996.9,0,3690,0,118,0, 
2.0533,-155.7,-27.9,-1016.1,-1302.3,-1243.8,-24.0,-1409.7,-45.6,-3482.7,-1301.7,-1218.3,-1246.2,2080.2,-7409.7,1996.8,-5971.2,-6.9,-5.7,-1635.6,-2223.9,-0.9,-1336.8,429.6,1378.5,0,3696,0,119,0, 
2.0567,-62.7,-182.4,-1237.8,-36.0,24.0,163.2,-143.7,14.1,-2964.0,-37.5,41.1,14.7,1558.2,-8482.2,-475.2,-5672.7,-6.6,-6.3,-385.2,2464.8,-0.6,-81.6,568.2,2548.8,0,3702,0,120,0, 
2.0600,-13.2,-327.0,-1573.8,171.0,231.9,402.9,65.7,38.7,-2593.5,178.2,253.5,224.4,759.9,-9613.5,-2154.6,-5500.2,-7.2,-6.0,-169.5,2257.5,-0.9,136.5,621.9,2820.0,0,3708,0,121,0, 
2.0633,-157.5,-203.4,-1456.5,-913.8,-858.0,311.7,-1015.8,66.6,-2593.5,-903.3,-834.3,-865.5,987.6,-9192.3,-898.8,-5625.9,-7.2,-6.0,-1247.4,-2107.8,-0.9,-946.8,513.0,1873.8,0,3714,0,122,0, 
2.0667,-139.5,83.7,-1135.5,-1790.1,-1734.0,63.9,-1888.2,151.5,-3260.4,-1788.9,-1718.7,-1746.6,1730.4,-7847.1,1613.7,-5874.0,-6.9,-6.0,-2127.3,-4792.2,-0.6,-1823.4,404.4,1018.5,0,3720,0,123,0, 
2.0700,-156.0,88.2,-1018.2,-1238.4,-1184.1,-199.2,-1342.5,74.7,-3408.6,-1221.6,-1164.3,-1191.6,2083.8,-7373.4,1781.4,-5881.5,-6.6,-6.3,-1579.5,-2199.9,-0.6,-1262.7,414.9,1414.8,0,3726,0,124,0, 
2.0733,-53.1,-55.2,-1300.5,92.1,147.0,98.7,-14.7,21.0,-2815.8,110.7,167.1,134.1,1461.0,-8511.3,-681.3,-5579.7,-6.9,-5.7,-250.5,2486.1,-0.9,69.6,507.6,2646.0,0,3732,0,125,0, 
2.0767,32.7,-102.9,-1561.2,368.4,427.5,472.2,260.1,160.2,-2519.4,381.6,435.6,407.1,779.4,-9439.8,-2331.3,-5342.4,-7.2,-6.0,17.4,2488.2,-0.6,345.6,630.6,3001.8,0,3738,0,126,0, 
2.0800,8.7,-8.4,-1427.1,-684.9,-626.1,414.6,-782.7,253.5,-2519.4,-671.4,-618.0,-649.2,993.9,-8976.9,-1031.4,-5426.1,-6.9,-6.3,-1024.5,-1913.1,-0.6,-706.5,514.8,2086.2,0,3744,0,127,0, 
2.0833,-66.6,108.9,-1116.9,-1620.3,-1566.0,65.1,-1722.0,196.8,-3112.2,-1602.3,-1554.3,-1586.7,1776.3,-7733.1,1449.0,-5730.3,-6.9,-6.0,-1960.5,-4701.3,-0.6,-1643.7,394.2,1132.8,0,3750,0,128,0, 
2.0867,-99.3,99.6,-977.4,-1090.5,-1031.7,-187.2,-1190.4,76.8,-3334.5,-1064.7,-1024.8,-1054.2,1995.6,-7293.0,1657.5,-5807.4,-6.9,-5.7,-1438.2,-2082.3,-0.9,-1107.6,325.5,1542.3,0,3756,0,129,0, 
2.0900,48.3,-6.3,-1102.2,311.4,375.6,82.8,207.0,54.3,-2741.7,338.1,381.6,351.0,1404.0,-8272.8,-729.0,-5485.5,-6.6,-6.0,-32.4,2647.5,-1.2,291.6,524.4,2844.0,0,3762,0,130,0, 
2.0933,52.5,-122.4,-1351.2,544.2,609.6,386.4,437.1,67.5,-2148.9,563.4,605.1,577.8,738.0,-9314.1,-2420.7,-5265.9,-6.3,-6.0,191.1,2622.9,-0.9,522.9,526.5,3130.8,0,3768,0,131,0, 
2.0967,-34.5,-29.7,-1324.8,-546.0,-484.5,379.2,-646.2,79.8,-2519.4,-526.5,-489.9,-520.5,880.8,-8906.7,-1031.4,-5435.4,-7.2,-6.3,-898.8,-1851.3,-0.6,-572.7,396.6,2176.5,0,3774,0,132,0, 
2.1000,-151.5,111.6,-1029.9,-1502.4,-1443.0,19.8,-1599.0,99.3,-3038.1,-1485.0,-1448.4,-1479.6,1751.7,-7573.5,1386.3,-5711.4,-6.9,-6.3,-1848.9,-4580.7,-0.6,-1525.8,276.3,1231.8,0,3780,0,133,0, 
2.1033,-129.9,123.3,-922.5,-871.8,-813.3,-154.8,-971.7,-15.0,-3112.2,-854.7,-819.9,-846.0,2073.9,-7126.5,1611.6,-5739.3,-6.9,-6.3,-1228.5,-1785.3,-0.9,-888.0,335.4,1713.0,0,3786,0,134,0, 
2.1067,-52.5,-55.2,-1228.2,427.5,487.5,16.5,328.2,-77.1,-2519.4,445.2,478.8,453.9,1408.5,-8226.0,-807.0,-5468.4,-6.6,-6.0,67.8,2855.1,-0.9,414.0,451.5,2935.8,0,3792,0,135,0, 
2.1100,24.6,-184.5,-1465.5,680.7,744.0,415.8,590.7,-3.9,-2148.9,702.3,730.5,700.8,716.7,-9145.5,-2360.1,-5219.1,-7.2,-6.0,321.3,2742.9,-0.9,671.7,560.7,3235.8,0,3798,0,136,0, 
2.1133,-30.9,-84.9,-1376.7,-516.9,-454.8,306.6,-600.9,31.8,-2593.5,-493.5,-467.4,-499.5,942.0,-8763.3,-979.2,-5397.6,-6.6,-6.0,-870.6,-1662.3,-0.9,-526.2,474.0,2196.9,0,3804,0,137,0, 
2.1167,-153.3,54.3,-1068.3,-1478.1,-1415.1,-10.2,-1562.1,-45.3,-2964.0,-1443.3,-1424.1,-1458.9,1726.5,-7506.9,1483.8,-5709.0,-7.2,-5.7,-1824.3,-4489.2,-1.2,-1501.2,371.4,1210.2,0,3810,0,138,0, 
2.1200,-106.8,64.5,-950.7,-846.9,-791.1,-193.5,-943.5,-145.5,-3112.2,-814.2,-793.5,-830.1,2151.3,-7093.5,1599.0,-5738.4,-6.6,-6.0,-1196.7,-1833.0,-0.6,-864.3,339.6,1676.4,0,3816,0,139,0, 
2.1233,11.7,-238.5,-1286.1,419.7,478.2,19.8,315.6,-244.8,-2593.5,450.9,471.6,435.6,1446.9,-8181.3,-837.9,-5469.3,-7.5,-6.3,62.7,2807.7,-0.9,398.4,407.1,2882.4,0,3822,0,140,0, 
2.1267,127.2,-232.8,-1525.5,647.1,705.0,398.4,543.9,-141.0,-2148.9,676.2,700.5,664.8,720.9,-9146.7,-2403.0,-5225.7,-6.9,-6.3,290.1,2697.6,-0.3,632.1,557.1,3180.3,0,3828,0,141,0, 
2.1300,-20.4,-62.4,-1477.8,-458.7,-391.8,241.8,-554.7,4.2,-2297.1,-436.8,-407.7,-442.8,862.2,-8735.7,-1041.9,-5334.9,-6.9,-5.7,-812.1,-1881.9,-0.6,-474.0,483.9,2223.9,0,3834,0,142,0, 
2.1333,-57.0,63.0,-1137.6,-1418.7,-1350.9,-3.6,-1508.7,-49.8,-2889.9,-1402.2,-1371.3,-1401.6,1558.2,-7391.7,1536.9,-5667.0,-6.6,-6.0,-1775.7,-4489.5,-0.9,-1428.6,368.1,1280.1,0,3840,0,143,0, 
2.1367,-152.4,-20.4,-1059.0,-880.2,-815.1,-251.1,-977.4,-156.6,-3112.2,-861.6,-835.8,-864.3,1967.4,-7025.4,1692.9,-5760.3,-7.2,-6.3,-1243.2,-1904.1,-0.9,-897.6,412.8,1657.5,0,3846,0,144,0, 
2.1400,18.3,-48.0,-1231.2,481.8,546.3,69.6,376.5,-125.4,-2519.4,501.9,527.4,500.4,1459.2,-8002.5,-636.0,-5382.6,-6.6,-5.7,114.0,2897.1,-0.9,472.5,534.9,2920.5,0,3852,0,145,0, 
