Time,P3,C3,F3,Fz,F4,C4,P4,Cz,CM,A1,Fp1,Fp2,T3,T5,O1,O2,X3,X2,F7,F8,X1,A2,T6,T4,Trigger,Time_Offset,ADC_Status,ADC_Sequence,Event,Comments
0.0033,-132.3,23.4,-428.7,-26.7,492.6,-543.9,-80.7,-8753.1,-47201.7,22.2,-5845.8,-6633.3,-429.9,-7919.7,-6697.8,-8737.8,-6.6,-6.0,-8011.2,-8186.1,-0.6,120.9,-2009.1,-549.9,0,6,1034821877760,5,0, 
0.0067,-181.2,24.6,-463.5,-87.3,9247.8,-294.6,-145.2,6494.7,69876.3,-99.6,5379.9,6276.0,89.7,7440.3,9066.0,6497.4,-7.2,-6.3,6552.0,6619.2,-0.9,2.1,4336.2,-490.2,0,12,1034821877760,6,0, 
0.0100,-132.3,35.4,-439.5,-44.7,5585.1,-332.7,-108.9,9830.1,117967.2,-31.5,9830.1,9817.5,92.1,9827.1,9830.1,9830.1,-6.9,-6.0,9830.1,9830.1,-0.9,63.9,3630.3,-503.7,0,18,1034821877760,7,0, 
0.0133,-63.3,39.3,-400.8,45.3,-5962.5,-607.8,-24.6,1001.1,30603.3,135.0,-936.3,-841.8,-468.6,2204.4,5192.1,845.7,-6.9,-5.4,-139.5,60.9,-0.9,230.4,-3464.7,-570.9,0,24,1034821877760,8,0, 
0.0167,-63.9,32.4,-395.7,53.7,-9018.3,-743.4,-10.5,-9830.1,-74470.5,158.7,-9830.1,-9817.8,-788.4,-9827.4,-9830.1,-9830.1,-6.9,-5.7,-9830.1,-9830.1,-1.2,263.4,-6955.2,-608.1,0,30,1034821877760,9,0, 
0.0200,-134.7,23.4,-434.7,-29.7,386.4,-551.7,-81.9,-9212.7,-52981.5,18.3,-6293.4,-7086.6,-450.0,-8421.0,-7532.1,-9207.6,-6.6,-6.3,-8433.3,-8595.0,-0.6,123.0,-2181.0,-559.5,0,36,1034821877760,10,0, 
0.0233,-189.6,18.6,-471.0,-97.8,9018.9,-312.3,-151.8,6327.6,63133.2,-100.5,4820.4,5889.0,60.3,7311.6,8862.3,6284.7,-6.9,-5.7,6267.0,6348.6,-0.6,-5.1,4103.7,-504.0,0,42,1034821877760,11,0, 
0.0267,-144.0,33.6,-448.2,-47.4,5250.0,-353.1,-115.5,9830.1,108852.9,-33.9,9658.5,9817.5,56.4,9827.1,9830.1,9830.1,-6.6,-6.0,9830.1,9830.1,-0.6,66.3,3316.2,-510.6,0,48,1034821877760,12,0, 
0.0300,-66.3,36.3,-404.7,46.8,-6356.7,-643.5,-27.9,263.7,16598.4,136.8,-2542.8,-2304.3,-505.2,1266.3,3673.5,72.6,-7.2,-5.7,-1342.5,-1110.3,-0.6,231.9,-3965.7,-580.5,0,54,1034821877760,13,0, 
0.0333,-64.2,26.1,-407.1,57.3,-9768.3,-792.6,-5.7,-9830.1,-96626.4,177.6,-9830.1,-9817.8,-859.5,-9827.4,-9830.1,-9830.1,-6.6,-5.7,-9830.1,-9830.1,-0.6,271.5,-7885.8,-615.6,0,60,1034821877760,14,0, 
0.0367,-113.7,18.6,-436.5,-1.5,-2601.3,-639.6,-56.4,-9238.8,-103073.1,67.5,-9520.5,-9634.5,-631.8,-9434.1,-9723.3,-9321.3,-6.9,-6.0,-9646.8,-9638.7,-0.9,165.6,-4521.3,-573.3,0,66,1034821877760,15,0, 
0.0400,-162.6,23.7,-467.4,-65.4,6011.4,-412.8,-121.8,-5870.4,-16820.7,-50.1,-2238.6,-2523.6,-176.1,-4097.1,-2542.2,-5762.1,-6.6,-6.6,-4817.7,-4741.2,-0.6,49.2,1168.5,-517.5,0,72,1034821877760,16,0, 
0.0433,-128.4,34.2,-453.0,-32.4,3324.9,-439.5,-99.6,7616.1,22378.2,-4.8,1335.3,2356.8,-159.9,8352.9,9830.1,7021.8,-6.9,-6.0,2940.0,3831.3,-0.6,94.5,834.0,-528.3,0,78,1034821877760,17,0, 
0.0467,-60.9,48.0,-415.2,49.2,-6256.8,-674.1,-18.3,-9830.1,-60762.0,140.1,-7119.3,-7760.7,-621.0,-9514.8,-9285.0,-9830.1,-7.2,-5.4,-9291.6,-9459.3,-0.3,239.1,-5255.4,-588.0,0,84,1034821877760,18,0, 
0.0500,-58.5,36.3,-408.3,60.6,-9819.9,-819.0,-5.4,-8609.7,-167169.6,177.6,-9830.1,-9817.8,-952.2,-8944.8,-9152.4,-8725.5,-6.9,-5.7,-9319.2,-9248.7,-0.3,275.4,-8979.9,-624.6,0,90,1034821877760,19,0, 
0.0533,-133.8,32.4,-450.3,-25.8,767.4,-578.1,-83.7,-9830.1,-138567.0,18.0,-9033.6,-9297.6,-542.7,-9827.4,-9830.1,-9830.1,-6.6,-5.4,-9830.1,-9830.1,-1.2,116.4,-3294.9,-560.4,0,96,1034821877760,20,0, 
0.0567,-184.2,30.9,-483.0,-95.1,9819.6,-303.3,-159.6,1283.1,-6372.6,-109.5,2174.7,3974.1,31.8,2119.2,-1740.6,1416.3,-6.9,-6.6,2891.1,3109.2,-0.9,-9.0,3783.9,-496.8,0,102,1034821877760,21,0, 
0.0600,-134.4,38.7,-449.1,-38.1,4783.5,-384.0,-116.1,9830.1,36160.8,-21.9,5343.9,8605.8,-47.1,9827.1,7082.1,9830.1,-6.9,-5.4,9830.1,9830.1,-0.6,77.1,2152.5,-518.1,0,108,1034821877760,22,0, 
0.0633,-57.6,45.0,-402.9,59.4,-6649.5,-666.9,-20.1,-7281.3,-62021.7,143.1,-5768.1,-5834.4,-593.7,-6703.8,-9830.1,-7189.8,-6.6,-6.0,-7071.0,-6750.0,-0.9,246.9,-5005.2,-577.8,0,114,1034821877760,23,0, 
0.0667,-66.3,33.0,-402.6,61.5,-9136.2,-790.2,-10.5,-9411.3,-162279.0,159.9,-9830.1,-9817.8,-903.0,-9601.8,-9084.0,-9466.8,-6.9,-5.7,-9627.6,-9696.0,-0.9,257.7,-8171.7,-612.3,0,120,1034821877760,24,0, 
0.0700,-122.1,40.2,-433.5,-10.2,415.5,-580.2,-73.8,-9830.1,-138715.2,31.2,-8809.8,-9037.2,-533.7,-9827.4,-9830.1,-9830.1,-6.9,-6.3,-9830.1,-9830.1,-0.3,123.0,-3200.1,-546.6,0,126,1034821877760,25,0, 
0.0733,-183.9,34.2,-474.6,-88.2,9519.6,-325.2,-150.3,1841.7,-16894.8,-99.9,2380.2,4179.9,12.3,2153.1,-6584.1,2063.4,-6.6,-5.7,3267.0,3464.7,-1.2,-7.8,3521.1,-493.5,0,132,1034821877760,26,0, 
0.0767,-130.5,56.4,-438.6,-35.7,5851.2,-347.7,-108.9,9830.1,37791.0,-22.5,7759.8,9817.5,22.2,9827.1,2871.9,9830.1,-6.6,-6.0,9830.1,9830.1,-0.9,70.5,2937.3,-493.5,0,138,1034821877760,27,0, 
0.0800,-46.5,67.8,-384.0,66.0,-6526.8,-651.0,-7.8,-3784.5,-60169.2,161.1,-3879.9,-3357.6,-570.3,-3926.1,-9830.1,-3809.1,-7.2,-5.7,-3810.9,-3423.9,-1.2,256.8,-4819.2,-571.2,0,144,1034821877760,28,0, 
0.0833,-46.2,56.7,-387.3,76.2,-9412.8,-794.1,3.9,-9830.1,-171467.4,184.5,-9830.1,-9817.8,-902.1,-9827.4,-8988.3,-9830.1,-6.9,-6.0,-9830.1,-9830.1,-0.9,284.1,-8414.1,-603.0,0,150,1034821877760,29,0, 
0.0867,-125.1,49.2,-433.8,-16.8,1278.3,-550.8,-75.0,-9830.1,-135380.7,21.6,-7704.9,-7814.1,-477.6,-9827.4,-9830.1,-9830.1,-6.6,-6.0,-9245.7,-9270.0,-0.3,117.6,-2507.4,-543.9,0,156,1034821877760,30,0, 
0.0900,-172.2,42.6,-466.5,-77.4,9688.8,-311.7,-145.2,4346.7,-14301.3,-84.9,3833.1,5935.5,33.3,4055.1,-8239.2,4444.8,-6.6,-6.3,5468.1,5593.2,-1.2,9.3,3732.6,-486.9,0,162,1034821877760,31,0, 
0.0933,-133.8,56.1,-450.3,-38.1,5587.8,-351.0,-108.9,9830.1,35568.0,-18.9,8012.4,9817.5,20.1,9827.1,-1818.3,9830.1,-7.2,-5.7,9830.1,9830.1,-1.2,77.7,2958.3,-497.1,0,168,1034821877760,32,0, 
0.0967,-60.0,57.0,-405.3,47.7,-5712.0,-634.2,-17.7,-1790.7,-50906.7,150.3,-2753.1,-2128.8,-522.6,-2537.7,-9830.1,-1869.6,-6.9,-6.3,-2258.7,-1947.9,-0.9,243.6,-4068.3,-560.7,0,174,1034821877760,33,0, 
0.1000,-55.2,46.2,-404.1,63.0,-9819.9,-790.8,4.2,-9830.1,-164724.3,185.4,-9830.1,-9817.8,-901.5,-9827.4,-9244.5,-9830.1,-6.9,-5.7,-9830.1,-9830.1,-0.3,288.0,-8221.8,-602.7,0,180,1034821877760,34,0, 
0.1033,-133.8,34.2,-445.8,-24.6,1048.5,-550.8,-75.0,-9439.5,-135603.0,26.7,-7332.9,-7382.4,-507.3,-9559.5,-9830.1,-9418.2,-6.6,-6.0,-8649.9,-8690.1,-0.9,128.4,-2551.8,-549.0,0,186,1034821877760,35,0, 
0.1067,-188.4,35.1,-475.5,-92.1,9819.6,-276.6,-150.3,5622.0,-1333.8,-109.8,5533.8,6784.2,72.3,5079.6,-5933.1,5667.3,-7.2,-5.7,6334.2,6447.6,-1.2,-9.6,4529.7,-485.1,0,192,1034821877760,36,0, 
0.1100,-135.0,43.8,-451.8,-43.2,5424.0,-343.5,-107.4,9830.1,43126.2,-22.5,9240.0,9817.5,9.6,9827.1,1843.5,9830.1,-7.2,-6.0,9830.1,9830.1,-0.9,74.7,3031.2,-506.4,0,198,1034821877760,37,0, 
0.1133,-65.4,47.1,-418.2,42.6,-6016.2,-625.8,-25.5,-187.2,-48239.1,138.6,-2141.4,-1689.0,-534.0,-1666.2,-9830.1,-297.3,-6.9,-6.0,-1215.0,-851.7,-0.9,239.1,-4032.9,-570.3,0,204,1034821877760,38,0, 
0.1167,-65.7,33.6,-419.4,42.9,-8704.8,-748.2,-8.4,-9830.1,-147459.0,160.8,-9830.1,-9817.8,-835.5,-9827.4,-8959.5,-9830.1,-6.6,-5.7,-9830.1,-9830.1,-0.3,259.5,-7248.0,-602.1,0,210,1034821877760,39,0, 
0.1200,-132.3,30.0,-456.0,-43.8,901.5,-546.9,-80.1,-8934.0,-122561.4,17.4,-6662.1,-7097.1,-480.3,-9320.7,-9830.1,-8934.9,-6.9,-5.7,-8267.1,-8300.7,-0.9,118.2,-2368.8,-547.5,0,216,1034821877760,40,0, 
0.1233,-185.7,27.0,-489.3,-111.3,9729.3,-275.4,-152.4,6456.6,7113.6,-117.3,6112.2,7033.5,92.7,5539.8,-4413.9,6447.0,-6.6,-6.0,6884.1,7017.0,-0.6,-19.8,4705.2,-476.1,0,222,1034821877760,41,0, 
0.1267,-142.2,41.4,-462.0,-63.0,6531.3,-314.4,-122.7,9830.1,66171.3,-42.3,9830.1,9817.5,104.7,9827.1,9801.0,9830.1,-7.2,-6.0,9830.1,9830.1,-0.9,46.2,4071.6,-488.7,0,228,1034821877760,42,0, 
0.1300,-56.4,43.2,-425.4,40.8,-6229.2,-634.5,-26.4,1718.4,-29565.9,136.8,-94.2,474.9,-519.0,299.7,-9785.1,1579.2,-6.6,-6.0,1134.6,1370.7,-0.9,233.1,-3844.2,-571.5,0,234,1034821877760,43,0, 
0.1333,-57.6,34.2,-415.5,47.4,-8703.0,-747.9,-11.7,-9830.1,-133676.4,162.3,-9830.1,-9817.8,-815.1,-9827.4,-8742.9,-9830.1,-6.9,-6.0,-9830.1,-9830.1,-0.6,255.3,-7055.7,-601.5,0,240,1034821877760,44,0, 
0.1367,-135.3,21.6,-461.1,-45.3,1759.2,-526.8,-90.6,-7135.2,-95663.1,9.3,-4497.0,-4800.9,-415.5,-7890.9,-9830.1,-7138.8,-6.9,-5.7,-6006.6,-6119.1,-0.9,105.3,-1469.4,-537.6,0,246,1034821877760,45,0, 
0.1400,-177.3,21.0,-485.1,-105.6,9819.6,-288.0,-152.1,8752.2,27565.2,-108.6,7336.2,8393.1,108.9,7793.1,-1066.5,8719.8,-6.6,-5.7,8815.8,8898.9,-0.9,-12.0,4819.8,-488.4,0,252,1034821877760,46,0, 
0.1433,-134.7,42.3,-463.2,-60.9,6433.2,-320.4,-118.8,9830.1,81435.9,-39.3,9830.1,9817.5,109.5,9827.1,9830.1,9830.1,-7.2,-6.0,9830.1,9830.1,-0.6,55.2,4249.8,-495.3,0,258,1034821877760,47,0, 
0.1467,-62.4,45.6,-418.8,31.5,-5364.3,-611.1,-33.0,5069.1,-1926.6,129.0,2169.6,2782.2,-450.3,3136.8,-5833.2,4839.3,-7.2,-6.3,3808.8,4072.8,-0.6,226.8,-2975.4,-571.8,0,264,1034821877760,48,0, 
0.1500,-51.3,43.8,-409.5,53.7,-9333.0,-753.3,-6.6,-9830.1,-112928.4,174.6,-9813.9,-9817.8,-812.4,-9827.4,-9568.2,-9830.1,-7.2,-6.3,-9830.1,-9830.1,-0.6,269.1,-7006.5,-603.0,0,270,1034821877760,49,0, 
0.1533,-135.6,28.2,-455.7,-37.8,1446.9,-534.0,-95.7,-6251.7,-82028.7,11.1,-4101.0,-4434.9,-431.1,-7119.0,-9830.1,-6322.2,-6.3,-6.0,-5404.5,-5415.6,-0.6,99.9,-1508.1,-547.2,0,276,1034821877760,50,0, 
0.1567,-183.6,29.1,-483.6,-105.0,9819.6,-265.2,-163.5,9218.7,52240.5,-120.9,7911.6,8573.1,145.2,8322.6,3532.5,9146.4,-6.3,-6.3,9005.4,9175.8,-0.9,-33.0,5536.5,-485.4,0,282,1034821877760,51,0, 
0.1600,-132.3,46.8,-461.1,-58.5,5705.7,-334.2,-117.0,9830.1,96848.7,-33.6,9830.1,9817.5,86.7,9827.1,9830.1,9830.1,-6.6,-6.3,9830.1,9830.1,-0.9,55.2,4121.7,-501.3,0,288,1034821877760,52,0, 
0.1633,-61.5,48.6,-429.9,21.6,-5831.1,-628.2,-38.1,5313.3,7113.6,124.8,1999.5,2353.8,-474.0,3501.9,-2308.5,5075.1,-7.8,-5.7,3758.7,4035.6,-0.3,218.1,-3116.7,-573.9,0,294,1034821877760,53,0, 
0.1667,-54.6,42.6,-415.5,32.4,-8575.2,-739.8,-13.8,-9830.1,-92625.0,158.7,-8940.6,-9817.8,-779.1,-9827.4,-9830.1,-9830.1,-7.2,-6.3,-9830.1,-9830.1,-0.6,249.0,-6400.2,-596.4,0,300,1034821877760,54,0, 
0.1700,-129.6,30.0,-462.9,-52.2,701.4,-553.8,-90.3,-6849.3,-70543.2,15.0,-3993.6,-4958.7,-458.4,-7581.6,-9817.2,-6878.4,-6.9,-6.0,-6225.3,-6313.2,-0.3,109.2,-1770.3,-550.2,0,306,1034821877760,55,0, 
0.1733,-183.0,27.3,-491.7,-118.2,9691.5,-276.6,-159.6,8743.8,57131.1,-116.1,7490.7,8000.1,117.3,7695.9,4918.2,8679.3,-6.9,-6.0,8481.3,8595.6,-0.9,-25.2,5304.9,-484.8,0,312,1034821877760,56,0, 
0.1767,-137.7,40.5,-473.1,-73.2,6437.7,-321.0,-123.0,9830.1,113743.5,-47.1,9830.1,9817.5,120.6,9827.1,9830.1,9830.1,-6.9,-5.7,9830.1,9830.1,-0.6,49.5,4671.0,-490.2,0,318,1034821877760,57,0, 
0.1800,-58.2,36.0,-429.3,23.4,-6596.7,-654.6,-32.1,4118.4,14894.1,135.3,1987.5,1727.7,-508.2,2233.5,-89.1,3882.3,-6.9,-6.3,2654.7,2852.7,-1.2,234.6,-3480.9,-576.9,0,324,1034821877760,58,0, 
0.1833,-65.4,27.3,-429.9,22.8,-8875.8,-769.5,-17.7,-9830.1,-90846.6,155.4,-9611.4,-9817.8,-816.9,-9827.4,-9830.1,-9830.1,-6.6,-5.7,-9830.1,-9830.1,-0.3,257.1,-6659.7,-604.8,0,330,1034821877760,59,0, 
0.1867,-142.2,10.5,-480.0,-73.2,1247.4,-552.6,-96.6,-6273.9,-57057.0,2.1,-3210.3,-4419.6,-443.7,-7200.3,-8546.4,-6318.3,-6.6,-6.3,-5508.6,-5670.9,-0.9,103.5,-1340.1,-552.9,0,336,1034821877760,60,0, 
0.1900,-188.1,9.6,-505.5,-129.9,9691.8,-317.4,-157.8,9174.3,61873.5,-113.1,7515.9,8083.5,72.9,8219.1,7283.1,9121.5,-6.9,-6.0,8825.7,8938.5,-0.6,-13.8,4902.3,-492.6,0,342,1034821877760,61,0, 
0.1933,-149.4,20.1,-481.5,-86.7,6179.7,-343.5,-124.8,9830.1,113002.5,-47.4,9830.1,9817.5,83.1,9827.1,9830.1,9830.1,-6.9,-6.3,9830.1,9830.1,-0.6,50.7,4374.6,-507.0,0,348,1034821877760,62,0, 
0.1967,-71.7,27.9,-438.3,11.1,-5810.7,-641.1,-32.1,4878.9,26601.9,122.4,2400.6,2010.6,-475.5,3101.4,2922.3,4657.2,-6.9,-6.0,3299.4,3518.1,-0.6,224.7,-2995.5,-573.3,0,354,1034821877760,63,0, 
0.2000,-58.5,24.6,-428.7,32.4,-9591.3,-785.4,-4.8,-9830.1,-87734.4,174.0,-9794.4,-9817.8,-841.5,-9827.4,-9830.1,-9830.1,-6.6,-5.7,-9830.1,-9830.1,-0.3,268.8,-7023.3,-605.7,0,360,1034821877760,64,0, 
0.2033,-139.8,10.5,-474.0,-57.0,1027.8,-572.4,-90.0,-6817.2,-59502.3,8.1,-4018.2,-5022.9,-454.5,-7560.9,-7779.9,-6848.4,-6.6,-6.0,-6094.2,-6185.7,-0.9,111.0,-1584.6,-552.6,0,366,1034821877760,65,0, 
0.2067,-191.7,10.5,-503.7,-128.4,9819.6,-303.0,-161.4,8730.0,71506.5,-123.9,7548.0,7818.6,112.2,7776.3,7886.1,8668.5,-6.6,-5.7,8455.8,8580.6,-0.6,-17.4,5372.1,-490.2,0,372,1034821877760,66,0, 
0.2100,-132.0,31.5,-466.5,-69.6,5356.8,-359.7,-107.1,9830.1,113891.7,-25.5,9830.1,9817.5,62.7,9827.1,9830.1,9830.1,-6.6,-5.7,9830.1,9830.1,-0.6,72.3,3960.0,-490.5,0,378,1034821877760,67,0, 
0.2133,-65.1,27.6,-421.5,13.8,-6083.7,-652.5,-27.9,3845.7,23415.6,129.3,1221.0,813.6,-506.1,2229.3,3472.8,3632.7,-7.2,-6.0,2238.9,2530.8,-0.3,231.9,-3226.2,-575.1,0,384,1034821877760,68,0, 
0.2167,-51.0,27.3,-406.8,37.2,-8908.2,-771.6,-4.2,-9830.1,-79287.0,167.7,-9680.1,-9817.8,-807.0,-9827.4,-9830.1,-9830.1,-6.6,-6.0,-9830.1,-9830.1,-0.9,264.3,-6617.1,-599.1,0,390,1034821877760,69,0, 
0.2200,-126.6,18.0,-445.5,-40.8,316.5,-591.0,-79.8,-7940.7,-60687.9,27.6,-5015.1,-6294.6,-494.1,-8388.0,-8062.8,-7963.2,-6.6,-5.7,-7307.7,-7395.9,-0.6,123.0,-2044.5,-552.0,0,396,1034821877760,70,0, 
0.2233,-180.6,16.8,-474.3,-106.8,9676.2,-312.6,-152.7,7512.9,66023.1,-105.0,6849.3,7085.7,87.6,6603.9,7414.8,7463.1,-7.2,-6.0,7470.9,7498.5,-0.9,-8.7,5069.7,-482.4,0,402,1034821877760,71,0, 
0.2267,-131.7,33.0,-450.0,-59.4,6122.4,-343.2,-111.9,9830.1,120634.8,-27.9,9830.1,9817.5,94.5,9827.1,9830.1,9830.1,-6.9,-6.0,9830.1,9830.1,-0.6,64.8,4355.1,-488.7,0,408,1034821877760,72,0, 
0.2300,-50.4,32.1,-409.5,36.3,-6748.5,-665.1,-16.8,2066.4,20525.7,150.0,491.7,45.3,-528.6,630.9,2667.0,1868.1,-6.6,-5.7,845.4,987.9,-0.9,251.1,-3713.1,-573.6,0,414,1034821877760,73,0, 
0.2333,-53.7,28.5,-410.4,39.0,-9021.3,-778.5,-2.1,-9830.1,-86104.2,171.6,-9830.1,-9817.8,-829.8,-9827.4,-9830.1,-9830.1,-6.9,-6.0,-9830.1,-9830.1,-0.6,277.5,-6860.1,-600.0,0,420,1034821877760,74,0, 
0.2367,-129.0,17.1,-458.4,-55.5,837.9,-570.9,-82.2,-7899.0,-56316.0,18.6,-4795.8,-5893.8,-463.5,-8339.7,-7635.0,-7909.5,-6.9,-5.7,-7037.4,-7197.3,-1.2,121.5,-1699.5,-543.9,0,426,1034821877760,75,0, 
0.2400,-183.0,18.0,-487.5,-117.0,9260.7,-340.5,-153.3,7671.3,59872.8,-96.9,6161.1,6766.2,39.6,6910.2,8025.6,7652.7,-7.2,-6.3,7625.7,7719.3,-0.9,-8.4,4456.8,-495.6,0,432,1034821877760,76,0, 
0.2433,-136.8,47.4,-450.9,-63.9,5933.1,-358.5,-114.9,9830.1,111001.8,-28.8,9830.1,9817.5,71.1,9827.1,9830.1,9830.1,-6.9,-6.3,9830.1,9830.1,-1.2,67.2,4038.0,-489.0,0,438,1034821877760,77,0, 
0.2467,-58.2,54.0,-412.2,38.4,-5994.3,-653.1,-26.4,2323.8,22971.0,138.0,255.0,261.0,-492.6,1035.9,3321.3,2150.7,-6.9,-6.0,992.4,1246.5,-0.6,237.3,-3333.6,-565.2,0,444,1034821877760,78,0, 
0.2500,-50.4,38.4,-406.2,50.4,-9662.4,-802.2,-6.9,-9830.1,-93588.3,182.7,-9830.1,-9817.8,-870.9,-9827.4,-9830.1,-9830.1,-6.6,-6.0,-9830.1,-9830.1,-0.9,283.2,-7428.6,-608.1,0,450,1034821877760,79,0, 
0.2533,-126.9,27.9,-452.7,-47.1,726.0,-575.7,-87.3,-8400.6,-66541.8,27.3,-5579.4,-6244.8,-468.3,-8694.3,-8157.9,-8398.5,-6.6,-6.0,-7601.4,-7734.0,-0.6,117.9,-1943.4,-550.8,0,456,1034821877760,80,0, 
0.2567,-174.9,26.7,-480.0,-114.0,9799.5,-307.2,-157.8,6940.8,61206.6,-94.8,6361.8,6852.9,98.1,6290.1,7336.2,6934.8,-6.6,-5.7,7104.3,7186.8,-0.9,-5.1,4824.9,-484.8,0,462,1034821877760,81,0, 
0.2600,-122.7,49.2,-450.6,-55.5,5160.9,-370.5,-110.7,9830.1,102924.9,-15.6,9830.1,9817.5,43.2,9827.1,9830.1,9830.1,-6.9,-6.0,9830.1,9830.1,-0.6,81.6,3497.7,-494.7,0,468,1034821877760,82,0, 
0.2633,-53.4,50.1,-413.4,36.9,-6131.7,-647.7,-30.0,1376.1,12448.8,148.5,-776.4,-968.4,-505.8,221.7,2224.8,1221.3,-7.2,-5.7,-126.6,311.1,-0.6,240.9,-3578.7,-566.1,0,474,1034821877760,83,0, 
0.2667,-50.1,42.6,-407.4,54.6,-9170.1,-776.7,-3.9,-9830.1,-92476.8,184.8,-9830.1,-9817.8,-821.7,-9827.4,-9830.1,-9830.1,-6.9,-6.0,-9830.1,-9830.1,-1.2,267.9,-7077.9,-595.5,0,480,1034821877760,84,0, 
0.2700,-120.0,30.9,-445.8,-29.7,115.8,-594.0,-83.7,-8928.3,-74248.2,50.4,-6468.3,-7396.2,-496.8,-9114.3,-8841.9,-8922.0,-6.6,-6.0,-8405.4,-8418.3,-0.6,128.7,-2413.5,-555.0,0,486,1034821877760,85,0, 
0.2733,-174.9,30.0,-479.4,-102.6,9703.5,-314.1,-154.2,5789.1,51944.1,-88.8,5785.2,6294.0,77.1,5378.7,5984.1,5825.4,-6.6,-6.0,6191.7,6308.1,-0.6,-21.9,4618.5,-491.4,0,492,1034821877760,86,0, 
0.2767,-126.9,44.7,-452.1,-51.9,5961.3,-359.7,-113.1,9830.1,104999.7,-14.4,9830.1,9817.5,69.6,9827.1,9830.1,9830.1,-6.6,-6.0,9830.1,9830.1,-0.6,52.2,3884.4,-495.0,0,498,1034821877760,87,0, 
0.2800,-46.5,48.0,-409.2,48.9,-6771.3,-669.9,-21.0,-343.5,5335.2,164.7,-1229.1,-1484.7,-543.0,-1197.6,103.8,-453.0,-7.2,-5.7,-1170.0,-888.0,0.0,244.5,-4030.2,-578.7,0,504,1034821877760,88,0, 
0.2833,-54.3,29.4,-411.6,45.9,-9179.7,-795.9,-10.2,-9830.1,-101887.5,168.9,-9830.1,-9817.8,-861.0,-9827.4,-9830.1,-9830.1,-7.5,-5.7,-9830.1,-9830.1,-0.6,270.3,-7261.5,-605.7,0,510,1034821877760,89,0, 
0.2867,-124.5,21.0,-445.8,-36.9,735.3,-578.1,-86.4,-8920.2,-73284.9,14.7,-5939.1,-6714.6,-486.3,-9112.5,-9047.7,-8915.4,-6.9,-5.7,-8119.5,-8199.0,-0.6,123.3,-2094.0,-548.1,0,516,1034821877760,90,0, 
0.2900,-169.2,25.2,-469.2,-95.4,9227.7,-338.4,-148.5,6330.3,43422.6,-109.5,5000.4,6009.9,24.3,5502.0,6045.9,6344.1,-6.9,-6.0,6219.9,6470.4,-0.6,14.1,4140.3,-483.9,0,522,1034821877760,91,0, 
0.2933,-129.6,37.8,-442.5,-51.0,5878.2,-363.9,-117.3,9830.1,95292.6,-45.0,9830.1,9817.5,43.5,9827.1,9830.1,9830.1,-7.5,-6.3,9830.1,9830.1,-0.9,80.4,3700.5,-489.3,0,528,1034821877760,92,0, 
0.2967,-51.9,40.2,-406.8,49.2,-5953.2,-653.4,-25.5,664.8,6817.2,119.4,-1012.2,-690.9,-519.9,-348.3,370.8,552.9,-6.9,-6.0,-450.9,-40.5,-1.2,254.4,-3612.9,-562.8,0,534,1034821877760,93,0, 
0.3000,-45.0,36.9,-393.0,71.7,-9606.3,-803.4,1.8,-9830.1,-109445.7,176.7,-9830.1,-9817.8,-888.6,-9827.4,-9830.1,-9830.1,-6.9,-6.6,-9830.1,-9830.1,-0.6,303.3,-7728.0,-597.0,0,540,1034821877760,94,0, 
0.3033,-126.9,24.9,-441.3,-23.4,724.5,-575.1,-84.6,-8980.2,-82325.1,10.5,-6470.4,-6815.7,-501.9,-9143.1,-9362.4,-8985.0,-6.9,-6.3,-8302.2,-8269.8,-0.6,139.8,-2191.8,-539.4,0,546,1034821877760,95,0, 
0.3067,-174.9,31.5,-464.1,-85.8,9796.5,-318.9,-150.0,6045.3,44904.6,-106.8,5644.8,6651.0,55.5,5574.6,5152.5,6020.4,-6.9,-6.3,6386.7,6636.0,-0.6,12.9,4530.0,-475.5,0,552,1034821877760,96,0, 
0.3100,-127.5,49.8,-432.3,-30.9,5226.9,-375.0,-108.6,9830.1,88327.2,-17.1,9642.3,9817.5,19.2,9827.1,9830.1,9830.1,-6.9,-6.3,9830.1,9830.1,-0.9,92.1,3311.1,-487.5,0,558,1034821877760,97,0, 
0.3133,-50.1,52.5,-388.8,52.2,-5966.1,-650.4,-31.8,465.3,-296.4,142.5,-1408.8,-1049.7,-519.9,-404.1,-652.5,285.0,-6.9,-6.0,-740.7,-248.7,-0.9,257.1,-3664.2,-560.1,0,564,1034821877760,98,0, 
0.3167,-46.5,42.0,-389.7,65.1,-9216.9,-786.0,-15.0,-9830.1,-106259.4,190.8,-9830.1,-9817.8,-841.2,-9827.4,-9830.1,-9830.1,-6.6,-5.7,-9830.1,-9830.1,-0.6,286.5,-7294.2,-593.4,0,570,1034821877760,99,0, 
0.3200,-114.9,34.8,-431.7,-14.1,144.3,-588.0,-84.3,-9167.1,-88623.6,39.0,-7070.4,-7441.8,-519.6,-9279.9,-9678.0,-9156.9,-6.6,-6.0,-8582.4,-8606.1,-0.3,150.3,-2583.0,-543.9,0,576,1034821877760,100,0, 
0.3233,-176.4,32.4,-471.9,-88.8,9803.7,-311.1,-162.3,5430.0,38606.1,-98.1,5295.6,6360.9,61.8,5120.1,4121.4,5506.8,-6.9,-5.7,6060.9,6145.2,-0.9,3.0,4494.6,-484.8,0,582,1034821877760,101,0, 
0.3267,-123.0,46.8,-441.0,-34.2,5960.1,-352.8,-121.2,9830.1,91587.6,-17.7,9830.1,9817.5,57.9,9827.1,9830.1,9830.1,-6.6,-6.0,9830.1,9830.1,-0.6,79.5,3696.9,-494.1,0,588,1034821877760,102,0, 
0.3300,-38.4,50.4,-400.5,65.1,-6649.5,-671.4,-26.7,-806.4,-6965.4,161.1,-1744.2,-1423.8,-536.7,-1638.3,-2781.9,-946.2,-6.9,-5.7,-1458.0,-1170.6,-0.6,255.9,-4086.0,-569.4,0,594,1034821877760,103,0, 
0.3333,-45.3,36.0,-402.0,65.4,-9161.4,-789.6,-13.5,-9830.1,-112854.3,173.7,-9830.1,-9817.8,-849.6,-9827.4,-9830.1,-9830.1,-6.9,-6.0,-9830.1,-9830.1,-0.3,276.0,-7302.3,-597.3,0,600,1034821877760,104,0, 
0.3367,-120.3,25.8,-438.6,-20.4,752.1,-578.1,-86.4,-9109.2,-85066.8,28.8,-6244.8,-6644.4,-485.7,-9267.9,-9830.1,-9118.2,-6.9,-6.0,-8294.1,-8271.9,-0.9,127.2,-2193.0,-545.1,0,606,1034821877760,105,0, 
0.3400,-168.9,28.2,-469.2,-82.8,9261.6,-331.2,-150.0,5998.8,32085.3,-85.8,4860.9,6191.7,27.6,5169.6,3036.3,5916.9,-6.6,-6.3,6039.6,6378.0,-0.9,7.8,4071.6,-489.9,0,612,1034821877760,106,0, 
0.3433,-128.7,38.1,-453.0,-49.5,5964.0,-357.9,-123.0,9830.1,85585.5,-29.7,9787.5,9817.5,43.5,9827.1,9830.1,9830.1,-7.2,-6.0,9830.1,9830.1,-0.9,66.6,3673.8,-502.8,0,618,1034821877760,107,0, 
0.3467,-53.1,42.9,-404.7,49.2,-5931.9,-651.6,-30.0,554.4,-2815.8,143.7,-1155.3,-751.8,-519.6,-320.1,-2210.4,453.0,-6.9,-6.0,-409.5,-9.3,-1.2,240.9,-3640.5,-573.0,0,624,1034821877760,108,0, 
0.3500,-42.0,39.6,-389.1,72.6,-9552.9,-801.6,-1.2,-9830.1,-118634.1,193.2,-9830.1,-9817.8,-876.9,-9827.4,-9830.1,-9830.1,-6.9,-6.0,-9830.1,-9830.1,-0.6,290.4,-7723.8,-609.3,0,630,1034821877760,109,0, 
0.3533,-120.3,26.4,-436.8,-25.2,825.3,-570.3,-81.0,-8961.0,-90476.1,29.7,-6526.5,-6925.5,-479.4,-9098.4,-9830.1,-8935.2,-6.6,-6.3,-8244.0,-8209.8,-0.9,128.7,-2153.7,-549.3,0,636,1034821877760,110,0, 
0.3567,-178.2,19.2,-488.7,-101.4,9760.2,-324.0,-157.5,6062.4,36160.8,-98.7,5590.5,6723.6,58.8,5661.0,3376.8,6099.0,-7.2,-6.3,6499.5,6731.7,-0.6,-3.0,4464.6,-491.4,0,642,1034821877760,111,0, 
0.3600,-129.0,38.1,-453.9,-48.9,5216.7,-375.6,-112.5,9830.1,79212.9,-15.9,9484.5,9817.5,17.1,9827.1,9830.1,9830.1,-7.2,-6.3,9830.1,9830.1,-0.9,82.8,3267.0,-509.4,0,648,1034821877760,112,0, 
0.3633,-59.4,38.1,-419.1,37.8,-5907.3,-649.2,-29.7,396.3,-8447.4,141.0,-1615.8,-1075.5,-519.9,-401.4,-2878.2,242.4,-7.5,-5.7,-650.7,-147.0,-0.6,238.8,-3647.4,-573.3,0,654,1034821877760,113,0, 
0.3667,-58.5,30.0,-409.5,54.9,-9308.4,-786.3,-14.1,-9830.1,-114632.7,179.4,-9830.1,-9817.8,-848.7,-9827.4,-9830.1,-9830.1,-7.2,-6.0,-9830.1,-9830.1,-1.2,275.4,-7334.1,-606.3,0,660,1034821877760,114,0, 
0.3700,-122.1,29.4,-445.2,-19.8,148.5,-580.8,-80.7,-9101.7,-96996.9,41.1,-7251.3,-7469.7,-508.5,-9240.6,-9830.1,-9116.7,-6.6,-5.7,-8604.6,-8547.3,-0.6,139.2,-2610.6,-550.8,0,666,1034821877760,115,0, 
0.3733,-178.2,37.2,-476.1,-89.4,9819.6,-308.7,-158.4,5667.0,30825.6,-86.1,5037.6,6351.6,60.9,5247.3,2657.1,5679.0,-6.9,-6.0,6030.6,6323.4,-1.2,-2.4,4501.8,-490.5,0,672,1034821877760,116,0, 
0.3767,-121.8,52.2,-449.7,-37.5,5948.7,-345.6,-112.5,9830.1,83436.6,-15.6,9830.1,9817.5,50.4,9827.1,9830.1,9830.1,-6.9,-6.3,9830.1,9830.1,-0.9,78.9,3688.2,-493.5,0,678,1034821877760,117,0, 
0.3800,-49.2,53.1,-409.5,53.4,-6637.5,-665.1,-20.1,-569.7,-14301.3,160.8,-2099.4,-1680.0,-550.5,-1555.5,-4353.3,-697.5,-6.9,-5.7,-1508.1,-1113.6,-0.9,255.0,-4044.6,-578.7,0,684,1034821877760,118,0, 
0.3833,-50.4,49.2,-411.9,56.1,-9125.4,-782.1,-5.4,-9830.1,-119226.9,182.1,-9830.1,-9817.8,-840.9,-9827.4,-9830.1,-9830.1,-6.6,-6.3,-9830.1,-9830.1,-0.9,279.0,-7285.2,-601.8,0,690,1034821877760,119,0, 
0.3867,-116.1,42.6,-453.3,-22.8,664.5,-572.4,-77.1,-9101.7,-92625.0,44.4,-6638.4,-6951.3,-474.6,-9313.8,-9830.1,-9108.9,-6.6,-6.0,-8306.4,-8317.8,-0.9,132.6,-2229.3,-543.9,0,696,1034821877760,120,0, 
0.3900,-167.4,40.5,-480.3,-83.4,9279.3,-321.3,-142.5,5919.9,24453.0,-75.9,4541.4,5976.6,34.5,5014.5,954.3,5854.2,-6.6,-6.3,6019.2,6373.2,-0.6,16.5,4086.6,-481.2,0,702,1034821877760,121,0, 
0.3933,-129.6,52.2,-459.0,-41.4,6001.8,-350.4,-113.7,9830.1,78842.4,-18.3,9696.6,9817.5,53.1,9827.1,9830.1,9830.1,-6.9,-6.0,9830.1,9830.1,-0.9,73.2,3693.0,-495.9,0,708,1034821877760,122,0, 
0.3967,-45.6,60.6,-409.5,62.1,-5887.5,-636.0,-15.6,808.2,-9707.1,161.1,-1359.6,-725.4,-505.5,-336.6,-3912.6,665.7,-6.6,-6.0,-339.6,207.6,-0.3,257.4,-3641.1,-567.9,0,714,1034821877760,123,0, 
0.4000,-35.1,51.3,-404.1,69.3,-9526.2,-797.4,7.8,-9830.1,-125451.3,205.5,-9830.1,-9817.8,-872.1,-9827.4,-9830.1,-9830.1,-7.2,-5.7,-9830.1,-9830.1,-0.6,294.0,-7752.3,-606.3,0,720,1034821877760,124,0, 
0.4033,-119.1,36.6,-447.3,-27.6,862.8,-566.1,-81.0,-8877.6,-96848.7,36.3,-6625.8,-6996.3,-485.4,-9122.4,-9830.1,-8870.4,-6.9,-5.7,-8221.2,-8152.5,-0.6,132.6,-2162.1,-544.8,0,726,1034821877760,125,0, 
0.4067,-174.9,32.4,-483.6,-96.3,9716.7,-321.0,-155.1,6214.5,29343.6,-93.6,5554.5,6616.5,56.7,5590.2,1940.7,6223.2,-6.9,-6.3,6544.5,6816.9,-0.6,-2.7,4412.1,-493.2,0,732,1034821877760,126,0, 
0.4100,-123.6,49.2,-450.3,-36.3,5341.5,-365.4,-108.9,9830.1,73433.1,-8.4,9579.6,9817.5,18.9,9827.1,9830.1,9830.1,-7.2,-5.7,9830.1,9830.1,-0.6,76.2,3269.4,-500.7,0,738,1034821877760,127,0, 
0.4133,-57.0,47.1,-404.4,52.8,-5753.4,-632.7,-29.4,707.7,-12819.3,146.1,-1447.2,-1022.7,-511.2,-452.1,-4124.7,551.7,-7.2,-6.3,-398.1,96.9,-0.9,238.5,-3583.8,-571.5,0,744,1034821877760,128,0, 
0.4167,-46.5,46.8,-399.0,72.0,-9262.2,-777.6,-4.2,-9830.1,-119745.6,189.3,-9830.1,-9817.8,-848.7,-9827.4,-9830.1,-9830.1,-6.9,-5.7,-9830.1,-9830.1,-0.6,282.0,-7335.0,-596.7,0,750,1034821877760,129,0, 
0.4200,-123.0,39.3,-436.2,-11.4,149.4,-579.3,-82.5,-8946.3,-102258.0,50.1,-7075.5,-7509.3,-513.9,-9214.8,-9830.1,-8958.6,-6.6,-5.7,-8453.7,-8390.4,-0.6,138.9,-2618.7,-552.0,0,756,1034821877760,130,0, 
0.4233,-177.0,39.3,-469.5,-87.9,9819.6,-309.9,-159.6,5985.3,25638.6,-80.4,5388.6,6293.7,60.9,5294.7,1426.5,5993.4,-6.9,-6.0,6324.6,6569.1,-0.3,0.3,4496.1,-490.5,0,762,1034821877760,131,0, 
0.4267,-126.9,54.3,-435.9,-39.3,5896.8,-351.9,-119.7,9830.1,78249.6,-6.6,9830.1,9817.5,54.6,9827.1,9830.1,9830.1,-7.2,-6.0,9830.1,9830.1,-0.9,78.3,3662.7,-501.9,0,768,1034821877760,132,0, 
0.4300,-52.2,50.7,-396.0,55.2,-6544.2,-658.8,-23.7,-192.0,-18895.5,166.5,-1515.6,-1640.4,-537.3,-1590.6,-5562.3,-322.2,-6.6,-6.0,-1256.1,-825.3,-0.9,247.2,-4014.9,-574.2,0,774,1034821877760,133,0, 
0.4333,-52.2,42.0,-396.3,61.2,-9044.7,-779.1,-9.6,-9830.1,-123376.5,190.5,-9830.1,-9817.8,-844.5,-9827.4,-9830.1,-9830.1,-6.9,-5.7,-9830.1,-9830.1,-0.9,275.7,-7235.4,-602.1,0,780,1034821877760,134,0, 
0.4367,-120.6,37.5,-431.4,-13.2,630.6,-571.2,-84.0,-9091.5,-97663.8,47.4,-6120.6,-6942.6,-482.4,-9447.3,-9830.1,-9083.4,-7.2,-6.0,-8227.8,-8267.1,-0.3,135.9,-2250.0,-547.8,0,786,1034821877760,135,0, 
0.4400,-168.6,36.9,-462.9,-77.1,9311.1,-326.7,-149.7,5883.0,19858.8,-71.1,5217.0,6122.7,36.0,4733.4,-188.7,5869.2,-7.2,-6.0,6147.0,6393.6,-0.6,15.6,4082.4,-486.6,0,792,1034821877760,136,0, 
0.4433,-129.9,54.0,-442.2,-36.9,6120.9,-344.1,-117.3,9830.1,74989.2,-12.0,9830.1,9817.5,64.2,9827.1,9830.1,9830.1,-6.9,-6.0,9830.1,9830.1,-0.6,76.5,3757.5,-494.1,0,798,1034821877760,137,0, 
0.4467,-48.3,59.7,-397.8,58.5,-5813.1,-641.4,-21.0,1108.8,-13486.2,166.8,-560.1,-498.3,-509.4,-425.4,-4851.9,973.2,-7.2,-6.3,43.5,264.3,-0.6,253.8,-3631.5,-563.4,0,804,1034821877760,138,0, 
0.4500,-43.8,49.2,-390.3,71.1,-9459.0,-789.9,-0.9,-9830.1,-129008.1,201.6,-9830.1,-9817.8,-879.3,-9827.4,-9830.1,-9830.1,-6.9,-6.3,-9830.1,-9830.1,-0.6,297.9,-7713.6,-593.4,0,810,1034821877760,139,0, 
0.4533,-123.6,40.5,-433.8,-17.1,875.1,-548.4,-76.8,-8763.9,-100109.1,45.3,-6171.6,-6859.2,-480.3,-9201.3,-9830.1,-8762.7,-7.2,-6.0,-8072.1,-8153.7,-0.9,135.6,-2144.1,-531.6,0,816,1034821877760,140,0, 
0.4567,-173.7,37.8,-468.6,-82.5,9683.7,-290.4,-141.3,6386.1,25119.9,-81.3,6053.4,6804.6,49.8,5410.8,1117.2,6377.4,-6.6,-6.0,6720.6,6795.0,-0.9,3.3,4398.6,-473.7,0,822,1034821877760,141,0, 
0.4600,-124.2,53.1,-438.9,-30.9,5353.8,-338.7,-101.7,9830.1,69579.9,-1.5,9775.8,9817.5,18.3,9827.1,9830.1,9830.1,-7.5,-5.7,9830.1,9830.1,-0.3,82.8,3339.0,-490.5,0,828,1034821877760,142,0, 
0.4633,-56.7,56.1,-395.7,57.6,-5708.7,-616.5,-23.7,980.4,-15931.5,153.6,-789.9,-804.9,-506.4,-593.1,-5029.2,764.4,-7.2,-5.7,-136.8,32.1,-0.9,239.7,-3492.0,-558.0,0,834,1034821877760,143,0, 
0.4667,-42.0,52.5,-386.1,78.0,-9318.3,-757.5,-0.9,-9830.1,-123376.5,201.6,-9830.1,-9817.8,-852.0,-9827.4,-9830.1,-9830.1,-7.2,-5.7,-9830.1,-9830.1,-0.6,286.8,-7323.6,-593.4,0,840,1034821877760,144,0, 
0.4700,-123.6,36.9,-428.1,-15.3,192.0,-575.7,-87.6,-8802.9,-105814.8,52.8,-6749.7,-7341.6,-523.8,-9218.4,-9830.1,-8814.9,-6.9,-6.0,-8346.9,-8451.0,-0.6,137.4,-2570.4,-554.7,0,846,1034821877760,145,0, 
0.4733,-175.5,42.3,-468.3,-90.3,9819.6,-292.2,-165.0,6243.0,23119.2,-79.5,5789.7,6485.4,64.5,5247.9,668.1,6226.8,-6.3,-6.3,6471.0,6465.0,-0.6,-3.6,4588.2,-485.4,0,852,1034821877760,146,0, 
0.4767,-126.0,59.7,-438.0,-33.0,5868.9,-337.2,-120.3,9830.1,75063.3,-3.0,9830.1,9817.5,48.9,9827.1,9830.1,9830.1,-6.9,-6.3,9830.1,9830.1,-0.6,75.3,3686.7,-486.0,0,858,1034821877760,147,0, 
0.4800,-53.4,62.1,-397.8,63.9,-6487.5,-639.6,-24.6,135.9,-21414.9,165.3,-1128.6,-1348.8,-552.0,-1645.2,-6209.7,-78.9,-6.9,-5.7,-1115.4,-1020.0,-0.9,254.1,-3970.8,-560.7,0,864,1034821877760,148,0, 
0.4833,-57.9,48.3,-395.1,69.0,-8966.7,-762.6,-19.5,-9830.1,-125599.5,187.5,-9830.1,-9817.8,-850.8,-9827.4,-9830.1,-9830.1,-6.9,-6.0,-9830.1,-9830.1,-0.3,275.4,-7201.8,-585.3,0,870,1034821877760,149,0, 
0.4867,-129.9,37.5,-430.2,-10.8,666.9,-556.2,-93.0,-9016.5,-100035.0,47.1,-5910.6,-6781.5,-493.8,-9522.9,-9830.1,-9045.0,-7.2,-5.7,-8191.2,-8345.4,-0.9,132.0,-2229.3,-536.4,0,876,1034821877760,150,0, 
0.4900,-177.3,42.0,-458.7,-68.7,9354.3,-305.4,-155.1,6029.1,17709.9,-72.9,5437.8,6172.5,29.1,4667.1,-514.5,5955.9,-6.9,-5.7,6288.6,6306.3,-0.9,8.4,4140.3,-469.5,0,882,1034821877760,151,0, 
0.4933,-138.3,50.7,-445.5,-31.5,6225.3,-323.1,-120.9,9830.1,73655.4,-17.1,9830.1,9817.5,49.8,9827.1,9830.1,9830.1,-6.9,-6.3,9830.1,9830.1,-0.9,66.0,3861.9,-475.8,0,888,1034821877760,152,0, 
0.4967,-57.0,53.7,-398.4,64.8,-5889.0,-625.5,-32.4,1366.8,-15931.5,154.5,-302.1,-360.3,-522.6,-444.9,-5319.3,1163.1,-7.5,-6.3,334.8,340.8,-0.9,243.9,-3627.6,-551.7,0,894,1034821877760,153,0, 
0.5000,-48.9,40.2,-393.9,75.3,-9449.7,-779.4,-7.5,-9830.1,-131749.8,198.6,-9830.1,-9817.8,-890.1,-9827.4,-9830.1,-9830.1,-7.2,-6.0,-9830.1,-9830.1,-0.9,282.9,-7722.3,-593.1,0,900,1034821877760,154,0, 
0.5033,-128.4,31.2,-437.7,-10.5,844.8,-543.3,-88.8,-8730.9,-102702.6,38.7,-6164.7,-6934.5,-492.0,-9278.4,-9830.1,-8747.7,-6.6,-6.3,-7991.1,-8170.5,-0.6,122.7,-2103.3,-528.3,0,906,1034821877760,155,0, 
0.5067,-177.0,29.7,-464.1,-78.0,9642.3,-295.5,-155.4,6404.7,21414.9,-80.1,6098.4,6702.3,45.3,5169.3,393.6,6390.0,-6.6,-6.3,6761.4,6745.2,-0.6,2.4,4376.4,-473.1,0,912,1034821877760,156,0, 
0.5100,-131.1,39.3,-444.3,-33.3,5373.9,-349.5,-117.0,9830.1,66467.7,-10.2,9803.1,9817.5,11.1,9827.1,9830.1,9830.1,-6.9,-6.3,9830.1,9830.1,-0.6,77.7,3334.8,-489.0,0,918,1034821877760,157,0, 
0.5133,-60.3,42.9,-402.0,53.4,-5562.3,-621.3,-33.0,1095.0,-18006.3,143.7,-602.1,-741.0,-511.8,-882.6,-5646.3,897.9,-7.5,-5.7,-75.6,64.5,-0.6,233.7,-3423.0,-554.7,0,924,1034821877760,158,0, 
0.5167,-52.5,39.6,-391.8,72.6,-9352.2,-767.7,-11.7,-9830.1,-126192.3,194.1,-9830.1,-9817.8,-853.5,-9827.4,-9830.1,-9830.1,-6.9,-6.0,-9830.1,-9830.1,-0.6,278.7,-7349.7,-592.5,0,930,1034821877760,159,0, 
0.5200,-120.6,33.0,-432.3,-15.9,186.0,-572.7,-84.9,-8731.8,-108630.6,47.7,-6667.2,-7360.2,-507.6,-9313.5,-9830.1,-8771.4,-6.6,-6.0,-8235.6,-8319.6,-0.9,134.4,-2560.5,-542.1,0,936,1034821877760,160,0, 
0.5233,-180.9,28.8,-471.3,-94.2,9819.6,-303.9,-163.2,6383.1,20822.1,-96.6,5979.6,6579.3,59.4,5019.0,117.6,6325.8,-6.9,-6.3,6618.6,6659.4,-0.6,-8.7,4608.9,-475.5,0,942,1034821877760,161,0, 
0.5267,-132.9,35.4,-447.0,-46.8,5845.2,-354.0,-126.3,9830.1,72469.8,-22.5,9830.1,9817.5,39.3,9827.1,9830.1,9830.1,-6.9,-6.0,9830.1,9830.1,-0.9,65.4,3658.8,-492.9,0,948,1034821877760,162,0, 
0.5300,-58.2,41.1,-405.6,42.3,-6414.3,-664.2,-36.0,320.4,-23341.5,147.3,-1097.4,-1265.7,-553.2,-1798.5,-6789.3,182.1,-6.9,-5.7,-907.5,-694.5,-0.9,239.7,-3898.2,-576.9,0,954,1034821877760,163,0, 
0.5333,-56.1,33.0,-404.4,49.2,-8956.8,-785.4,-17.1,-9830.1,-126488.7,175.2,-9830.1,-9817.8,-853.8,-9827.4,-9752.4,-9830.1,-6.6,-6.0,-9830.1,-9830.1,-0.6,268.5,-7148.1,-588.9,0,960,1034821877760,164,0, 
0.5367,-124.8,25.5,-433.8,-26.4,577.2,-577.5,-89.1,-9106.2,-102332.1,30.0,-6044.4,-6737.1,-503.7,-9692.7,-9830.1,-9096.6,-6.6,-5.7,-8206.8,-8334.3,-0.6,129.0,-2272.2,-534.3,0,966,1034821877760,165,0, 
0.5400,-175.2,23.1,-464.4,-92.1,9335.7,-324.9,-155.7,5994.6,16079.7,-91.2,5428.2,6323.1,27.9,4364.7,-946.5,5973.9,-6.9,-6.0,6312.6,6399.3,-0.9,-1.8,4186.8,-484.8,0,972,1034821877760,166,0, 
0.5433,-133.8,37.5,-441.6,-50.4,6314.1,-346.2,-127.2,9830.1,73877.7,-32.7,9830.1,9817.5,50.7,9827.1,9830.1,9830.1,-6.6,-6.0,9830.1,9830.1,-0.9,63.0,3953.1,-488.4,0,978,1034821877760,167,0, 
0.5467,-56.7,42.6,-401.7,41.1,-5745.3,-641.1,-30.9,1871.7,-14968.2,144.9,-10.5,116.4,-522.6,-302.4,-5505.9,1672.2,-6.9,-6.0,778.5,893.7,-0.6,240.9,-3516.3,-557.4,0,984,1034821877760,168,0, 
0.5500,-54.0,29.1,-399.9,50.1,-9311.4,-794.4,-12.9,-9830.1,-128563.5,179.7,-9830.1,-9817.8,-880.5,-9827.4,-9825.3,-9830.1,-6.9,-6.0,-9830.1,-9830.1,-0.6,275.4,-7464.9,-599.4,0,990,1034821877760,169,0, 
0.5533,-134.4,20.1,-441.9,-42.0,1134.3,-565.2,-96.0,-8357.1,-97589.7,13.8,-5519.1,-6227.7,-481.2,-9079.2,-9830.1,-8379.9,-6.6,-6.3,-7503.3,-7689.0,-0.3,116.7,-1876.8,-540.9,0,996,1034821877760,170,0, 
0.5567,-185.7,17.7,-474.3,-102.6,9672.6,-324.0,-167.7,7184.7,27268.8,-108.9,6513.0,7298.1,49.5,5792.7,1157.1,7154.7,-6.9,-6.6,7481.4,7457.7,-0.6,-5.7,4580.4,-490.8,0,1002,1034821877760,171,0, 
0.5600,-141.6,30.6,-450.0,-51.6,5712.6,-362.4,-123.6,9830.1,74618.7,-39.9,9830.1,9817.5,28.8,9827.1,9830.1,9830.1,-6.9,-6.0,9830.1,9830.1,-0.6,57.3,3686.1,-495.6,0,1008,1034821877760,172,0, 
0.5633,-72.0,39.3,-407.4,34.5,-5318.1,-631.2,-45.3,2726.1,-7039.5,123.3,730.5,884.7,-483.6,480.0,-4477.5,2586.0,-6.6,-6.0,1672.8,1736.4,-1.2,219.6,-3097.8,-560.4,0,1014,1034821877760,173,0, 
0.5667,-58.8,33.6,-397.5,49.2,-9032.4,-778.5,-18.6,-9830.1,-113002.5,164.7,-9830.1,-9817.8,-833.4,-9827.4,-9830.1,-9830.1,-6.9,-6.0,-9830.1,-9830.1,-0.6,266.1,-6921.3,-590.7,0,1020,1034821877760,174,0, 
0.5700,-130.2,24.0,-439.5,-30.6,719.4,-580.8,-91.8,-7926.6,-91365.3,25.8,-5454.9,-6138.3,-489.6,-8679.6,-9830.1,-7944.3,-6.9,-6.3,-7166.1,-7366.2,-0.6,116.7,-2039.1,-541.5,0,1026,1034821877760,175,0, 
0.5733,-180.9,31.2,-470.7,-102.6,9819.6,-301.2,-165.0,7983.0,40384.5,-108.0,7120.8,7773.0,96.0,6750.3,2827.8,7943.7,-7.5,-6.3,8210.1,8158.5,-0.9,-18.3,5149.8,-479.7,0,1032,1034821877760,176,0, 
0.5767,-135.6,44.1,-443.4,-55.5,6398.4,-336.9,-130.2,9830.1,95885.4,-38.4,9830.1,9817.5,104.7,9827.1,9830.1,9830.1,-6.9,-6.0,9830.1,9830.1,-0.9,57.0,4453.8,-485.1,0,1038,1034821877760,177,0, 
0.5800,-59.1,47.7,-404.1,33.9,-5446.5,-631.8,-43.2,4579.2,9484.8,125.4,2079.6,2300.7,-466.5,2389.8,-1759.5,4381.8,-6.9,-6.3,3731.7,3637.5,-0.3,227.7,-2861.1,-561.0,0,1044,1034821877760,178,0, 
0.5833,-62.4,42.0,-404.4,43.8,-8299.8,-753.3,-24.0,-9830.1,-89586.9,159.3,-8593.2,-9817.8,-758.1,-9827.4,-9830.1,-9830.1,-6.9,-5.7,-9830.1,-9830.1,-0.6,259.8,-6156.0,-587.4,0,1050,1034821877760,179,0, 
0.5867,-130.2,30.9,-441.0,-33.3,871.5,-559.8,-98.7,-6921.0,-66245.4,22.5,-3656.7,-4754.4,-439.2,-7941.3,-9830.1,-6947.7,-7.2,-6.6,-5710.8,-6046.2,-0.3,125.1,-1594.2,-532.2,0,1056,1034821877760,180,0, 
0.5900,-185.7,24.0,-471.9,-106.2,9486.6,-303.9,-171.6,8787.9,55204.5,-114.3,7341.6,7840.5,103.2,7516.8,5136.0,8710.2,-6.9,-5.7,8613.9,8621.7,-1.2,-6.9,5143.5,-470.7,0,1062,1034821877760,181,0, 
0.5933,-153.6,34.8,-454.2,-70.5,7110.0,-306.0,-144.6,9830.1,121449.9,-59.7,9830.1,9817.5,165.9,9827.1,9830.1,9830.1,-7.2,-6.3,9830.1,9830.1,-0.3,39.0,5311.5,-474.0,0,1068,1034821877760,182,0, 
0.5967,-61.5,44.4,-402.9,40.5,-5606.7,-628.2,-39.9,6022.5,30899.7,129.3,3434.7,3293.1,-458.7,4185.9,2673.3,5805.3,-7.2,-5.7,4623.9,4683.0,-1.2,237.0,-2838.9,-553.8,0,1074,1034821877760,183,0, 
0.6000,-58.2,38.1,-397.8,53.4,-9463.8,-778.5,-16.2,-9830.1,-89068.2,179.1,-9830.1,-9817.8,-838.2,-9827.4,-9830.1,-9830.1,-7.2,-6.0,-9830.1,-9830.1,-0.9,281.4,-7017.9,-593.4,0,1080,1034821877760,184,0, 
0.6033,-141.9,25.2,-449.4,-49.5,1157.1,-557.1,-104.7,-6625.5,-56538.3,12.3,-3528.6,-4540.8,-431.1,-7383.9,-8169.0,-6668.1,-6.6,-5.7,-5577.6,-5913.9,-0.9,111.9,-1311.6,-543.3,0,1086,1034821877760,185,0, 
0.6067,-184.2,29.4,-482.7,-109.2,9819.6,-291.9,-171.0,8984.4,72469.8,-110.4,7637.1,8169.0,133.8,7998.6,7658.7,8909.1,-6.6,-6.3,8775.9,8787.3,-0.6,-10.2,5470.8,-476.1,0,1092,1034821877760,186,0, 
0.6100,-139.8,44.4,-460.2,-56.7,5595.3,-348.3,-126.6,9830.1,117448.5,-32.7,9830.1,9817.5,93.0,9827.1,9830.1,9830.1,-7.2,-6.3,9830.1,9830.1,-0.6,70.5,4235.4,-492.3,0,1098,1034821877760,187,0, 
0.6133,-68.1,47.7,-411.6,33.6,-5610.9,-631.2,-44.1,5095.5,31196.1,128.1,2318.7,2210.7,-450.6,3392.4,4299.6,4848.3,-6.6,-6.3,3562.8,3639.3,-0.3,231.6,-2785.2,-561.0,0,1104,1034821877760,188,0, 
0.6167,-52.8,54.6,-394.8,60.0,-9090.0,-762.6,-18.0,-9830.1,-74470.5,181.2,-9077.7,-9817.8,-783.0,-9827.4,-9830.1,-9830.1,-6.6,-5.7,-9830.1,-9830.1,-0.6,278.1,-6540.0,-589.2,0,1110,1034821877760,189,0, 
0.6200,-131.7,39.3,-447.0,-27.9,582.9,-564.0,-99.3,-6846.3,-54611.7,28.5,-4298.4,-5368.5,-451.2,-7455.9,-7040.1,-6897.3,-6.6,-6.0,-6222.6,-6523.5,0.0,132.0,-1737.9,-539.7,0,1116,1034821877760,190,0, 
0.6233,-188.7,36.3,-480.9,-103.8,9819.6,-279.9,-177.0,8780.7,81139.5,-115.2,7822.8,8120.4,150.9,7953.3,8782.2,8714.7,-7.2,-6.0,8584.2,8514.3,-0.9,-18.0,5758.5,-481.8,0,1122,1034821877760,191,0, 
0.6267,-132.6,51.9,-452.1,-46.8,5853.6,-338.7,-126.3,9830.1,129749.1,-27.9,9830.1,9817.5,111.9,9827.1,9830.1,9830.1,-6.6,-6.0,9830.1,9830.1,-0.9,70.5,4497.0,-486.3,0,1128,1034821877760,192,0, 
0.6300,-59.7,52.2,-411.3,49.5,-6513.0,-649.8,-37.8,3880.2,32085.3,145.2,1452.3,1227.0,-494.4,2478.0,5166.9,3643.5,-6.9,-6.0,2366.1,2346.0,-0.9,243.3,-3283.2,-567.3,0,1134,1034821877760,193,0, 
0.6333,-61.2,42.0,-404.1,51.0,-8570.7,-759.6,-27.3,-9830.1,-67356.9,159.3,-9041.1,-9817.8,-774.9,-9827.4,-9830.1,-9830.1,-6.6,-5.4,-9830.1,-9830.1,-0.3,261.6,-6230.1,-592.5,0,1140,1034821877760,194,0, 
0.6367,-133.5,32.7,-442.5,-28.2,508.8,-580.5,-100.2,-7546.5,-44978.7,27.0,-4101.0,-5363.7,-454.2,-8031.3,-6457.2,-7614.9,-6.9,-6.0,-6510.9,-6861.0,-0.6,126.3,-1709.4,-545.4,0,1146,1034821877760,195,0, 
0.6400,-180.9,39.6,-473.1,-91.8,9354.0,-309.0,-161.4,8159.1,75137.4,-104.1,6724.2,7123.5,95.7,7329.9,9267.0,8060.7,-6.9,-6.0,7916.4,7942.8,-0.6,1.5,4998.6,-481.8,0,1152,1034821877760,196,0, 
0.6433,-138.9,52.2,-453.3,-54.3,6788.4,-319.5,-129.9,9830.1,137455.5,-38.4,9830.1,9817.5,153.3,9827.1,9830.1,9830.1,-6.9,-6.3,9830.1,9830.1,-1.2,64.2,5036.7,-477.6,0,1158,1034821877760,197,0, 
0.6467,-58.2,51.9,-410.7,40.8,-6103.2,-663.6,-36.0,4474.8,42459.3,144.9,2018.1,1802.1,-482.4,3302.7,6867.3,4322.1,-6.6,-6.0,3035.1,3173.1,-0.6,254.1,-3180.3,-573.6,0,1164,1034821877760,198,0, 
0.6500,-54.9,47.4,-396.3,59.1,-9362.7,-800.4,-12.0,-9830.1,-76693.5,184.2,-9830.1,-9817.8,-840.3,-9827.4,-9830.1,-9830.1,-7.5,-6.0,-9830.1,-9830.1,-0.6,288.3,-7115.7,-604.8,0,1170,1034821877760,199,0, 
0.6533,-137.7,36.0,-443.4,-31.5,1209.3,-574.8,-100.8,-7263.0,-41644.2,11.7,-4133.7,-5149.2,-433.8,-7577.7,-5308.2,-7257.0,-6.3,-6.0,-6361.2,-6597.6,-0.9,117.0,-1286.1,-547.5,0,1176,1034821877760,200,0, 
0.6567,-179.7,42.6,-468.9,-90.0,9704.1,-328.2,-162.3,8341.8,83807.1,-101.4,7228.5,7647.6,106.2,7800.9,9830.1,8309.1,-6.6,-6.0,8256.3,8265.0,-1.2,-0.6,5206.8,-482.4,0,1182,1034821877760,201,0, 
0.6600,-138.3,57.3,-447.6,-39.9,5643.3,-371.4,-121.8,9830.1,128934.0,-23.4,9830.1,9817.5,86.1,9827.1,9830.1,9830.1,-6.9,-6.0,9830.1,9830.1,-1.2,75.6,4214.4,-495.9,0,1188,1034821877760,202,0, 
0.6633,-71.1,54.0,-414.6,44.4,-5578.8,-654.6,-43.8,3862.8,44534.1,131.4,1585.5,1378.2,-452.7,2979.6,7413.0,3691.5,-7.2,-5.7,2609.1,2670.9,-0.9,230.1,-2799.9,-576.3,0,1194,1034821877760,203,0, 
0.6667,-63.0,44.7,-409.5,63.9,-9633.0,-813.3,-18.9,-9830.1,-68172.0,173.1,-9830.1,-9817.8,-824.4,-9827.4,-9830.1,-9830.1,-7.2,-6.3,-9830.1,-9830.1,-0.6,282.0,-6900.6,-615.6,0,1200,1034821877760,204,0, 
0.6700,-137.7,36.3,-448.2,-20.1,290.4,-606.0,-93.0,-7853.7,-50091.6,23.1,-5583.0,-6288.3,-482.1,-7950.0,-5911.5,-7861.5,-6.9,-6.3,-7172.4,-7350.6,-0.9,128.7,-1999.8,-554.7,0,1206,0,205,0, 
0.6733,-193.8,36.9,-484.2,-93.6,9819.6,-307.8,-170.7,7625.1,85807.8,-117.0,7115.1,7455.9,124.5,7307.7,9830.1,7608.6,-6.6,-6.3,7723.8,7644.9,-0.9,-18.6,5560.8,-481.8,0,1212,0,206,0, 
0.6767,-141.9,46.2,-458.4,-40.2,5768.7,-365.1,-127.2,9830.1,135010.2,-32.7,9830.1,9817.5,95.4,9827.1,9830.1,9830.1,-6.9,-6.0,9830.1,9830.1,-0.9,68.1,4332.6,-497.1,0,1218,268435456,207,0, 
0.6800,-72.3,45.9,-416.7,54.0,-6681.9,-680.1,-37.8,1959.3,35568.0,141.0,232.2,-72.0,-525.0,1431.0,6888.6,1822.8,-7.2,-5.7,856.2,833.1,-1.2,246.3,-3514.2,-580.8,0,1224,344940625920,208,0, 
0.6833,-71.1,44.4,-412.5,58.5,-8842.2,-789.3,-24.6,-9830.1,-66912.3,171.0,-9830.1,-9817.8,-797.7,-9827.4,-9830.1,-9830.1,-6.9,-6.0,-9830.1,-9830.1,0.0,272.1,-6542.1,-603.3,0,1230,344940625920,209,0, 
0.6867,-141.3,36.9,-452.1,-20.4,368.4,-599.1,-93.9,-8763.9,-45349.2,29.4,-5299.5,-6295.8,-468.3,-8712.0,-5855.1,-8766.3,-6.3,-6.0,-7680.3,-8007.6,-0.6,133.5,-1950.3,-551.4,0,1236,1034821877760,210,0, 
0.6900,-195.0,34.2,-484.8,-95.7,9374.7,-334.2,-162.9,6685.8,75582.0,-105.6,5878.2,6349.5,81.0,6591.3,9667.2,6682.5,-6.6,-6.0,6931.8,6843.6,-0.3,-3.3,4831.8,-495.0,0,1242,1034821877760,211,0, 
0.6933,-148.5,48.9,-461.7,-55.8,6560.4,-348.3,-132.0,9830.1,136640.4,-48.6,9830.1,9817.5,121.8,9827.1,9830.1,9830.1,-6.6,-5.7,9830.1,9830.1,-0.9,51.9,4743.9,-503.1,0,1248,1034821877760,212,0, 
0.6967,-66.9,49.8,-418.2,47.4,-6229.5,-679.2,-32.4,2747.1,40162.2,137.7,507.9,501.3,-506.1,2565.6,6790.2,2637.0,-6.6,-6.0,1793.4,1758.3,-0.6,240.6,-3451.2,-587.1,0,1254,1034821877760,213,0, 
0.7000,-62.7,42.9,-406.5,59.7,-9359.4,-819.3,-14.1,-9830.1,-77730.9,172.2,-9830.1,-9817.8,-857.1,-9827.4,-9830.1,-9830.1,-6.6,-6.0,-9830.1,-9830.1,-0.3,272.1,-7278.3,-620.7,0,1260,1034821877760,214,0, 
0.7033,-143.7,38.1,-451.5,-32.4,1002.6,-587.7,-97.8,-8233.5,-44311.8,13.8,-5275.2,-6174.3,-441.9,-7998.3,-5470.8,-8188.5,-6.9,-6.3,-7250.1,-7577.4,-0.9,114.3,-1556.4,-569.1,0,1266,1034821877760,215,0, 
0.7067,-181.8,44.4,-477.0,-83.7,9666.9,-324.9,-160.2,7171.5,79361.1,-96.3,6453.9,6914.1,88.5,7294.2,9830.1,7218.9,-6.6,-6.0,7485.6,7351.5,-0.6,-3.3,4904.4,-495.6,0,1272,1034821877760,216,0, 
0.7100,-132.0,64.2,-447.6,-33.9,5708.1,-365.7,-118.2,9830.1,126488.7,-21.0,9830.1,9817.5,81.9,9827.1,9830.1,9830.1,-6.6,-6.0,9830.1,9830.1,-0.9,74.1,4063.5,-499.5,0,1278,1034821877760,217,0, 
0.7133,-62.1,61.2,-418.5,46.5,-5776.5,-652.2,-39.0,2273.4,40014.0,139.8,279.9,258.0,-478.5,2289.9,6938.1,2209.5,-6.9,-5.7,1375.2,1340.1,-0.9,234.6,-3102.0,-581.4,0,1284,1034821877760,218,0, 
0.7167,-51.3,62.4,-394.5,77.7,-9751.5,-798.9,-6.9,-9830.1,-73433.1,190.2,-9830.1,-9817.8,-834.9,-9827.4,-9830.1,-9830.1,-7.2,-6.0,-9830.1,-9830.1,-0.9,289.8,-7157.1,-611.1,0,1290,1034821877760,219,0, 
0.7200,-127.8,53.4,-436.5,-7.2,368.1,-589.8,-88.2,-8504.4,-53426.1,35.1,-6176.4,-6842.4,-479.7,-8206.5,-6119.4,-8447.7,-6.9,-6.0,-7610.7,-7844.7,-0.3,133.8,-2085.3,-552.6,0,1296,1034821877760,220,0, 
0.7233,-184.2,50.7,-467.7,-81.0,9819.6,-300.9,-157.5,6921.9,80176.2,-105.9,6523.2,7003.2,121.2,7234.2,9803.7,7006.5,-7.2,-5.7,7330.5,7230.6,-0.9,-6.9,5217.3,-481.2,0,1302,1034821877760,221,0, 
0.7267,-130.2,68.1,-435.9,-24.0,5774.4,-352.2,-112.5,9830.1,127748.4,-14.4,9830.1,9817.5,84.9,9827.1,9830.1,9830.1,-6.6,-6.0,9830.1,9830.1,-0.9,80.4,4075.5,-493.5,0,1308,1034821877760,222,0, 
0.7300,-68.4,63.9,-399.6,57.3,-5964.9,-646.2,-35.4,1884.6,37716.9,135.9,30.9,-5.7,-482.1,2303.4,7273.2,1878.6,-7.5,-6.0,985.8,965.1,-0.6,240.6,-3161.1,-579.6,0,1314,1034821877760,223,0, 
0.7333,-60.0,58.8,-396.6,67.5,-8550.0,-763.2,-12.3,-9830.1,-62688.6,174.3,-9830.1,-9817.8,-781.5,-9827.4,-9830.1,-9830.1,-6.6,-5.7,-9830.1,-9830.1,-0.9,272.4,-6407.1,-596.1,0,1320,1034821877760,224,0, 
0.7367,-127.5,42.6,-432.6,-11.7,80.7,-597.3,-84.3,-9013.5,-45719.7,44.1,-5847.0,-6789.9,-481.2,-8631.3,-6545.4,-8961.6,-6.6,-5.7,-8137.2,-8396.7,-0.6,136.5,-2103.9,-556.8,0,1326,1034821877760,225,0, 
0.7400,-186.3,46.5,-466.2,-78.6,9190.5,-347.4,-156.9,6312.0,71061.9,-92.7,5439.9,6018.9,48.0,6802.2,9621.6,6396.6,-6.6,-5.7,6570.3,6519.9,-0.9,5.1,4478.4,-489.6,0,1332,1034821877760,226,0, 
0.7433,-139.8,61.2,-444.3,-42.9,6318.3,-351.0,-126.0,9830.1,127896.6,-37.8,9830.1,9817.5,94.8,9827.1,9799.5,9830.1,-6.9,-5.7,9830.1,9830.1,-1.2,67.2,4282.8,-491.7,0,1338,1034821877760,227,0, 
0.7467,-61.5,61.5,-400.5,49.8,-5434.2,-638.1,-35.7,2968.8,45201.0,132.0,887.1,971.4,-454.2,3582.9,7968.0,2944.8,-6.9,-5.7,2068.8,2147.1,-0.6,228.3,-2824.5,-565.2,0,1344,1034821877760,228,0, 
0.7500,-51.3,60.0,-390.3,69.6,-8892.0,-773.1,-10.5,-9830.1,-61503.0,177.3,-9830.1,-9817.8,-789.9,-9827.4,-9830.1,-9830.1,-6.9,-6.0,-9830.1,-9830.1,-0.6,277.8,-6549.6,-588.0,0,1350,1034821877760,229,0, 
0.7533,-114.0,52.5,-427.5,-6.0,395.1,-576.3,-82.8,-8677.2,-40903.2,38.4,-5617.2,-6519.3,-462.9,-8130.3,-5852.1,-8628.9,-6.6,-6.0,-7808.1,-8041.2,-0.6,135.0,-1860.9,-538.8,0,1356,1034821877760,230,0, 
0.7567,-166.5,49.5,-461.7,-71.7,9115.5,-329.7,-147.3,6744.3,74470.5,-81.0,5621.7,6314.1,50.4,7344.0,9830.1,6811.2,-6.9,-5.7,6889.2,6860.7,-0.9,18.3,4436.7,-481.2,0,1362,1034821877760,231,0, 
0.7600,-125.4,66.6,-438.3,-25.8,6002.7,-351.6,-117.3,9830.1,126044.1,-20.1,9830.1,9817.5,72.0,9827.1,9684.9,9830.1,-7.2,-6.0,9830.1,9830.1,-0.6,76.8,4062.0,-482.4,0,1368,1034821877760,232,0, 
0.7633,-63.0,65.1,-406.2,52.2,-5155.8,-626.4,-40.8,2981.4,47498.1,139.2,905.1,1002.9,-446.7,3748.2,8230.5,2973.0,-7.2,-5.7,2028.6,2125.2,-0.9,230.7,-2666.4,-558.3,0,1374,1034821877760,233,0, 
0.7667,-53.7,60.3,-390.3,74.4,-8804.1,-765.9,-8.7,-9830.1,-57427.5,183.0,-9792.9,-9817.8,-791.1,-9827.4,-9807.3,-9830.1,-7.2,-6.0,-9830.1,-9830.1,-0.9,277.5,-6456.3,-585.0,0,1380,1034821877760,234,0, 
0.7700,-118.2,56.1,-421.5,0.0,-114.0,-585.0,-78.0,-8976.0,-44015.4,50.1,-6214.2,-7109.1,-491.7,-8401.5,-6391.2,-8928.3,-6.6,-6.0,-8221.2,-8403.9,-0.9,150.9,-2190.9,-540.9,0,1386,1034821877760,235,0, 
0.7733,-169.2,54.0,-457.5,-70.5,9023.4,-338.1,-149.7,6186.0,71061.9,-70.8,5168.1,5757.0,33.0,7018.8,9830.1,6251.4,-6.9,-6.3,6291.0,6317.4,-1.2,20.1,4305.3,-485.4,0,1392,1034821877760,236,0, 
0.7767,-126.9,72.9,-432.3,-23.7,6067.8,-351.9,-112.5,9830.1,124858.5,-12.6,9830.1,9817.5,72.3,9827.1,9687.9,9830.1,-7.2,-6.0,9830.1,9830.1,-0.6,81.3,4073.4,-489.6,0,1398,1034821877760,237,0, 
0.7800,-59.1,70.8,-400.2,58.8,-5218.2,-623.7,-32.1,2570.4,45571.5,140.4,582.6,625.8,-446.1,3613.8,8202.0,2522.4,-7.8,-6.0,1644.0,1706.4,-0.6,240.9,-2736.0,-558.6,0,1404,1034821877760,238,0, 
0.7833,-51.0,65.1,-393.3,75.6,-8709.6,-759.0,-10.5,-9830.1,-58761.3,184.2,-9829.5,-9817.8,-776.1,-9827.4,-9830.1,-9830.1,-6.9,-6.0,-9830.1,-9830.1,-0.6,284.4,-6447.0,-580.8,0,1410,1034821877760,239,0, 
0.7867,-117.9,52.5,-430.2,-8.1,93.6,-575.4,-78.0,-8918.1,-42533.4,50.4,-6090.6,-6949.5,-471.6,-8256.6,-6160.8,-8897.4,-6.9,-6.0,-8147.4,-8339.7,-0.6,143.7,-2045.4,-534.9,0,1416,1034821877760,240,0, 
0.7900,-169.5,59.1,-456.3,-67.5,9030.0,-323.7,-145.2,6361.2,72173.4,-70.5,5235.9,5958.9,53.1,7281.0,9830.1,6385.5,-6.9,-6.0,6441.6,6476.7,-0.9,22.5,4335.0,-479.1,0,1422,1034821877760,241,0, 
0.7933,-126.3,74.4,-433.2,-27.3,6021.6,-330.3,-108.0,9830.1,125821.8,-13.5,9830.1,9817.5,85.5,9827.1,9616.8,9830.1,-7.2,-6.3,9830.1,9830.1,-0.9,82.8,4083.9,-476.1,0,1428,1034821877760,242,0, 
0.7967,-57.3,66.0,-408.3,51.9,-5246.7,-608.1,-27.6,2690.4,46831.2,142.5,586.5,645.6,-444.9,3922.5,8404.5,2637.9,-6.9,-6.0,1730.4,1774.5,-0.6,239.4,-2724.3,-556.8,0,1434,1034821877760,243,0, 
0.8000,-43.2,70.5,-392.7,74.4,-8672.4,-737.4,0.3,-9830.1,-56760.6,185.1,-9756.0,-9817.8,-768.6,-9827.4,-9830.1,-9830.1,-6.9,-6.3,-9830.1,-9830.1,-0.9,281.1,-6404.7,-578.7,0,1440,1034821877760,244,0, 
0.8033,-112.5,61.2,-432.0,-2.1,4.5,-567.0,-69.0,-8919.3,-41199.6,54.6,-5977.8,-6946.8,-471.3,-8149.8,-5910.6,-8912.1,-7.2,-6.3,-8133.0,-8355.6,-0.9,146.1,-2104.8,-538.2,0,1446,1034821877760,245,0, 
0.8067,-162.9,60.3,-465.6,-68.7,9000.0,-313.5,-139.2,6343.5,72914.4,-68.1,5328.9,6028.5,53.4,7381.2,9830.1,6330.9,-6.9,-6.0,6468.9,6446.7,-0.6,22.2,4294.2,-477.9,0,1452,1034821877760,246,0, 
0.8100,-123.9,72.3,-449.1,-33.0,6043.8,-331.2,-117.3,9830.1,126711.0,-14.1,9830.1,9817.5,75.9,9827.1,9552.9,9830.1,-7.5,-6.0,9830.1,9830.1,-1.2,74.7,4078.2,-490.8,0,1458,1034821877760,247,0, 
0.8133,-55.5,70.8,-409.2,53.4,-5227.5,-610.5,-30.9,2703.9,47201.7,138.6,702.0,746.4,-449.1,4020.3,8544.6,2611.2,-6.9,-6.0,1712.7,1741.5,-0.9,234.3,-2765.7,-557.7,0,1464,1034821877760,248,0, 
0.8167,-47.4,66.6,-399.6,69.0,-8680.5,-742.2,-10.8,-9830.1,-56316.0,181.5,-9770.1,-9817.8,-779.4,-9827.4,-9749.1,-9830.1,-6.9,-6.0,-9830.1,-9830.1,-0.9,276.6,-6427.8,-587.1,0,1470,1034821877760,249,0, 
0.8200,-116.7,53.4,-438.0,-7.5,-11.4,-563.7,-84.3,-8984.4,-40829.1,43.2,-5942.1,-6871.2,-482.1,-8164.5,-5888.4,-8938.2,-6.6,-6.0,-8141.4,-8406.0,-0.9,144.3,-2099.1,-541.8,0,1476,1034821877760,250,0, 
0.8233,-165.6,58.2,-466.5,-73.2,8949.0,-318.6,-152.1,6220.5,72840.3,-70.2,5225.1,6015.0,39.0,7371.6,9830.1,6285.0,-6.6,-6.0,6478.5,6317.7,-0.3,24.3,4300.5,-481.5,0,1482,1034821877760,251,0, 
0.8267,-127.2,73.5,-447.6,-33.3,6054.6,-335.7,-121.2,9830.1,127081.5,-12.0,9830.1,9817.5,80.4,9827.1,9511.8,9830.1,-7.2,-6.3,9830.1,9830.1,-0.9,81.3,4096.2,-480.0,0,1488,1034821877760,252,0, 
0.8300,-57.0,72.9,-414.3,48.3,-5268.0,-614.7,-38.7,2670.0,47646.3,146.1,657.0,825.0,-445.8,4054.5,8646.9,2563.5,-7.2,-6.3,1729.5,1721.7,-0.9,235.5,-2732.7,-552.3,0,1494,1034821877760,253,0, 
0.8333,-47.7,62.4,-407.4,68.1,-8748.0,-754.5,-15.0,-9830.1,-56167.8,184.2,-9776.7,-9817.8,-777.6,-9827.4,-9688.5,-9830.1,-6.9,-6.0,-9830.1,-9830.1,-0.6,282.3,-6457.5,-574.2,0,1500,1034821877760,254,0, 
0.8367,-117.6,54.6,-438.9,-4.2,-32.1,-573.9,-91.5,-8987.7,-40829.1,45.3,-6048.9,-6898.5,-477.0,-8136.3,-5863.8,-8960.7,-6.9,-5.7,-8221.5,-8415.6,-0.9,151.2,-2130.6,-529.5,0,1506,1034821877760,255,0, 
0.8400,-171.0,51.3,-461.7,-71.1,8959.8,-330.0,-156.9,6221.4,73359.0,-69.9,5274.9,5996.7,44.4,7435.8,9830.1,6261.6,-6.9,-6.3,6400.5,6393.3,-0.6,25.8,4266.0,-474.3,0,1512,1034821877760,0,0, 
0.8433,-131.4,65.1,-438.9,-29.1,6042.6,-339.3,-122.7,9830.1,127229.7,-16.5,9830.1,9817.5,75.6,9827.1,9481.8,9830.1,-7.2,-6.0,9830.1,9830.1,-1.2,78.6,4079.7,-469.8,0,1518,1034821877760,1,0, 
0.8467,-60.9,67.2,-402.3,55.5,-5189.7,-616.2,-40.8,2647.8,48535.5,141.6,700.8,810.0,-450.0,4094.1,8738.7,2580.6,-6.9,-6.6,1759.8,1804.8,-0.6,238.8,-2713.2,-533.1,0,1524,1034821877760,2,0, 
0.8500,-48.0,64.5,-391.5,70.5,-8726.4,-748.5,-15.9,-9830.1,-55500.9,188.1,-9776.1,-9817.8,-779.4,-9827.4,-9592.8,-9830.1,-6.6,-6.0,-9830.1,-9830.1,0.0,283.5,-6429.3,-569.1,0,1530,1034821877760,3,0, 
0.8533,-117.0,53.1,-427.8,-8.7,-70.5,-574.2,-82.8,-9018.0,-40384.5,59.4,-6109.2,-7014.6,-473.4,-8155.5,-5856.0,-8977.8,-6.9,-6.6,-8210.7,-8434.2,-0.3,148.8,-2127.0,-527.1,0,1536,1034821877760,4,0, 
0.8567,-167.1,56.7,-461.7,-72.9,8942.4,-321.0,-149.4,6158.4,73951.8,-67.8,5197.8,5938.2,48.9,7412.7,9830.1,6232.8,-6.6,-6.0,6391.5,6320.1,-0.9,19.5,4302.9,-467.4,0,1542,1034821877760,5,0, 
0.8600,-127.5,70.8,-438.9,-33.9,6052.8,-334.5,-115.8,9830.1,128118.9,-12.3,9830.1,9817.5,84.6,9827.1,9485.4,9830.1,-7.2,-6.3,9830.1,9830.1,-0.9,77.1,4089.6,-466.8,0,1548,1034821877760,6,0, 
0.8633,-56.7,69.9,-400.2,51.9,-5164.2,-602.4,-33.9,2622.0,48980.1,142.5,539.1,785.4,-440.1,4186.2,8694.3,2616.0,-6.9,-6.0,1808.4,1777.5,-0.6,235.8,-2742.9,-540.6,0,1554,1034821877760,7,0, 
0.8667,-48.6,62.1,-387.3,74.1,-8713.2,-741.3,-12.6,-9830.1,-55056.3,184.2,-9806.7,-9817.8,-776.1,-9827.4,-9635.1,-9830.1,-6.9,-6.3,-9830.1,-9830.1,-0.3,286.5,-6439.8,-570.3,0,1560,1034821877760,8,0, 
0.8700,-114.3,53.1,-416.4,4.2,-15.0,-556.8,-80.1,-9033.6,-39939.9,60.0,-6225.3,-7011.6,-476.7,-8110.2,-5870.4,-8983.2,-6.9,-6.0,-8197.5,-8452.2,-0.6,149.7,-2115.9,-522.6,0,1566,1034821877760,9,0, 
0.8733,-164.1,55.5,-445.8,-54.9,8963.1,-303.3,-145.2,6125.4,73877.7,-64.8,5160.0,5891.7,46.8,7480.5,9830.1,6212.4,-6.6,-6.0,6398.1,6290.1,-0.6,18.6,4264.8,-465.0,0,1572,1034821877760,10,0, 
0.8767,-121.2,70.5,-425.4,-14.7,6132.3,-313.2,-113.7,9830.1,128341.2,-6.3,9830.1,9817.5,88.5,9827.1,9451.2,9830.1,-7.2,-5.7,9830.1,9830.1,-0.9,81.9,4116.3,-470.1,0,1578,1034821877760,11,0, 
0.8800,-53.7,70.8,-386.7,72.0,-5208.6,-588.9,-30.9,2597.4,49498.8,148.2,628.8,803.1,-439.5,4229.1,8783.7,2595.6,-6.9,-5.7,1812.0,1698.9,-0.9,240.3,-2709.0,-539.7,0,1584,1034821877760,12,0, 
0.8833,-42.0,67.2,-384.9,91.8,-8744.7,-719.1,-6.6,-9830.1,-54982.2,189.6,-9830.1,-9817.8,-783.3,-9827.4,-9652.5,-9830.1,-6.6,-5.7,-9830.1,-9830.1,-0.3,279.6,-6423.0,-566.7,0,1590,1034821877760,13,0, 
0.8867,-115.2,54.3,-421.8,13.5,-32.4,-540.6,-73.8,-8997.0,-38976.6,57.0,-6327.9,-7131.6,-482.1,-8030.7,-5660.7,-8938.8,-6.9,-6.3,-8285.4,-8500.8,-0.6,144.3,-2098.8,-525.3,0,1596,1034821877760,14,0, 
0.8900,-162.9,55.5,-451.2,-51.9,8958.9,-293.1,-143.4,6204.3,75656.1,-73.5,4796.4,5577.6,39.3,7592.4,9830.1,6285.3,-6.9,-6.0,6194.1,6182.1,-0.9,18.9,4318.5,-466.8,0,1602,1034821877760,15,0, 
0.8933,-125.1,66.6,-430.5,-16.8,6056.4,-305.7,-113.4,9830.1,129600.9,-12.9,9830.1,9817.5,77.1,9827.1,9381.6,9830.1,-6.9,-6.3,9830.1,9830.1,-1.2,75.0,4072.5,-465.0,0,1608,1034821877760,16,0, 
0.8967,-56.1,67.8,-394.2,68.4,-5172.0,-581.7,-29.4,2604.6,50536.2,139.8,294.6,579.0,-445.5,4363.5,8995.8,2599.5,-7.2,-5.7,1634.1,1642.5,-0.9,237.6,-2726.7,-535.5,0,1614,1034821877760,17,0, 
0.9000,-44.1,62.4,-380.4,82.8,-8761.5,-716.7,-3.0,-9830.1,-53648.4,184.2,-9830.1,-9817.8,-780.9,-9827.4,-9469.8,-9830.1,-6.9,-6.3,-9830.1,-9830.1,-0.6,281.4,-6446.4,-572.7,0,1620,1034821877760,18,0, 
0.9033,-110.4,58.5,-418.2,8.7,-15.6,-541.8,-77.4,-9072.9,-38976.6,55.8,-6448.8,-7115.4,-485.1,-8055.0,-5632.2,-9010.8,-6.9,-6.3,-8304.6,-8511.0,-0.9,147.3,-2147.4,-531.3,0,1626,1034821877760,19,0, 
0.9067,-163.2,53.7,-442.5,-54.6,9019.5,-286.2,-145.8,6072.9,75730.2,-71.4,4887.6,5859.3,38.1,7570.5,9830.1,6172.2,-6.9,-6.3,6225.0,6210.9,-0.6,16.2,4271.1,-465.3,0,1632,1034821877760,20,0, 
0.9100,-123.6,61.8,-428.4,-20.1,6065.7,-306.9,-115.2,9830.1,129600.9,-21.9,9830.1,9817.5,76.2,9827.1,9330.0,9830.1,-6.9,-6.0,9830.1,9830.1,-0.9,73.5,4071.0,-475.2,0,1638,1034821877760,21,0, 
0.9133,-51.9,66.9,-384.6,67.8,-5214.9,-584.7,-32.4,2571.6,50684.4,139.5,396.9,846.0,-448.8,4430.7,9128.4,2587.2,-7.2,-5.4,1569.0,1687.2,-0.6,232.8,-2761.2,-547.8,0,1644,1034821877760,22,0, 
0.9167,-36.9,68.7,-372.3,88.8,-8726.4,-717.9,0.3,-9830.1,-53722.5,195.9,-9830.1,-9817.8,-772.5,-9827.4,-9406.5,-9830.1,-7.2,-5.7,-9830.1,-9830.1,-0.6,288.9,-6461.7,-564.9,0,1650,1034821877760,23,0, 
0.9200,-103.5,57.6,-407.7,13.2,-56.7,-542.1,-72.9,-9099.9,-38828.4,69.0,-6274.8,-7115.4,-472.8,-8055.9,-5474.4,-9034.8,-7.2,-6.0,-8323.2,-8519.7,-0.9,161.1,-2196.0,-510.6,0,1656,1034821877760,24,0, 
0.9233,-155.4,61.5,-443.4,-54.6,8973.9,-291.0,-140.1,6005.4,74766.9,-54.9,5029.2,5841.3,47.4,7568.4,9830.1,6123.9,-6.9,-5.7,6227.7,6221.4,-0.9,33.3,4213.2,-453.9,0,1662,1034821877760,25,0, 
0.9267,-122.1,67.5,-423.0,-18.9,6120.3,-307.8,-115.5,9830.1,129675.0,-6.6,9830.1,9817.5,86.7,9827.1,9295.2,9830.1,-7.5,-6.6,9830.1,9830.1,-0.6,83.1,4062.0,-463.5,0,1668,1034821877760,26,0, 
0.9300,-54.6,75.6,-388.5,68.7,-5147.7,-577.8,-34.5,2560.8,50832.6,155.7,457.8,770.1,-441.3,4454.4,9203.7,2561.1,-6.9,-5.7,1682.7,1804.5,-0.3,251.7,-2735.4,-538.5,0,1674,1034821877760,27,0, 
0.9333,-42.0,71.7,-372.9,87.9,-8730.0,-708.9,-7.8,-9830.1,-53500.2,201.9,-9830.1,-9817.8,-772.2,-9827.4,-9344.1,-9830.1,-7.2,-6.0,-9830.1,-9830.1,-0.3,297.9,-6468.3,-564.0,0,1680,1034821877760,28,0, 
0.9367,-112.8,63.9,-414.9,11.7,-20.1,-542.1,-76.8,-9060.9,-38383.8,68.1,-6177.6,-7124.7,-463.5,-7973.1,-5424.9,-9026.4,-6.9,-6.3,-8285.4,-8449.2,-1.5,167.4,-2171.7,-520.8,0,1686,1034821877760,29,0, 
0.9400,-159.6,64.8,-438.3,-48.9,8971.5,-283.2,-143.7,6106.5,75730.2,-54.0,5103.9,5817.0,47.4,7701.3,9830.1,6138.9,-6.6,-6.3,6308.7,6313.2,-0.6,40.5,4253.1,-459.0,0,1692,1034821877760,30,0, 
0.9433,-124.5,81.9,-415.5,-7.8,6118.5,-300.6,-113.7,9830.1,130045.5,10.2,9830.1,9817.5,87.0,9827.1,9267.6,9830.1,-7.5,-6.0,9830.1,9830.1,-0.6,96.6,4054.2,-464.1,0,1698,1034821877760,31,0, 
0.9467,-54.6,81.9,-378.0,82.2,-5137.2,-569.7,-29.7,2648.4,51499.5,156.6,529.8,694.2,-434.1,4597.5,9261.9,2580.9,-7.2,-5.7,1792.5,1841.7,-0.6,261.3,-2745.3,-530.1,0,1704,1034821877760,32,0, 
0.9500,-47.4,71.4,-373.2,97.2,-8703.6,-713.1,-5.4,-9830.1,-52833.3,201.0,-9804.0,-9817.8,-766.5,-9827.4,-9275.1,-9830.1,-6.9,-6.0,-9830.1,-9830.1,-0.6,303.0,-6472.5,-565.8,0,1710,1034821877760,33,0, 
0.9533,-114.3,57.3,-405.6,21.6,-72.9,-532.8,-71.7,-9083.1,-38161.5,69.0,-6252.9,-7193.7,-473.4,-7996.2,-5474.7,-9024.9,-6.9,-5.7,-8330.4,-8504.1,-0.6,168.9,-2166.9,-523.2,0,1716,1034821877760,34,0, 
0.9567,-168.3,57.3,-439.2,-42.3,8996.1,-286.5,-145.5,6057.3,76026.6,-61.2,5116.5,5763.6,50.1,7698.6,9830.1,6161.7,-6.9,-6.3,6207.6,6202.5,-1.2,40.5,4255.2,-472.2,0,1722,1034821877760,35,0, 
0.9600,-126.3,70.5,-415.2,0.0,6118.5,-301.5,-111.3,9830.1,130786.5,-2.7,9830.1,9817.5,91.8,9827.1,9257.7,9830.1,-6.6,-5.7,9830.1,9830.1,-0.9,98.4,4085.4,-467.7,0,1728,1034821877760,36,0, 
0.9633,-53.1,78.3,-372.3,91.5,-5147.1,-575.4,-27.0,2604.3,51647.7,154.2,568.5,570.9,-423.9,4695.6,9282.9,2620.5,-6.9,-5.7,1672.2,1679.4,-0.9,259.5,-2724.0,-539.1,0,1734,1034821877760,37,0, 
0.9667,-48.9,62.4,-371.1,99.3,-8687.1,-722.1,-9.3,-9830.1,-52314.6,198.6,-9806.7,-9817.8,-765.3,-9827.4,-9278.4,-9830.1,-6.9,-5.7,-9830.1,-9830.1,-0.9,292.8,-6438.0,-576.9,0,1740,1034821877760,38,0, 
0.9700,-114.3,58.5,-401.7,24.3,-62.1,-532.5,-77.7,-9108.0,-37716.9,65.7,-6279.3,-7258.8,-467.7,-7967.4,-5410.5,-9048.0,-6.9,-6.0,-8335.5,-8579.4,-0.6,159.6,-2184.9,-519.6,0,1746,1034821877760,39,0, 
0.9733,-160.8,57.0,-426.6,-38.4,8951.4,-283.2,-139.8,6014.1,75952.5,-64.5,4995.9,5727.0,44.4,7713.3,9830.1,6114.3,-7.2,-6.0,6214.5,6117.6,-0.9,35.1,4227.6,-462.9,0,1752,1034821877760,40,0, 
0.9767,-122.7,70.2,-407.4,3.0,6139.8,-291.0,-110.4,9830.1,130934.7,-4.2,9830.1,9817.5,84.9,9827.1,9228.6,9830.1,-7.2,-6.3,9830.1,9830.1,-0.6,92.7,4102.8,-468.6,0,1758,1034821877760,41,0, 
0.9800,-51.6,72.3,-370.5,92.7,-5148.6,-573.0,-27.6,2620.5,52240.5,151.5,471.3,756.3,-448.2,4681.8,9344.1,2616.9,-6.9,-5.4,1739.4,1698.6,-0.6,253.2,-2729.1,-537.0,0,1764,1034821877760,42,0, 
0.9833,-45.3,61.2,-369.3,106.5,-8721.3,-715.2,-5.1,-9830.1,-52166.4,189.3,-9830.1,-9817.8,-771.6,-9827.4,-9292.2,-9830.1,-7.2,-6.3,-9830.1,-9830.1,-0.9,291.9,-6465.0,-565.5,0,1770,1034821877760,43,0, 
0.9867,-118.5,48.6,-411.6,28.2,-51.9,-543.6,-77.4,-9074.4,-37272.3,65.4,-6296.4,-7140.9,-463.8,-7900.8,-5180.4,-9020.7,-6.6,-6.3,-8276.4,-8519.1,-0.9,170.4,-2169.9,-528.9,0,1776,1034821877760,44,0, 
0.9900,-168.9,47.7,-441.6,-40.5,8973.0,-296.7,-144.9,6051.3,76767.6,-67.8,4954.8,5785.5,57.3,7795.5,9830.1,6159.0,-6.9,-6.0,6272.4,6200.4,0.0,33.0,4245.6,-465.3,0,1782,1034821877760,45,0, 
0.9933,-132.9,61.8,-420.6,-4.2,6141.6,-308.1,-112.2,9830.1,131601.6,-14.4,9830.1,9817.5,86.7,9827.1,9180.3,9830.1,-6.9,-6.3,9830.1,9830.1,-0.9,84.9,4122.0,-468.0,0,1788,1034821877760,46,0, 
0.9967,-63.0,65.4,-384.6,81.9,-5123.1,-583.8,-35.1,2638.5,53129.7,141.9,557.4,745.2,-435.9,4836.9,9488.4,2674.8,-7.2,-6.3,1733.7,1812.9,-0.9,243.0,-2706.9,-543.3,0,1794,1034821877760,47,0, 
1.0000,-50.1,61.2,-370.5,104.1,-8691.0,-711.6,-1.8,-9830.1,-51425.4,191.4,-9814.2,-9817.8,-762.6,-9827.4,-9096.0,-9830.1,-6.6,-5.7,-9830.1,-9830.1,-0.6,294.0,-6444.3,-572.7,0,1800,1034821877760,48,0, 
1.0033,-122.1,49.2,-409.5,21.0,-44.1,-545.4,-77.7,-9104.4,-36901.8,60.0,-6391.8,-7227.3,-474.9,-7925.7,-5288.1,-9039.0,-6.9,-6.3,-8320.5,-8503.8,-0.6,151.8,-2187.3,-535.2,0,1806,1034821877760,49,0, 
1.0067,-177.3,44.7,-445.8,-49.8,8991.3,-298.5,-149.7,6033.6,77138.1,-66.3,4913.4,5785.5,49.2,7815.0,9830.1,6153.0,-6.9,-6.0,6271.8,6250.5,-0.9,18.9,4260.0,-473.4,0,1812,1034821877760,50,0, 
1.0100,-134.4,64.5,-427.8,-9.0,6135.6,-308.4,-123.6,9830.1,132120.3,-5.4,9830.1,9817.5,89.4,9827.1,9148.5,9830.1,-6.9,-6.3,9830.1,9830.1,-0.9,79.2,4118.7,-474.0,0,1818,1034821877760,51,0, 
1.0133,-56.7,67.5,-383.4,80.4,-5151.9,-566.4,-37.5,2658.0,53574.3,157.2,378.3,831.3,-436.8,4913.4,9549.3,2694.0,-7.5,-5.7,1810.5,1875.9,-0.6,241.8,-2688.0,-544.8,0,1824,1034821877760,52,0, 
1.0167,-45.6,66.3,-380.7,97.8,-8668.8,-704.4,-8.1,-9830.1,-50536.2,202.8,-9830.1,-9817.8,-768.6,-9827.4,-9096.6,-9830.1,-6.9,-6.0,-9830.1,-9830.1,-0.9,284.7,-6404.7,-573.6,0,1830,1034821877760,53,0, 
1.0200,-105.9,62.7,-415.5,27.0,-63.0,-525.0,-78.3,-9108.3,-36012.6,81.9,-6394.8,-7153.5,-466.8,-7872.3,-5136.6,-9035.1,-6.9,-6.0,-8316.3,-8496.0,-0.6,150.6,-2166.3,-527.4,0,1836,1034821877760,54,0, 
1.0233,-166.5,53.7,-454.2,-49.8,8937.9,-277.8,-150.0,6016.5,77879.1,-52.8,4944.6,5840.4,40.5,7879.5,9830.1,6151.2,-6.6,-5.7,6240.3,6266.7,-0.9,14.1,4281.0,-471.6,0,1842,1034821877760,55,0, 
1.0267,-132.3,60.3,-443.7,-20.7,6142.5,-298.2,-126.6,9830.1,133157.7,-4.8,9830.1,9817.5,79.2,9827.1,9095.1,9830.1,-7.2,-5.7,9830.1,9830.1,-0.6,64.5,4110.3,-478.2,0,1848,1034821877760,56,0, 
1.0300,-64.5,56.7,-412.8,65.1,-5147.4,-578.7,-41.7,2712.3,54685.8,141.6,545.1,909.0,-455.4,4996.8,9698.4,2749.8,-6.9,-5.7,1788.0,1953.9,-0.9,233.1,-2704.2,-546.3,0,1854,1034821877760,57,0, 
1.0333,-57.6,52.5,-410.4,79.5,-8708.4,-713.1,-19.2,-9830.1,-49795.2,173.1,-9830.1,-9817.8,-794.4,-9827.4,-8984.1,-9830.1,-6.9,-6.0,-9830.1,-9830.1,-0.9,281.1,-6459.6,-578.1,0,1860,1034821877760,58,0, 
1.0367,-124.5,46.8,-437.7,4.5,-70.5,-530.7,-88.2,-9061.2,-35049.3,30.9,-6282.3,-6988.5,-503.4,-7801.2,-4924.8,-8995.8,-7.2,-6.0,-8302.8,-8441.7,-0.9,156.6,-2148.6,-527.7,0,1866,1034821877760,59,0, 
1.0400,-174.9,40.8,-472.8,-60.3,8959.8,-282.9,-155.7,6132.0,78916.5,-93.9,4991.1,5931.6,12.9,7980.3,9830.1,6253.8,-6.9,-6.0,6281.4,6380.1,-0.9,28.8,4246.2,-468.9,0,1872,1034821877760,60,0, 
1.0433,-131.4,62.1,-444.6,-16.8,6147.9,-294.6,-120.9,9830.1,133676.4,-36.6,9830.1,9817.5,56.1,9827.1,9023.4,9830.1,-6.9,-6.0,9830.1,9830.1,-0.9,84.9,4141.2,-469.5,0,1878,1034821877760,61,0, 
1.0467,-63.9,59.4,-409.5,66.3,-5086.8,-572.7,-40.8,2776.2,55797.3,115.2,423.9,1002.0,-465.6,5186.1,9828.3,2850.0,-6.9,-6.3,1964.4,2189.7,-0.9,250.5,-2675.7,-538.2,0,1884,1034821877760,62,0, 
1.0500,-59.7,58.8,-400.2,87.3,-8735.4,-714.3,-19.2,-9830.1,-48683.7,166.5,-9830.1,-9817.8,-799.8,-9827.4,-8955.6,-9830.1,-7.2,-6.0,-9830.1,-9830.1,-0.6,292.2,-6440.4,-567.6,0,1890,1034821877760,63,0, 
1.0533,-122.4,49.2,-430.8,11.4,-94.5,-527.4,-83.4,-9109.8,-34604.7,40.8,-6585.6,-7124.4,-493.8,-7841.4,-4756.5,-9057.0,-6.6,-6.3,-8337.3,-8431.2,-0.9,164.1,-2166.3,-519.3,0,1896,1034821877760,64,0, 
1.0567,-169.5,54.9,-460.5,-55.5,9009.9,-277.5,-149.7,6129.3,79657.5,-75.0,4842.9,5913.0,37.5,8006.4,9830.1,6213.0,-6.9,-5.7,6342.6,6423.3,-0.6,33.3,4283.7,-463.8,0,1902,1034821877760,65,0, 
1.0600,-132.9,67.8,-436.2,-17.4,6346.2,-287.7,-118.5,9830.1,137307.3,-22.2,9830.1,9817.5,94.2,9827.1,8872.8,9830.1,-7.2,-5.7,9830.1,9830.1,-0.6,83.7,4302.6,-459.3,0,1908,1034821877760,66,0, 
1.0633,-68.1,64.8,-395.4,68.4,-5040.6,-564.3,-39.9,3206.1,59354.1,136.8,792.0,1370.4,-437.7,5556.3,9830.1,3215.7,-7.2,-6.0,2415.6,2501.1,-0.6,241.8,-2580.3,-533.4,0,1914,1034821877760,67,0, 
1.0667,-50.7,64.2,-378.9,90.6,-8797.2,-696.6,-6.6,-9830.1,-46090.2,196.5,-9749.4,-9817.8,-772.5,-9827.4,-8462.1,-9830.1,-7.2,-6.3,-9830.1,-9830.1,-0.3,291.6,-6414.9,-565.2,0,1920,1034821877760,68,0, 
1.0700,-118.5,53.1,-422.1,12.3,-74.4,-522.0,-79.8,-8989.2,-31788.9,57.6,-6331.2,-7024.2,-471.3,-7632.3,-4117.5,-8931.9,-6.6,-6.0,-8140.8,-8278.2,-0.3,153.3,-2126.4,-521.1,0,1926,1034821877760,69,0, 
1.0733,-165.9,56.4,-447.6,-50.1,9020.4,-269.4,-144.9,6293.1,82992.0,-71.4,5109.6,6061.2,54.9,8182.2,9830.1,6396.6,-6.9,-5.7,6495.9,6623.4,-0.6,23.7,4353.0,-459.6,0,1932,1034821877760,70,0, 
1.0767,-123.6,72.6,-425.4,-10.8,6072.0,-285.9,-115.2,9830.1,136788.6,-21.3,9830.1,9817.5,88.2,9827.1,8841.3,9830.1,-6.6,-6.0,9830.1,9830.1,-0.3,84.3,4100.7,-465.0,0,1938,1034821877760,71,0, 
1.0800,-54.3,78.3,-386.4,74.4,-5069.1,-560.1,-35.4,3071.4,58835.4,131.4,681.3,1256.7,-430.5,5439.0,9830.1,3106.2,-7.2,-5.7,2201.7,2371.2,-0.3,242.4,-2616.6,-536.4,0,1944,1034821877760,72,0, 
1.0833,-38.7,78.3,-370.8,102.3,-8643.9,-692.4,-6.0,-9830.1,-44385.9,180.3,-9703.5,-9817.8,-765.9,-9827.4,-8211.3,-9830.1,-6.9,-5.7,-9830.1,-9830.1,-0.9,285.3,-6365.4,-562.8,0,1950,1034821877760,73,0, 
1.0867,-105.9,66.6,-406.2,26.7,-223.5,-525.3,-77.1,-9106.8,-31863.0,49.8,-6512.1,-7187.4,-486.0,-7856.7,-4359.9,-9044.4,-6.6,-6.3,-8398.5,-8538.9,-0.6,153.3,-2233.8,-522.6,0,1956,1034821877760,74,0, 
1.0900,-164.4,61.5,-444.0,-46.5,8997.6,-270.3,-146.1,6050.4,82102.8,-80.7,4951.8,5944.8,41.1,7999.5,9830.1,6170.7,-6.9,-6.3,6261.6,6342.6,-0.6,18.9,4282.2,-462.3,0,1962,1034821877760,75,0, 
1.0933,-126.6,77.4,-426.6,-7.8,6270.6,-278.4,-116.7,9830.1,138567.0,-20.7,9830.1,9817.5,87.9,9827.1,8788.8,9830.1,-7.2,-6.0,9830.1,9830.1,-0.9,76.2,4217.4,-464.7,0,1968,1034821877760,76,0, 
1.0967,-53.4,78.3,-390.9,75.0,-5209.8,-552.6,-30.3,2749.2,59057.7,133.5,597.9,1176.6,-450.0,5085.9,9830.1,2767.2,-7.2,-5.7,1896.3,2126.1,-0.9,237.3,-2689.5,-533.4,0,1974,1034821877760,77,0, 
1.1000,-45.3,72.9,-381.3,90.0,-8686.2,-697.5,-5.4,-9830.1,-44904.6,173.7,-9830.1,-9817.8,-786.3,-9827.4,-8339.7,-9830.1,-6.9,-5.7,-9830.1,-9830.1,-0.9,283.2,-6402.9,-562.5,0,1980,1034821877760,78,0, 
1.1033,-108.9,67.2,-417.0,21.0,-99.6,-519.3,-72.0,-9082.2,-30084.6,51.0,-6355.5,-6951.0,-485.7,-7661.4,-3717.0,-9002.1,-6.9,-6.0,-8251.5,-8352.6,-0.6,151.8,-2118.0,-517.8,0,1986,1034821877760,79,0, 
1.1067,-159.6,61.2,-453.9,-45.9,8878.8,-276.0,-141.6,6111.0,82028.7,-78.9,4978.5,6018.6,33.0,8149.8,9830.1,6263.1,-6.6,-6.0,6321.9,6477.3,-0.9,20.7,4229.1,-461.4,0,1992,1034821877760,80,0, 
1.1100,-125.7,68.1,-433.5,-9.3,6192.6,-285.3,-118.8,9830.1,137826.0,-29.1,9830.1,9817.5,75.3,9827.1,8749.5,9830.1,-6.9,-6.0,9830.1,9830.1,-0.9,68.7,4196.1,-463.5,0,1998,1034821877760,81,0, 
1.1133,-59.1,70.5,-400.2,79.5,-5019.3,-557.1,-35.4,2870.1,60391.5,126.0,602.7,1218.9,-438.6,5431.2,9830.1,2930.4,-7.2,-5.7,1934.4,2228.1,-0.9,235.2,-2601.0,-534.0,0,2004,1034821877760,82,0, 
1.1167,-53.1,64.2,-388.2,105.6,-8859.6,-704.4,-10.2,-9830.1,-45793.8,168.6,-9830.1,-9817.8,-787.2,-9827.4,-8046.0,-9830.1,-6.9,-6.3,-9830.1,-9830.1,-1.2,279.0,-6477.3,-572.7,0,2010,1034821877760,83,0, 
1.1200,-124.5,55.2,-420.6,32.4,-124.8,-528.3,-77.4,-9135.9,-31492.5,30.9,-6359.1,-7008.3,-487.2,-7726.8,-3799.5,-9065.1,-7.2,-6.0,-8362.8,-8463.3,-0.6,133.2,-2138.4,-529.8,0,2016,1034821877760,84,0, 
1.1233,-173.7,57.9,-451.2,-35.4,8990.4,-272.1,-143.4,5998.2,83066.1,-90.9,5069.4,5977.2,34.8,8100.3,9830.1,6134.7,-6.9,-6.3,6218.1,6372.0,-0.9,3.9,4299.3,-464.7,0,2022,1034821877760,85,0, 
1.1267,-132.9,70.2,-432.6,5.7,6065.4,-286.5,-118.2,9830.1,137085.0,-34.8,9830.1,9817.5,72.9,9827.1,8765.4,9830.1,-6.9,-5.7,9830.1,9830.1,-0.6,58.8,4107.6,-472.2,0,2028,1034821877760,86,0, 
1.1300,-60.3,77.7,-390.0,93.0,-4988.7,-550.8,-34.2,2817.0,59576.4,120.3,627.3,1155.6,-435.9,5405.7,9830.1,2853.6,-6.9,-5.7,1927.2,2169.9,-0.9,221.4,-2623.5,-537.6,0,2034,1034821877760,87,0, 
1.1333,-47.7,71.1,-373.8,118.2,-8658.6,-690.0,-6.9,-9830.1,-43867.2,167.7,-9771.9,-9817.8,-771.0,-9827.4,-7997.4,-9830.1,-6.9,-6.0,-9830.1,-9830.1,-0.6,269.7,-6350.4,-562.2,0,2040,1034821877760,88,0, 
1.1367,-121.5,55.5,-411.6,32.7,-211.8,-525.0,-77.7,-9190.8,-31566.6,30.6,-6534.3,-7331.1,-495.3,-7899.6,-4254.0,-9132.0,-6.3,-5.4,-8543.4,-8629.5,-0.9,134.1,-2249.4,-527.1,0,2046,1034821877760,89,0, 
1.1400,-174.9,57.0,-442.2,-33.9,9007.5,-275.4,-148.8,5848.8,82176.9,-102.0,4894.2,5739.9,31.2,7954.5,9830.1,5974.5,-6.6,-6.0,6063.3,6155.4,-0.9,-0.3,4275.0,-473.1,0,2052,1034821877760,90,0, 
1.1433,-132.0,73.2,-419.1,6.0,6258.3,-275.4,-113.1,9830.1,138641.1,-45.9,9830.1,9817.5,81.0,9827.1,8737.5,9830.1,-7.2,-6.3,9830.1,9830.1,-0.9,55.5,4189.5,-473.1,0,2058,1034821877760,91,0, 
1.1467,-61.8,74.4,-378.9,92.4,-5167.5,-552.0,-35.1,2467.8,59131.8,116.4,501.0,939.3,-453.6,5088.3,9830.1,2526.9,-6.9,-5.7,1724.1,1892.1,-0.9,216.9,-2694.9,-542.4,0,2064,1034821877760,92,0, 
1.1500,-55.5,64.2,-371.4,105.0,-8647.8,-690.3,-9.9,-9830.1,-44682.3,156.9,-9830.1,-9817.8,-790.2,-9827.4,-8103.0,-9830.1,-6.9,-5.7,-9830.1,-9830.1,-0.3,257.7,-6414.9,-573.0,0,2070,1034821877760,93,0, 
1.1533,-126.9,48.6,-414.3,22.8,-119.4,-518.7,-85.8,-9170.1,-30232.8,19.2,-6477.6,-7177.2,-504.6,-7661.7,-3852.6,-9092.7,-6.9,-6.0,-8365.5,-8484.0,-0.3,124.8,-2184.0,-534.0,0,2076,1034821877760,94,0, 
1.1567,-179.1,49.8,-448.8,-50.1,8866.5,-271.2,-153.6,5963.7,81658.2,-105.6,4809.9,5838.6,10.8,8177.1,9830.1,6120.6,-6.9,-5.7,6184.5,6287.7,-0.9,-3.3,4176.0,-473.4,0,2082,1034821877760,95,0, 
1.1600,-147.3,61.8,-434.1,-12.0,6227.4,-282.6,-127.5,9830.1,137826.0,-54.6,9830.1,9817.5,59.1,9827.1,8730.6,9830.1,-7.2,-5.7,9830.1,9830.1,-0.9,47.1,4145.1,-475.2,0,2088,1034821877760,96,0, 
1.1633,-75.6,62.1,-389.7,80.4,-4990.5,-556.8,-40.5,2763.9,60762.0,102.3,662.1,1175.4,-465.3,5540.1,9830.1,2880.0,-7.2,-6.3,1909.2,2100.3,-0.6,204.9,-2612.7,-551.4,0,2094,1034821877760,97,0, 
1.1667,-66.3,57.6,-380.7,99.6,-8812.2,-701.1,-12.6,-9830.1,-45126.9,152.4,-9820.8,-9817.8,-810.6,-9827.4,-7958.7,-9830.1,-7.2,-6.0,-9830.1,-9830.1,-0.9,252.0,-6478.8,-584.1,0,2100,1034821877760,98,0, 
1.1700,-126.3,54.3,-409.5,30.6,-105.0,-523.5,-78.9,-9165.0,-31122.0,24.9,-6375.3,-7029.9,-496.8,-7691.4,-3897.3,-9087.0,-6.9,-6.0,-8342.4,-8532.0,-0.6,125.7,-2191.2,-535.8,0,2106,1034821877760,99,0, 
1.1733,-178.8,53.7,-444.9,-34.8,8982.3,-281.1,-150.0,5937.0,83288.4,-96.6,5012.7,6019.2,28.5,8165.7,9830.1,6089.4,-7.2,-6.3,6273.3,6280.8,-0.9,-9.0,4272.0,-477.3,0,2112,1034821877760,100,0, 
1.1767,-137.1,71.4,-423.6,6.6,6056.1,-295.8,-116.7,9830.1,137529.6,-45.6,9830.1,9817.5,60.3,9827.1,8739.6,9830.1,-6.9,-6.3,9830.1,9830.1,-0.9,49.8,4067.1,-479.4,0,2118,1034821877760,101,0, 
1.1800,-74.1,72.3,-388.5,87.3,-4990.5,-567.6,-40.5,2833.8,60465.6,106.8,730.5,1154.1,-455.7,5613.6,9830.1,2911.5,-6.9,-6.0,2107.2,2142.3,-0.3,206.7,-2604.3,-553.8,0,2124,1034821877760,102,0, 
1.1833,-57.9,72.9,-376.2,112.8,-8664.3,-698.4,-8.4,-9830.1,-42978.0,159.9,-9753.9,-9817.8,-782.1,-9827.4,-7944.9,-9830.1,-7.2,-5.4,-9830.1,-9830.1,-0.6,258.9,-6411.3,-575.7,0,2130,1034821877760,103,0, 
1.1867,-125.4,63.3,-415.5,31.2,-261.6,-533.1,-78.3,-9118.8,-30677.4,29.1,-6530.7,-7343.7,-506.1,-7787.7,-4181.7,-9055.2,-6.6,-6.3,-8412.6,-8613.3,-0.9,125.7,-2266.5,-533.7,0,2136,1034821877760,104,0, 
1.1900,-178.5,59.4,-451.5,-34.2,9010.8,-277.5,-143.1,5963.1,83362.5,-104.1,5141.1,5883.9,27.9,8124.9,9830.1,6086.4,-7.2,-6.0,6228.9,6186.3,-0.9,-9.3,4258.2,-472.2,0,2142,1034821877760,105,0, 
1.1933,-147.0,66.9,-440.1,0.0,6257.1,-298.5,-116.7,9830.1,139900.8,-54.0,9830.1,9817.5,75.6,9827.1,8690.7,9830.1,-7.2,-6.3,9830.1,9830.1,-0.6,38.1,4203.9,-482.4,0,2148,1034821877760,106,0, 
1.1967,-75.3,63.0,-402.6,84.9,-5128.2,-578.4,-34.8,2495.7,60613.8,106.2,963.6,1047.9,-459.0,5347.8,9830.1,2591.4,-6.9,-5.7,1786.2,1886.4,-0.6,201.0,-2676.6,-557.1,0,2154,1034821877760,107,0, 
1.2000,-70.2,58.2,-391.8,99.9,-8652.3,-715.8,-10.5,-9830.1,-43274.4,142.8,-9755.1,-9817.8,-795.6,-9827.4,-8009.7,-9830.1,-7.5,-6.3,-9830.1,-9830.1,-0.6,242.7,-6376.5,-590.1,0,2160,1034821877760,108,0, 
1.2033,-132.6,51.6,-427.2,28.5,-109.8,-538.8,-80.7,-9165.6,-29047.2,18.0,-6180.3,-7231.8,-501.6,-7583.4,-3603.9,-9092.4,-6.9,-6.0,-8375.7,-8552.4,-0.9,108.3,-2197.5,-547.8,0,2166,1034821877760,109,0, 
1.2067,-185.4,50.7,-456.9,-39.0,8875.2,-288.6,-153.9,6014.4,82992.0,-105.0,4995.9,5646.9,12.9,8286.0,9830.1,6148.2,-7.2,-6.3,6226.5,6172.2,-0.9,-17.1,4197.9,-488.1,0,2172,1034821877760,110,0, 
1.2100,-147.3,74.7,-423.6,4.2,6306.6,-291.3,-124.2,9830.1,139604.4,-53.4,9830.1,9817.5,64.8,9827.1,8647.2,9830.1,-7.2,-5.7,9830.1,9830.1,-0.9,35.7,4193.1,-483.6,0,2178,1034821877760,111,0, 
1.2133,-75.3,76.8,-381.9,91.2,-4981.5,-561.3,-41.7,2963.1,62836.8,109.5,1136.4,1191.9,-450.6,5772.9,9830.1,3017.4,-6.9,-6.0,2200.8,2103.3,-0.9,198.3,-2583.0,-549.0,0,2184,1034821877760,112,0, 
1.2167,-63.3,73.8,-369.0,114.0,-8805.0,-710.4,-15.3,-9830.1,-43274.4,149.4,-9625.8,-9817.8,-795.9,-9827.4,-7731.9,-9830.1,-7.2,-6.0,-9830.1,-9830.1,-0.6,240.9,-6486.9,-586.2,0,2190,1034821877760,113,0, 
1.2200,-131.4,66.9,-409.5,36.3,-59.1,-529.2,-81.3,-9122.7,-28973.1,25.2,-6034.5,-7157.1,-496.2,-7566.9,-3451.8,-9047.7,-6.9,-5.7,-8275.5,-8565.3,-0.9,108.6,-2168.4,-537.3,0,2196,1034821877760,114,0, 
1.2233,-178.5,65.4,-443.1,-39.0,9010.8,-280.8,-148.5,6062.1,85437.3,-98.4,5360.4,5809.5,24.6,8345.1,9830.1,6192.0,-6.6,-6.3,6361.5,6217.8,-0.9,-16.8,4297.8,-477.0,0,2202,1034821877760,115,0, 
1.2267,-136.2,82.2,-426.3,1.2,6142.8,-286.2,-117.3,9830.1,140197.2,-39.6,9830.1,9817.5,66.3,9827.1,8631.6,9830.1,-7.2,-6.3,9830.1,9830.1,-0.6,42.0,4129.8,-478.5,0,2208,1034821877760,116,0, 
1.2300,-72.6,81.9,-390.3,80.4,-4929.9,-564.0,-44.4,3053.7,63503.7,111.3,1032.3,913.5,-449.7,5877.9,9830.1,3053.7,-7.2,-6.3,2180.7,2093.4,-0.6,195.0,-2568.9,-556.5,0,2214,1034821877760,117,0, 
1.2333,-58.2,81.6,-375.9,103.8,-8670.0,-706.8,-16.8,-9830.1,-40384.5,158.4,-9643.2,-9817.8,-786.0,-9827.4,-7415.4,-9830.1,-6.6,-6.0,-9830.1,-9830.1,-0.6,242.4,-6394.5,-585.6,0,2220,1034821877760,118,0, 
1.2367,-126.0,70.5,-408.0,31.5,-256.2,-547.5,-85.2,-9114.3,-28824.9,33.0,-6358.5,-7584.9,-503.7,-7718.7,-3849.6,-9059.4,-6.6,-6.0,-8466.6,-8707.5,-0.9,109.2,-2287.5,-546.6,0,2226,1034821877760,119,0, 
1.2400,-177.9,69.6,-439.2,-30.3,9041.1,-287.7,-154.2,5983.5,85363.2,-106.5,5235.6,5576.7,26.7,8272.2,9830.1,6090.3,-6.6,-6.0,6193.8,6026.4,-1.2,-21.6,4286.7,-485.4,0,2232,1034821877760,120,0, 
1.2433,-141.0,86.7,-415.8,9.6,6312.9,-297.9,-125.4,9830.1,142197.9,-48.6,9830.1,9817.5,74.1,9827.1,8522.1,9830.1,-7.2,-6.3,9830.1,9830.1,-0.9,33.9,4225.5,-485.1,0,2238,1034821877760,121,0, 
1.2467,-69.0,86.7,-378.6,92.1,-5093.7,-567.9,-38.4,2625.9,63207.3,116.7,870.9,876.3,-456.3,5741.7,9830.1,2646.0,-7.2,-6.3,1902.3,1806.3,-0.9,201.6,-2645.4,-552.6,0,2244,1034821877760,122,0, 
1.2500,-65.7,78.0,-378.0,102.0,-8658.3,-705.9,-16.2,-9830.1,-40532.7,147.6,-9762.0,-9817.8,-797.1,-9827.4,-7421.1,-9830.1,-6.9,-6.0,-9830.1,-9830.1,-0.6,237.3,-6396.0,-589.2,0,2250,1034821877760,123,0, 
1.2533,-130.2,65.4,-421.8,20.4,-132.9,-538.5,-86.4,-9150.6,-26676.0,18.3,-6366.6,-7346.7,-504.3,-7521.0,-2905.2,-9084.6,-6.3,-6.0,-8316.0,-8590.5,-0.6,104.7,-2200.5,-546.9,0,2256,1034821877760,124,0, 
1.2567,-176.1,70.5,-446.4,-43.8,8852.7,-278.7,-149.4,6096.3,85140.9,-99.9,4944.3,5675.4,20.4,8418.0,9830.1,6191.4,-6.6,-6.3,6322.5,6209.7,-0.9,-11.7,4196.1,-480.0,0,2262,1034821877760,125,0, 
1.2600,-147.3,74.7,-432.3,-7.8,6337.2,-292.8,-125.1,9830.1,142272.0,-60.0,9830.1,9817.5,68.1,9827.1,8513.1,9830.1,-7.2,-6.3,9830.1,9830.1,-1.2,28.5,4245.3,-488.4,0,2268,1034821877760,126,0, 
1.2633,-78.0,78.9,-390.3,82.2,-4990.8,-565.2,-44.4,3158.1,65652.6,97.5,1011.3,1326.6,-449.7,6010.5,9830.1,3156.0,-7.2,-6.0,2236.2,2202.3,-0.9,185.7,-2546.7,-559.2,0,2274,1034821877760,127,0, 
1.2667,-66.3,77.1,-376.2,104.7,-8811.3,-710.4,-19.5,-9830.1,-40310.4,141.0,-9719.7,-9817.8,-803.7,-9827.4,-7137.0,-9830.1,-7.2,-6.0,-9830.1,-9830.1,-0.9,225.9,-6467.1,-593.7,0,2280,1034821877760,128,0, 
1.2700,-134.1,64.8,-410.7,29.1,-119.7,-537.6,-87.3,-9123.6,-26231.4,18.0,-6316.8,-7196.1,-497.4,-7505.4,-2715.6,-9046.2,-6.6,-6.3,-8296.8,-8573.1,-0.6,100.5,-2192.4,-553.5,0,2286,1034821877760,129,0, 
1.2733,-187.8,63.0,-439.5,-35.7,8996.4,-294.9,-158.4,6061.2,87512.1,-117.0,5134.2,5855.1,21.9,8445.3,9830.1,6192.3,-6.9,-5.7,6367.8,6183.0,-0.3,-30.3,4307.1,-494.1,0,2292,1034821877760,130,0, 
1.2767,-153.0,71.7,-424.8,-1.5,6110.4,-312.9,-131.7,9830.1,142346.1,-57.9,9830.1,9817.5,60.3,9827.1,8504.4,9830.1,-6.9,-6.3,9830.1,9830.1,-1.2,23.7,4136.1,-497.7,0,2298,1034821877760,131,0, 
1.2800,-76.5,77.7,-393.9,83.4,-4882.8,-573.9,-45.6,3127.2,66171.3,97.8,933.6,1391.1,-440.7,6134.4,9830.1,3144.0,-6.9,-6.0,2368.8,2141.1,-0.9,187.5,-2542.2,-561.0,0,2304,1034821877760,132,0, 
1.2833,-63.6,79.8,-382.5,106.8,-8654.4,-715.5,-18.9,-9830.1,-37642.8,148.5,-9714.6,-9817.8,-773.4,-9827.4,-6806.7,-9830.1,-7.2,-5.7,-9830.1,-9830.1,-0.6,239.4,-6374.4,-587.7,0,2310,1034821877760,133,0, 
1.2867,-124.2,75.3,-411.3,36.6,-256.5,-537.6,-85.5,-9083.4,-25786.8,27.0,-6505.2,-7340.1,-488.7,-7517.4,-3122.4,-9021.6,-6.6,-5.7,-8342.7,-8641.5,-0.9,112.5,-2262.9,-542.7,0,2316,1034821877760,134,0, 
1.2900,-176.4,70.2,-445.8,-31.8,9029.1,-281.7,-153.9,6071.1,88401.3,-105.3,5201.4,5917.5,36.9,8461.8,9830.1,6195.6,-7.2,-6.0,6347.4,6142.5,-0.6,-15.3,4294.5,-481.8,0,2322,1034821877760,135,0, 
1.2933,-138.0,90.6,-422.1,6.3,6306.9,-294.0,-123.6,9830.1,145161.9,-51.6,9830.1,9817.5,89.7,9827.1,8381.7,9830.1,-7.2,-6.0,9830.1,9830.1,-0.9,42.9,4247.1,-483.6,0,2328,1034821877760,136,0, 
1.2967,-67.2,87.6,-385.2,92.7,-5094.6,-580.2,-43.2,2771.4,66541.8,111.3,886.5,1225.2,-443.7,5915.7,9830.1,2849.1,-7.2,-5.7,2064.6,1887.0,-0.3,203.7,-2619.9,-560.7,0,2334,1034821877760,137,0, 
1.3000,-61.2,80.7,-375.9,110.1,-8637.3,-715.2,-15.9,-9830.1,-36901.8,153.3,-9780.3,-9817.8,-773.7,-9827.4,-6738.9,-9830.1,-7.2,-6.3,-9830.1,-9830.1,-0.6,246.6,-6350.4,-594.0,0,2340,1034821877760,138,0, 
1.3033,-124.5,71.1,-410.7,32.4,-173.1,-538.5,-85.8,-9108.9,-23045.1,27.6,-6280.2,-7167.0,-481.8,-7350.9,-2098.5,-9017.4,-6.9,-6.0,-8213.7,-8610.3,-0.9,117.9,-2173.5,-549.9,0,2346,1034821877760,139,0, 
1.3067,-179.1,70.8,-442.2,-33.3,8871.3,-284.1,-155.7,6173.7,88920.0,-96.0,5071.5,5840.4,36.3,8629.8,9830.1,6335.7,-6.9,-6.3,6500.4,6162.6,-1.2,-5.1,4230.0,-488.1,0,2352,1034821877760,140,0, 
1.3100,-133.8,93.0,-413.7,10.2,6331.8,-275.4,-123.9,9830.1,146051.1,-33.9,9830.1,9817.5,93.3,9827.1,8382.0,9830.1,-6.9,-6.0,9830.1,9830.1,-0.9,57.9,4285.2,-477.3,0,2358,1034821877760,141,0, 
1.3133,-57.6,97.8,-377.7,101.1,-4953.9,-548.7,-40.5,3282.0,69505.8,127.2,1103.7,1493.1,-422.1,6355.5,9830.1,3321.6,-6.9,-6.0,2582.1,2276.4,-1.2,219.6,-2520.9,-546.3,0,2364,1034821877760,142,0, 
1.3167,-54.3,87.0,-374.1,117.9,-8794.5,-700.8,-21.0,-9830.1,-36679.5,167.1,-9790.8,-9817.8,-784.8,-9827.4,-6530.7,-9830.1,-6.6,-5.7,-9830.1,-9830.1,-0.6,261.0,-6450.3,-584.7,0,2370,1034821877760,143,0, 
1.3200,-119.4,81.3,-407.1,47.1,-38.7,-519.9,-83.1,-9047.4,-22155.9,42.0,-6378.6,-7170.9,-482.1,-7306.5,-1809.3,-8975.1,-6.9,-6.3,-8100.6,-8530.8,-0.6,133.8,-2134.2,-522.0,0,2376,1034821877760,144,0, 
1.3233,-173.7,74.7,-435.9,-20.4,9008.1,-272.4,-154.5,6218.7,91513.5,-81.3,5224.5,5931.0,44.7,8658.0,9830.1,6358.2,-7.5,-6.0,6622.2,6302.4,-0.9,13.8,4328.1,-466.2,0,2382,1034821877760,145,0, 
1.3267,-133.8,90.3,-409.2,22.8,6205.8,-284.4,-124.8,9830.1,146718.0,-24.0,9830.1,9817.5,88.2,9827.1,8375.7,9830.1,-6.9,-6.3,9830.1,9830.1,-0.6,75.9,4180.8,-463.5,0,2388,1034821877760,146,0, 
1.3300,-61.8,93.9,-365.4,108.3,-4900.2,-552.6,-43.5,3243.6,70172.7,138.6,1083.6,1338.0,-424.5,6378.0,9830.1,3338.1,-7.2,-5.7,2474.4,2294.4,-0.6,236.4,-2523.6,-533.1,0,2394,1034821877760,147,0, 
1.3333,-58.5,84.6,-357.0,122.1,-8650.2,-693.3,-20.1,-9830.1,-33789.6,181.5,-9642.6,-9817.8,-775.2,-9827.4,-5991.0,-9830.1,-6.9,-6.0,-9830.1,-9830.1,-0.6,279.0,-6357.6,-569.4,0,2400,1034821877760,148,0, 
1.3367,-118.5,83.4,-385.5,50.7,-224.1,-513.3,-75.9,-9006.6,-21711.3,67.5,-6525.9,-7480.5,-474.9,-7371.9,-1863.3,-8924.7,-6.6,-6.0,-8235.6,-8579.7,-0.6,166.2,-2232.9,-520.2,0,2406,1034821877760,149,0, 
1.3400,-169.5,83.7,-424.2,-15.6,9129.0,-261.6,-149.4,6208.2,93069.6,-62.1,5317.2,5939.1,57.0,8669.7,9830.1,6359.1,-6.9,-6.0,6517.2,6247.2,-1.2,38.7,4383.9,-453.9,0,2412,1034821877760,150,0, 
1.3433,-129.9,98.1,-407.7,19.5,6255.6,-273.9,-120.3,9830.1,149459.7,-1.2,9830.1,9817.5,99.9,9827.1,8268.6,9830.1,-6.6,-6.3,9830.1,9830.1,-0.6,84.9,4263.6,-461.1,0,2418,1034821877760,151,0, 
1.3467,-56.7,96.6,-371.1,99.3,-5093.1,-554.1,-31.2,2917.8,70395.0,151.2,885.0,1162.5,-426.9,6283.8,9830.1,3009.9,-7.5,-5.7,2124.0,1971.0,-0.9,246.6,-2604.9,-533.7,0,2424,1034821877760,152,0, 
1.3500,-48.9,90.3,-371.1,112.8,-8616.0,-690.9,-1.2,-9830.1,-33122.7,193.2,-9798.9,-9817.8,-758.7,-9827.4,-5684.1,-9830.1,-6.9,-6.3,-9830.1,-9830.1,-1.2,290.4,-6326.7,-570.3,0,2430,1034821877760,153,0, 
1.3533,-120.0,73.8,-420.0,24.9,-51.3,-525.0,-78.3,-8942.4,-18525.0,56.1,-6218.7,-7059.9,-468.6,-7106.1,-689.4,-8858.7,-6.9,-5.7,-8027.1,-8503.8,-0.9,148.8,-2115.6,-531.0,0,2436,1034821877760,154,0, 
1.3567,-174.9,70.8,-461.1,-50.4,9006.3,-280.8,-147.0,6392.1,94551.6,-71.7,5245.2,5850.0,44.1,8797.8,9830.1,6537.9,-6.9,-6.0,6677.1,6268.8,-0.6,18.6,4338.6,-473.1,0,2442,1034821877760,155,0, 
1.3600,-134.7,90.6,-438.6,-8.4,6295.5,-278.1,-115.5,9830.1,151682.7,-9.9,9830.1,9817.5,103.2,9827.1,8292.3,9830.1,-6.9,-6.0,9830.1,9830.1,-0.6,77.1,4339.8,-462.9,0,2448,1034821877760,156,0, 
1.3633,-64.8,91.5,-402.9,77.7,-5242.2,-562.5,-31.8,3132.3,71728.8,150.9,806.1,1126.5,-435.0,6264.3,9830.1,3169.8,-6.6,-6.0,2182.5,2016.6,-0.9,242.4,-2673.6,-543.6,0,2454,1034821877760,157,0, 
1.3667,-46.2,93.6,-383.4,104.1,-8955.3,-704.1,-3.6,-9830.1,-35864.4,196.8,-9830.1,-9817.8,-773.7,-9827.4,-6213.9,-9830.1,-7.2,-5.7,-9830.1,-9830.1,-0.9,291.3,-6552.6,-573.9,0,2460,1034821877760,158,0, 
1.3700,-121.8,76.8,-429.3,18.3,184.8,-521.1,-77.7,-8825.1,-18302.7,58.8,-6253.5,-7090.8,-460.8,-6934.8,-379.5,-8779.2,-6.6,-6.0,-7896.9,-8421.3,-0.9,151.5,-2011.5,-530.1,0,2466,1034821877760,159,0, 
1.3733,-173.4,78.6,-451.2,-49.8,9269.4,-258.6,-150.0,6553.8,99368.1,-67.5,5721.3,6150.9,87.0,8918.4,9830.1,6621.9,-6.3,-5.7,6933.6,6457.2,-0.9,21.3,4585.8,-468.3,0,2472,1034821877760,160,0, 
1.3767,-128.4,95.7,-427.8,-3.6,6282.6,-270.6,-114.3,9830.1,154202.1,-7.8,9830.1,9817.5,115.5,9827.1,8368.8,9830.1,-6.9,-6.0,9830.1,9830.1,-0.9,85.2,4322.7,-465.3,0,2478,1034821877760,161,0, 
1.3800,-58.5,95.4,-396.0,76.8,-5283.9,-552.6,-34.5,3095.1,73062.6,153.9,744.0,1002.6,-424.8,6279.6,9830.1,3087.0,-7.2,-6.0,2099.7,1927.8,-0.9,249.3,-2697.6,-543.9,0,2484,1034821877760,162,0, 
1.3833,-49.8,84.0,-396.6,92.7,-8977.5,-693.6,-12.3,-9830.1,-34382.4,196.5,-9830.1,-9817.8,-776.4,-9827.4,-5552.4,-9830.1,-6.9,-6.3,-9830.1,-9830.1,-0.6,291.6,-6567.6,-573.9,0,2490,1034821877760,163,0, 
1.3867,-119.7,79.2,-433.5,15.3,-8.7,-507.0,-84.3,-8829.9,-18599.1,58.8,-6333.9,-7287.6,-462.3,-6913.5,-725.1,-8758.5,-6.6,-5.7,-7967.7,-8427.6,-0.9,150.6,-2116.2,-523.8,0,2496,1034821877760,164,0, 
1.3900,-175.2,76.2,-469.5,-57.9,9362.7,-257.1,-157.2,6451.2,100257.3,-82.5,5749.5,6181.2,86.1,8941.2,9830.1,6587.4,-6.9,-6.0,6896.1,6443.1,-0.9,17.1,4649.7,-467.1,0,2502,1034821877760,165,0, 
1.3933,-135.9,90.9,-449.7,-17.1,6343.5,-278.1,-123.3,9830.1,155313.6,-31.5,9830.1,9817.5,116.7,9827.1,8262.6,9830.1,-6.9,-6.3,9830.1,9830.1,-0.9,63.9,4377.0,-479.4,0,2508,1034821877760,166,0, 
1.3967,-63.6,85.8,-411.6,76.5,-5536.2,-573.3,-35.7,2651.1,71432.4,138.3,1036.8,1154.1,-440.7,6138.9,9830.1,2692.5,-6.6,-5.7,1888.8,1765.2,-0.6,233.7,-2867.4,-552.9,0,2514,1034821877760,167,0, 
1.4000,-57.3,80.7,-397.2,89.1,-8900.1,-714.0,-10.2,-9830.1,-34752.9,180.0,-9830.1,-9817.8,-772.5,-9827.4,-5477.1,-9830.1,-7.2,-6.0,-9830.1,-9830.1,-0.6,270.3,-6529.8,-584.1,0,2520,1034821877760,168,0, 
1.4033,-123.9,68.4,-443.4,5.7,17.7,-533.7,-75.6,-8879.1,-18006.3,50.7,-5969.1,-6993.3,-462.0,-6871.8,37.8,-8816.7,-6.9,-6.3,-7886.7,-8433.6,-0.9,142.8,-2083.8,-533.1,0,2526,1034821877760,169,0, 
1.4067,-174.6,64.8,-477.6,-70.2,9217.8,-278.1,-141.3,6498.6,99219.9,-74.1,5745.3,6173.1,75.3,8981.7,9830.1,6600.0,-6.9,-5.7,6933.6,6435.9,-0.9,13.8,4557.0,-471.0,0,2532,1034821877760,170,0, 
1.4100,-135.0,77.7,-450.6,-29.1,6375.6,-293.1,-107.7,9830.1,156128.7,-15.9,9830.1,9817.5,113.1,9827.1,8298.9,9830.1,-7.2,-6.0,9830.1,9830.1,-1.2,81.0,4393.8,-472.2,0,2538,1034821877760,171,0, 
1.4133,-56.7,81.0,-407.4,60.0,-5441.1,-577.5,-22.2,2983.8,73507.2,149.4,810.3,1009.8,-432.3,6336.6,9830.1,3019.2,-7.5,-6.0,2016.0,1990.2,-0.9,245.4,-2756.7,-547.2,0,2544,1034821877760,172,0, 
1.4167,-49.5,75.0,-401.7,77.1,-9126.9,-728.4,0.6,-9830.1,-35864.4,194.4,-9830.1,-9817.8,-786.3,-9827.4,-5868.3,-9830.1,-6.6,-6.0,-9830.1,-9830.1,-0.6,290.7,-6670.2,-584.4,0,2550,1034821877760,173,0, 
1.4200,-124.8,58.2,-436.5,-1.5,163.5,-539.4,-78.0,-8894.4,-17858.1,47.4,-6254.1,-7200.3,-473.4,-6942.3,39.0,-8832.6,-6.9,-6.0,-8025.0,-8438.1,-0.6,144.9,-2057.1,-537.9,0,2556,1034821877760,174,0, 
1.4233,-173.4,55.5,-470.1,-67.2,9286.2,-276.9,-144.9,6386.1,100479.6,-81.0,5716.8,6092.7,63.6,8919.9,9830.1,6488.1,-6.9,-6.3,6793.5,6409.5,-0.6,11.4,4558.8,-471.3,0,2562,1034821877760,175,0, 
1.4267,-136.2,66.0,-454.2,-30.3,6204.0,-301.8,-111.9,9830.1,155017.2,-17.1,9830.1,9817.5,96.0,9827.1,8396.7,9830.1,-7.5,-6.0,9830.1,9830.1,-0.6,73.2,4282.8,-477.0,0,2568,1034821877760,176,0, 
1.4300,-66.6,63.6,-421.5,52.5,-5403.6,-591.9,-28.2,2748.9,72914.4,138.9,688.8,846.3,-450.0,6186.3,9830.1,2800.8,-6.9,-5.7,1775.7,1785.9,-0.9,241.2,-2748.3,-552.6,0,2574,1034821877760,177,0, 
1.4333,-62.1,54.9,-412.5,67.2,-9084.6,-733.5,-6.3,-9830.1,-34975.2,183.6,-9830.1,-9817.8,-794.1,-9827.4,-5473.2,-9830.1,-6.9,-5.7,-9830.1,-9830.1,-0.9,278.7,-6634.8,-594.6,0,2580,1034821877760,178,0, 
1.4367,-126.9,48.0,-445.2,-6.9,-78.9,-545.7,-74.7,-8974.2,-19932.9,45.9,-6452.4,-7455.3,-480.0,-7093.2,-893.4,-8920.5,-6.9,-5.7,-8125.5,-8528.4,-0.9,144.6,-2205.0,-549.9,0,2586,1034821877760,179,0, 
1.4400,-176.4,53.4,-464.4,-66.0,9381.9,-274.5,-138.6,6198.9,100035.0,-89.1,5667.6,5985.6,75.3,8826.0,9830.1,6305.7,-7.2,-6.3,6637.2,6262.2,-0.9,10.8,4588.5,-479.4,0,2592,1034821877760,180,0, 
1.4433,-134.4,68.1,-445.5,-19.5,6283.2,-299.1,-104.4,9830.1,155461.8,-28.5,9830.1,9817.5,105.6,9827.1,8253.6,9830.1,-6.6,-6.0,9830.1,9830.1,-0.9,73.5,4301.4,-482.7,0,2598,1034821877760,181,0, 
1.4467,-61.5,69.0,-417.6,64.8,-5528.4,-593.7,-17.4,2403.0,71654.7,141.9,330.0,549.6,-452.1,6117.6,9830.1,2438.1,-6.9,-6.3,1320.3,1408.5,-0.9,238.8,-2848.5,-558.9,0,2604,1034821877760,182,0, 
1.4500,-53.1,66.9,-415.5,70.2,-8976.3,-730.5,3.0,-9830.1,-35049.3,177.0,-9830.1,-9817.8,-791.7,-9827.4,-5682.0,-9830.1,-6.9,-6.3,-9830.1,-9830.1,-0.6,274.5,-6580.2,-586.8,0,2610,1034821877760,183,0, 
1.4533,-127.2,56.1,-454.5,-11.7,2.4,-546.6,-70.2,-9026.1,-18376.8,44.4,-6495.3,-7369.8,-475.8,-6998.4,-148.5,-8971.5,-6.6,-6.3,-8151.3,-8583.6,-0.9,142.8,-2135.1,-542.1,0,2616,1034821877760,184,0, 
1.4567,-175.5,62.1,-487.5,-75.6,9188.7,-277.8,-141.9,6220.5,98775.3,-83.4,5291.4,5821.5,68.7,8881.2,9830.1,6302.7,-6.6,-6.0,6605.4,6191.7,-0.9,10.5,4500.6,-474.9,0,2622,1034821877760,185,0, 
1.4600,-134.1,77.1,-462.6,-30.3,6392.4,-287.1,-109.8,9830.1,156276.9,-24.6,9830.1,9817.5,112.8,9827.1,8299.5,9830.1,-6.6,-6.3,9830.1,9830.1,-0.9,70.8,4401.0,-475.5,0,2628,1034821877760,186,0, 
1.4633,-59.4,86.7,-415.5,67.5,-5402.1,-567.3,-25.8,2794.5,73581.3,147.0,535.2,788.1,-429.0,6303.9,9830.1,2787.3,-7.5,-6.0,1820.7,1830.9,-0.6,237.9,-2760.3,-544.8,0,2634,1034821877760,187,0, 
1.4667,-45.9,81.6,-398.1,90.0,-9076.2,-708.9,0.9,-9830.1,-35197.5,191.7,-9830.1,-9817.8,-766.8,-9827.4,-6026.4,-9830.1,-6.6,-6.0,-9830.1,-9830.1,-0.3,284.7,-6640.5,-578.1,0,2640,1034821877760,188,0, 
1.4700,-123.3,63.3,-445.5,1.2,131.4,-523.2,-75.6,-8976.0,-17413.5,45.3,-6372.6,-7278.3,-451.2,-6920.1,-111.3,-8922.6,-6.9,-6.0,-8064.9,-8505.9,-1.2,140.7,-2081.4,-537.6,0,2646,1034821877760,189,0, 
1.4733,-181.5,57.9,-490.8,-75.6,9250.2,-263.7,-150.6,6259.2,100776.0,-87.3,5620.5,6056.4,86.1,8935.8,9830.1,6367.2,-6.6,-6.0,6741.9,6342.3,-0.6,6.6,4555.8,-486.3,0,2652,1034821877760,190,0, 
1.4767,-144.9,67.8,-468.9,-38.4,6212.4,-284.4,-120.0,9830.1,155461.8,-32.1,9830.1,9817.5,104.4,9827.1,8350.8,9830.1,-7.2,-5.7,9830.1,9830.1,-0.6,62.7,4234.8,-490.5,0,2658,1034821877760,191,0, 
1.4800,-73.5,74.7,-434.1,51.6,-5328.9,-569.7,-37.5,2771.1,74470.5,126.9,516.6,785.7,-438.0,6362.1,9830.1,2808.9,-7.2,-6.0,1789.5,1915.2,-0.6,228.6,-2703.3,-573.6,0,2664,1034821877760,192,0, 
1.4833,-64.8,67.5,-420.0,74.1,-9060.6,-708.6,-10.2,-9830.1,-33122.7,176.7,-9830.1,-9817.8,-782.7,-9827.4,-5368.5,-9830.1,-6.9,-6.0,-9830.1,-9830.1,-0.9,272.4,-6588.9,-603.0,0,2670,1034821877760,193,0, 
1.4867,-138.0,55.5,-453.0,3.9,-17.4,-525.6,-81.3,-8986.5,-17932.2,36.3,-6528.0,-7359.9,-474.3,-6909.9,-447.0,-8911.2,-6.3,-5.7,-8049.9,-8477.4,-0.6,128.7,-2141.1,-555.6,0,2676,1034821877760,194,0, 
1.4900,-187.5,54.3,-487.2,-63.9,9353.4,-262.5,-151.5,6211.8,101813.4,-96.9,5574.0,6042.0,72.0,8965.8,9830.1,6347.4,-6.9,-5.7,6719.7,6372.6,-0.9,3.3,4642.5,-488.7,0,2682,1034821877760,195,0, 
1.4933,-144.0,67.2,-457.2,-20.1,6304.2,-267.3,-118.5,9830.1,157684.8,-25.8,9830.1,9817.5,109.8,9827.1,8235.0,9830.1,-6.6,-6.0,9830.1,9830.1,-0.6,71.4,4346.7,-493.5,0,2688,1034821877760,196,0, 
1.4967,-64.5,74.4,-422.4,73.2,-5528.7,-559.2,-29.7,2500.5,73729.5,142.5,400.8,396.3,-443.7,6341.1,9830.1,2577.3,-7.2,-5.7,1401.3,1585.2,-1.2,242.7,-2805.9,-562.8,0,2694,1034821877760,197,0, 
1.5000,-57.6,65.1,-418.2,84.6,-8901.3,-696.6,-7.5,-9830.1,-32381.7,184.5,-9830.1,-9817.8,-782.1,-9827.4,-4934.7,-9830.1,-7.2,-6.0,-9830.1,-9830.1,-0.9,279.3,-6527.1,-589.5,0,2700,1034821877760,198,0, 
1.5033,-129.9,57.0,-458.4,6.3,16.8,-519.3,-75.0,-9058.8,-16005.6,47.1,-6493.2,-7411.8,-475.8,-6889.2,493.2,-8976.6,-6.6,-6.0,-8157.9,-8570.7,-0.6,140.4,-2117.1,-537.9,0,2706,1034821877760,199,0, 
1.5067,-186.0,51.0,-492.3,-67.5,9177.9,-267.6,-145.8,6141.3,101294.7,-80.7,5396.4,5831.1,62.7,9029.1,9830.1,6292.2,-6.6,-6.0,6611.7,6228.0,-0.9,6.0,4551.9,-480.0,0,2712,1034821877760,200,0, 
1.5100,-144.3,72.3,-467.4,-25.2,6439.5,-283.2,-117.0,9830.1,158870.4,-24.6,9830.1,9817.5,111.3,9827.1,8256.9,9830.1,-6.9,-6.3,9830.1,9830.1,-0.9,65.7,4420.8,-484.5,0,2718,1034821877760,201,0, 
1.5133,-69.0,74.4,-421.2,68.4,-5394.0,-565.8,-26.1,2876.7,76397.1,149.7,601.2,855.3,-437.1,6599.1,9830.1,2974.2,-7.2,-6.0,1910.1,2016.9,-0.6,236.4,-2727.0,-557.1,0,2724,1034821877760,202,0, 
1.5167,-57.6,69.3,-412.5,82.8,-9133.5,-715.2,0.6,-9830.1,-32678.1,192.6,-9830.1,-9817.8,-788.4,-9827.4,-5242.8,-9830.1,-6.9,-6.3,-9830.1,-9830.1,-0.9,284.1,-6636.6,-587.4,0,2730,1034821877760,203,0, 
1.5200,-130.8,53.4,-464.4,-6.3,114.0,-526.5,-77.1,-8966.7,-14894.1,45.9,-6460.2,-7349.1,-476.1,-6808.5,816.0,-8890.5,-6.6,-6.0,-8040.9,-8492.1,-0.3,138.6,-2036.7,-544.5,0,2736,1034821877760,204,0, 
1.5233,-175.5,62.4,-490.5,-67.8,9264.9,-266.1,-142.2,6321.6,103295.4,-74.7,5573.4,6025.2,70.8,9079.5,9830.1,6450.9,-6.9,-6.0,6808.5,6391.2,-0.6,16.8,4574.4,-480.6,0,2742,1034821877760,205,0, 
1.5267,-130.5,78.0,-467.1,-24.3,6301.5,-276.0,-111.6,9830.1,158648.1,-17.1,9830.1,9817.5,107.4,9827.1,8381.1,9830.1,-6.9,-6.0,9830.1,9830.1,-0.6,74.7,4325.7,-486.9,0,2748,1034821877760,206,0, 
1.5300,-64.2,76.2,-434.4,61.2,-5295.0,-567.6,-33.0,2943.6,77656.8,142.5,679.5,744.6,-434.1,6682.8,9830.1,2961.3,-7.2,-6.0,1928.1,1946.4,-0.6,228.0,-2673.9,-565.8,0,2754,1034821877760,207,0, 
1.5333,-58.2,60.6,-428.7,80.4,-9043.2,-717.9,-9.3,-9830.1,-30381.0,177.6,-9830.1,-9817.8,-792.6,-9827.4,-4074.3,-9830.1,-6.9,-5.7,-9830.1,-9830.1,-0.6,273.9,-6587.4,-603.0,0,2760,1034821877760,208,0, 
1.5367,-130.8,49.5,-466.8,1.2,-72.3,-537.6,-79.2,-8983.8,-15338.7,40.5,-6563.4,-7482.0,-490.5,-6712.8,202.8,-8911.2,-6.6,-6.3,-8048.7,-8499.3,-0.6,133.8,-2181.3,-555.6,0,2766,1034821877760,209,0, 
1.5400,-187.8,44.1,-503.7,-77.4,9378.9,-274.5,-153.0,6291.0,104629.2,-92.1,5655.9,5938.8,59.4,9164.1,9830.1,6426.3,-6.6,-5.7,6780.0,6430.2,-0.6,-2.1,4668.6,-493.8,0,2772,1034821877760,210,0, 
1.5433,-144.3,63.9,-479.4,-32.1,6322.2,-293.7,-114.0,9830.1,160722.9,-28.5,9830.1,9817.5,97.2,9827.1,8214.6,9830.1,-6.9,-6.3,9830.1,9830.1,-0.9,67.2,4389.0,-488.7,0,2778,1034821877760,211,0, 
1.5467,-76.5,61.8,-444.6,52.5,-5441.1,-585.3,-33.3,2878.5,77582.7,135.0,724.8,844.8,-452.4,6741.6,9830.1,2897.7,-6.9,-6.0,1828.5,1987.2,-0.9,226.5,-2740.5,-570.6,0,2784,1034821877760,212,0, 
1.5500,-62.7,62.1,-425.7,77.7,-8968.5,-715.2,-1.5,-9830.1,-28973.1,175.2,-9830.1,-9817.8,-784.5,-9827.4,-3780.0,-9830.1,-6.6,-6.0,-9830.1,-9830.1,-0.6,276.6,-6518.7,-597.3,0,2790,1034821877760,213,0, 
1.5533,-135.9,46.2,-464.1,-0.6,-21.0,-536.7,-74.1,-9030.0,-13115.7,48.9,-6408.6,-7294.2,-472.8,-6749.7,1365.3,-8966.4,-6.6,-6.0,-8103.9,-8522.1,-0.6,141.6,-2103.6,-545.4,0,2796,1034821877760,214,0, 
1.5567,-189.0,50.4,-501.0,-68.1,9161.7,-280.8,-143.4,6181.8,104258.7,-84.0,5476.5,5891.7,69.0,9184.2,9830.1,6306.6,-6.6,-6.0,6671.7,6271.8,-0.6,5.4,4554.0,-481.5,0,2802,1034821877760,215,0, 
1.5600,-146.1,67.2,-479.7,-28.5,6465.6,-287.4,-111.9,9830.1,162279.0,-27.3,9830.1,9817.5,120.0,9827.1,8299.8,9830.1,-7.2,-6.0,9830.1,9830.1,-0.9,70.5,4475.7,-477.9,0,2808,1034821877760,216,0, 
1.5633,-71.7,66.6,-446.1,60.9,-5398.2,-574.8,-26.7,3024.3,79879.8,140.1,734.4,945.6,-432.9,6913.2,9830.1,3120.0,-7.2,-6.0,2111.1,2163.6,-0.6,237.0,-2718.6,-549.9,0,2814,1034821877760,217,0, 
1.5667,-57.9,62.4,-436.8,77.4,-9101.1,-710.4,6.0,-9830.1,-29121.3,186.3,-9830.1,-9817.8,-779.1,-9827.4,-3805.5,-9830.1,-7.2,-6.0,-9830.1,-9830.1,-0.6,285.3,-6616.8,-583.5,0,2820,1034821877760,218,0, 
1.5700,-132.0,45.3,-483.9,-8.1,56.7,-531.0,-67.2,-8960.4,-11707.8,43.8,-6353.4,-7328.7,-470.7,-6618.9,1885.5,-8879.1,-6.9,-6.0,-8020.5,-8481.3,-0.6,144.0,-2017.5,-538.8,0,2826,1034821877760,219,0, 
1.5733,-181.8,42.3,-507.6,-71.7,9232.5,-274.2,-136.2,6333.6,106259.4,-87.3,5673.6,6080.1,66.9,9268.5,9830.1,6486.0,-7.2,-6.3,6857.1,6431.4,-0.9,14.4,4623.3,-465.0,0,2832,1034821877760,220,0, 
1.5767,-143.1,60.3,-479.1,-25.8,6322.8,-288.6,-102.6,9830.1,161686.2,-24.3,9830.1,9817.5,107.1,9827.1,8434.8,9830.1,-6.6,-6.3,9830.1,9830.1,-0.9,72.6,4357.5,-464.1,0,2838,1034821877760,221,0, 
1.5800,-69.9,62.7,-426.0,66.6,-5239.2,-572.7,-20.4,2956.2,81139.5,133.5,633.0,863.4,-433.2,6914.1,9830.1,3072.0,-7.2,-6.0,2070.9,2183.7,-0.9,238.5,-2628.6,-537.3,0,2844,1034821877760,222,0, 
1.5833,-60.0,59.7,-414.3,87.0,-9101.4,-718.2,5.7,-9830.1,-27639.3,182.1,-9830.1,-9817.8,-790.8,-9827.4,-2640.9,-9830.1,-6.9,-5.7,-9830.1,-9830.1,-0.9,287.4,-6596.7,-570.0,0,2850,1034821877760,223,0, 
1.5867,-126.6,52.8,-457.5,5.7,-66.3,-535.8,-71.4,-9017.4,-12745.2,48.0,-6589.5,-7392.0,-481.8,-6712.5,1457.4,-8928.6,-6.6,-5.7,-8063.1,-8462.1,-0.6,146.4,-2153.4,-524.7,0,2856,1034821877760,224,0, 
1.5900,-170.4,64.2,-489.6,-54.3,9355.8,-263.4,-134.1,6227.1,107000.4,-75.6,5521.5,5995.8,85.5,9216.0,9830.1,6393.6,-6.9,-6.3,6763.2,6408.9,-0.6,17.7,4649.7,-448.2,0,2862,1034821877760,225,0, 
1.5933,-130.2,77.4,-461.7,-10.8,6340.2,-277.2,-96.9,9830.1,163094.1,-14.7,9830.1,9817.5,115.2,9827.1,8321.1,9830.1,-6.6,-6.3,9830.1,9830.1,-1.2,78.3,4387.2,-454.8,0,2868,1034821877760,226,0, 
1.5967,-57.9,77.4,-416.4,84.9,-5437.2,-562.8,-13.8,2784.9,79657.5,147.0,519.9,672.3,-429.3,6843.6,9830.1,2883.3,-6.6,-5.7,1737.6,1833.0,-0.9,241.2,-2748.9,-537.0,0,2874,1034821877760,227,0, 
1.6000,-51.9,69.0,-407.4,102.0,-8953.5,-702.3,7.2,-9830.1,-26898.3,182.1,-9830.1,-9817.8,-772.2,-9827.4,-2323.8,-9830.1,-7.2,-5.4,-9830.1,-9830.1,-0.3,284.1,-6510.3,-568.5,0,2880,1034821877760,228,0, 
1.6033,-117.0,64.5,-442.8,27.6,-55.8,-522.6,-62.1,-9140.1,-11559.6,52.2,-6606.0,-7475.7,-455.7,-6711.6,2274.0,-9053.1,-6.9,-6.3,-8240.7,-8617.8,-0.9,158.7,-2136.3,-516.3,0,2886,1034821877760,229,0, 
1.6067,-170.4,69.0,-470.4,-42.3,9174.3,-262.2,-135.9,5984.7,105814.8,-79.8,5301.3,5825.4,82.5,9176.4,9830.1,6152.4,-6.9,-5.7,6456.3,6134.4,-0.9,22.8,4578.0,-460.8,0,2892,1034821877760,230,0, 
1.6100,-134.4,78.9,-450.0,-5.7,6496.8,-278.4,-103.2,9830.1,163835.1,-22.2,9830.1,9817.5,127.8,9827.1,8372.7,9830.1,-6.6,-6.0,9830.1,9830.1,-1.2,67.8,4464.9,-465.3,0,2898,1034821877760,231,0, 
1.6133,-59.4,79.8,-413.7,77.4,-5402.7,-573.3,-19.8,2902.5,81139.5,140.7,401.7,883.8,-427.2,6847.8,9830.1,2981.1,-7.2,-5.7,1812.9,2028.6,-0.6,232.8,-2711.1,-547.5,0,2904,1034821877760,232,0, 
1.6167,-52.8,72.9,-412.2,93.6,-9155.1,-723.6,-0.6,-9830.1,-28306.2,183.3,-9830.1,-9817.8,-783.9,-9827.4,-2851.8,-9830.1,-6.9,-6.0,-9830.1,-9830.1,-1.2,278.4,-6617.1,-588.3,0,2910,1034821877760,233,0, 
1.6200,-123.0,65.4,-448.2,11.4,32.7,-528.6,-70.2,-9032.4,-11040.9,43.5,-6653.4,-7275.3,-463.5,-6712.2,2394.6,-8973.3,-6.6,-5.7,-8250.0,-8567.7,-0.3,134.7,-2036.4,-543.9,0,2916,1034821877760,234,0, 
1.6233,-178.2,69.0,-474.9,-57.3,9205.2,-270.3,-141.3,6216.6,106704.0,-87.9,5340.3,6050.4,73.5,9207.9,9830.1,6318.9,-6.9,-5.7,6552.3,6329.1,-0.9,6.6,4605.9,-479.4,0,2922,1034821877760,235,0, 
1.6267,-137.1,87.3,-450.0,-15.6,6315.9,-291.3,-110.1,9830.1,162797.7,-24.9,9830.1,9817.5,122.7,9827.1,8472.9,9830.1,-6.9,-5.7,9830.1,9830.1,-1.2,65.4,4389.3,-476.4,0,2928,1034821877760,236,0, 
1.6300,-65.4,87.6,-413.1,67.5,-5259.9,-576.0,-28.8,2917.5,82251.0,137.1,475.5,1001.1,-414.3,6948.9,9830.1,2952.3,-6.9,-5.7,1756.5,2108.1,-0.9,228.6,-2627.7,-552.3,0,2934,1034821877760,237,0, 
1.6333,-52.8,83.4,-400.8,91.2,-9135.6,-723.3,0.9,-9830.1,-26527.8,188.1,-9830.1,-9817.8,-773.1,-9827.4,-2164.8,-9830.1,-6.9,-6.0,-9830.1,-9830.1,-0.6,273.9,-6612.0,-590.1,0,2940,1034821877760,238,0, 
1.6367,-119.4,75.3,-435.6,14.4,-102.6,-538.2,-68.4,-9072.0,-12374.7,57.6,-6814.8,-7447.8,-460.5,-6689.4,1781.1,-9007.2,-6.9,-6.3,-8258.1,-8565.3,-0.6,141.6,-2184.3,-539.4,0,2946,1034821877760,239,0, 
1.6400,-178.5,69.3,-466.5,-56.4,9366.9,-270.0,-142.2,6167.1,107741.4,-84.6,5256.0,5939.7,93.3,9241.2,9830.1,6287.1,-6.9,-6.0,6476.7,6286.5,-0.6,7.2,4600.2,-478.8,0,2952,1034821877760,240,0, 
1.6433,-137.1,85.2,-443.1,-13.5,6345.9,-288.9,-111.9,9830.1,163835.1,-23.1,9830.1,9817.5,135.6,9827.1,8384.7,9830.1,-7.2,-5.7,9830.1,9830.1,-0.9,67.8,4367.4,-480.6,0,2958,1034821877760,241,0, 
1.6467,-57.3,86.4,-401.4,81.0,-5388.0,-576.0,-26.1,2876.7,81361.8,147.0,186.6,634.5,-402.0,6907.8,9830.1,2931.9,-7.2,-6.0,1523.1,1938.0,-0.9,239.7,-2741.7,-552.3,0,2964,1034821877760,242,0, 
1.6500,-56.4,73.2,-398.4,90.9,-8970.6,-723.3,-4.5,-9830.1,-25860.9,179.4,-9830.1,-9817.8,-746.7,-9827.4,-1499.4,-9830.1,-6.6,-6.3,-9830.1,-9830.1,-0.9,277.5,-6542.1,-590.1,0,2970,1034821877760,243,0, 
1.6533,-120.3,64.2,-435.3,15.6,-103.2,-540.6,-73.2,-9210.9,-11263.2,47.4,-6849.9,-7523.4,-442.8,-6788.4,2764.5,-9140.7,-6.9,-6.3,-8395.2,-8669.4,-0.9,143.4,-2187.3,-543.9,0,2976,1034821877760,244,0, 
1.6567,-172.5,63.9,-458.4,-51.0,9136.8,-272.7,-138.0,5843.1,106111.2,-82.8,5073.3,5791.8,94.5,9131.1,9830.1,5979.6,-6.6,-6.3,6213.0,6042.9,-0.9,14.4,4521.9,-483.6,0,2982,1034821877760,245,0, 
1.6600,-132.6,77.1,-439.8,-11.1,6531.0,-286.8,-106.5,9830.1,164798.4,-25.2,9830.1,9817.5,135.3,9827.1,8417.4,9830.1,-7.2,-6.0,9830.1,9830.1,-0.9,70.5,4449.9,-480.6,0,2988,1034821877760,246,0, 
1.6633,-60.3,77.1,-403.5,81.6,-5385.6,-571.5,-19.5,2820.3,81954.6,137.7,306.9,937.8,-420.3,6881.4,9830.1,2881.2,-6.9,-5.7,1563.9,2014.2,-0.9,240.6,-2741.4,-550.5,0,2994,1034821877760,247,0, 
1.6667,-55.5,65.7,-404.1,95.1,-9123.0,-726.6,1.8,-9830.1,-27120.6,177.9,-9830.1,-9817.8,-785.4,-9827.4,-2262.0,-9830.1,-6.9,-5.7,-9830.1,-9830.1,-0.6,281.4,-6644.4,-588.9,0,3000,1034821877760,248,0, 
1.6700,-121.8,63.0,-442.2,16.2,9.9,-533.4,-69.0,-9120.0,-10744.5,41.7,-6783.6,-7332.0,-469.8,-6703.8,2659.2,-9030.6,-6.9,-5.7,-8333.1,-8639.4,-0.6,136.8,-2130.6,-536.4,0,3006,1034821877760,249,0, 
1.6733,-176.4,51.3,-474.0,-57.9,9231.9,-278.1,-140.4,6045.9,106778.1,-99.6,5115.9,6031.5,57.9,9218.4,9830.1,6211.2,-6.9,-6.0,6428.4,6215.7,-1.2,6.9,4480.5,-483.0,0,3012,1034821877760,250,0, 
1.6767,-135.9,70.5,-447.6,-15.6,6332.7,-287.7,-105.6,9830.1,162871.8,-36.3,9830.1,9817.5,104.4,9827.1,8469.6,9830.1,-7.2,-5.7,9830.1,9830.1,-0.9,62.1,4320.6,-479.1,0,3018,1034821877760,251,0, 
1.6800,-60.0,73.5,-406.2,77.1,-5263.2,-572.4,-18.6,2833.8,82473.3,129.6,224.7,873.6,-432.3,6933.3,9830.1,2896.2,-6.6,-6.0,1567.2,2034.6,-0.6,230.7,-2652.6,-553.2,0,3024,1034821877760,252,0, 
1.6833,-51.6,65.7,-398.7,98.4,-9195.0,-721.8,6.9,-9830.1,-26676.0,174.3,-9830.1,-9817.8,-788.7,-9827.4,-1984.8,-9830.1,-6.9,-5.7,-9830.1,-9830.1,-0.9,274.5,-6673.5,-588.0,0,3030,1034821877760,253,0, 
1.6867,-115.8,60.3,-433.2,20.7,-138.0,-535.5,-60.9,-9153.0,-12448.8,40.8,-6878.7,-7370.1,-472.8,-6781.5,1963.2,-9073.5,-6.3,-6.0,-8406.3,-8638.5,-0.9,141.6,-2211.0,-541.2,0,3036,0,254,0, 
1.6900,-172.5,62.1,-469.5,-48.9,9316.5,-271.5,-137.7,6009.9,107222.7,-96.9,5222.7,5986.2,74.4,9195.9,9830.1,6162.0,-6.9,-5.7,6230.7,6146.4,-0.6,5.4,4572.9,-478.5,0,3042,0,255,0, 
1.6933,-125.7,77.4,-440.4,-2.1,6337.8,-287.7,-98.1,9830.1,163390.5,-26.4,9830.1,9817.5,112.5,9827.1,8377.5,9830.1,-6.9,-6.0,9830.1,9830.1,-0.9,66.6,4316.4,-480.0,0,3048,268435456,0,0, 
1.6967,-59.4,74.7,-406.5,79.2,-5402.4,-582.0,-25.5,2758.5,80917.2,129.0,99.6,902.7,-445.5,6929.4,9830.1,2815.8,-7.2,-6.3,1259.4,1781.7,-0.9,228.9,-2776.5,-563.4,0,3054,344940625920,1,0, 
1.7000,-47.4,74.7,-395.1,99.6,-9042.0,-715.8,6.0,-9830.1,-26231.4,178.2,-9830.1,-9817.8,-785.4,-9827.4,-1851.6,-9830.1,-7.2,-6.0,-9830.1,-9830.1,-0.3,277.2,-6588.6,-590.4,0,3060,344940625920,2,0, 
1.7033,-116.7,68.4,-423.3,24.9,-152.4,-530.4,-65.4,-9302.1,-12152.4,41.1,-6904.2,-7512.9,-479.1,-6828.3,2352.9,-9230.1,-6.9,-6.0,-8605.2,-8789.4,-0.6,143.7,-2247.0,-535.2,0,3066,1034285006848,3,0, 
1.7067,-174.3,66.6,-453.0,-49.5,9196.8,-272.7,-138.6,5653.5,105814.8,-90.9,5013.3,5751.6,65.1,9098.4,9830.1,5835.6,-6.6,-6.0,5940.6,5908.2,-0.6,7.8,4491.6,-477.6,0,3072,1034285006848,4,0, 
1.7100,-130.2,89.4,-431.7,0.9,6505.2,-279.6,-105.6,9830.1,164279.7,-26.7,9830.1,9817.5,118.2,9827.1,8376.3,9830.1,-7.2,-6.3,9830.1,9830.1,-0.9,67.8,4427.1,-483.3,0,3078,1034285006848,5,0, 
1.7133,-55.8,89.4,-392.4,93.0,-5375.7,-570.9,-15.0,2740.8,81880.5,143.7,188.1,920.7,-428.7,6888.9,9830.1,2863.5,-6.9,-6.0,1398.9,2005.5,-0.6,234.6,-2772.9,-559.8,0,3084,1034285006848,6,0, 
1.7167,-44.4,87.0,-378.3,114.0,-9144.0,-722.7,12.0,-9830.1,-27491.1,187.8,-9830.1,-9817.8,-776.1,-9827.4,-2502.9,-9830.1,-7.5,-6.3,-9830.1,-9830.1,-0.9,278.7,-6683.4,-592.2,0,3090,1034285006848,7,0, 
1.7200,-119.4,69.3,-416.1,29.4,8.1,-545.7,-67.2,-9153.9,-10744.5,45.9,-6765.0,-7515.6,-469.5,-6688.5,2496.9,-9045.3,-6.3,-5.7,-8413.5,-8610.0,-0.9,138.6,-2136.0,-545.7,0,3096,1034285006848,8,0, 
1.7233,-170.1,72.0,-441.0,-33.0,9212.4,-285.0,-136.8,5982.9,106629.9,-87.3,5131.8,5769.3,69.6,9234.0,9830.1,6198.9,-6.9,-6.0,6297.3,6232.8,-0.6,10.2,4469.1,-484.8,0,3102,1034285006848,9,0, 
1.7267,-131.1,87.3,-420.0,0.6,6368.1,-300.3,-106.8,9830.1,163390.5,-25.5,9830.1,9817.5,115.8,9827.1,8457.0,9830.1,-7.2,-5.7,9830.1,9830.1,-0.9,64.8,4326.3,-491.1,0,3108,1034285006848,10,0, 
1.7300,-57.9,89.7,-381.3,90.3,-5262.9,-589.5,-27.9,2786.4,82992.0,141.0,136.8,873.6,-417.9,7030.8,9830.1,2891.7,-7.2,-5.7,1485.3,2086.2,-0.9,229.8,-2690.7,-565.2,0,3114,1034285006848,11,0, 
1.7333,-45.0,84.0,-374.1,107.7,-9184.8,-745.5,2.7,-9830.1,-26527.8,184.5,-9830.1,-9817.8,-781.2,-9827.4,-2087.1,-9830.1,-6.6,-5.7,-9830.1,-9830.1,-0.9,278.7,-6694.8,-593.1,0,3120,1034285006848,12,0, 
1.7367,-115.2,74.7,-408.9,30.9,-130.2,-561.9,-66.0,-9166.2,-12448.8,54.0,-6978.3,-7496.7,-464.7,-6736.2,1782.3,-9082.8,-6.9,-5.7,-8475.0,-8615.4,-0.6,140.4,-2250.9,-545.7,0,3126,1034285006848,13,0, 
1.7400,-168.6,75.6,-436.5,-40.8,9352.2,-291.3,-136.2,6003.3,107370.9,-76.2,5123.1,5918.7,90.6,9239.1,9830.1,6177.0,-6.9,-6.3,6180.0,6266.1,-0.6,0.9,4563.9,-478.8,0,3132,1034285006848,14,0, 
1.7433,-124.8,90.9,-409.2,4.2,6368.4,-300.3,-98.4,9830.1,163835.1,-10.8,9830.1,9817.5,129.3,9827.1,8360.4,9830.1,-6.9,-6.0,9830.1,9830.1,-0.9,63.0,4327.2,-474.0,0,3138,1034285006848,15,0, 
1.7467,-56.7,87.6,-373.5,90.6,-5337.9,-581.4,-13.8,2834.1,81880.5,158.7,54.0,686.1,-411.0,7019.1,9830.1,2954.1,-6.9,-5.7,1260.3,2128.2,-0.6,227.1,-2732.7,-553.2,0,3144,1034285006848,16,0, 
1.7500,-42.9,78.3,-368.7,107.1,-9031.2,-722.4,14.4,-9830.1,-25564.5,198.0,-9830.1,-9817.8,-749.1,-9827.4,-1797.9,-9830.1,-6.9,-5.7,-9830.1,-9830.1,-0.6,275.1,-6574.8,-577.5,0,3150,1034285006848,17,0, 
1.7533,-111.3,63.6,-412.8,26.7,-184.2,-543.0,-54.9,-9300.6,-11781.9,54.6,-6971.7,-7640.7,-455.1,-6861.9,2448.3,-9225.3,-6.6,-6.0,-8629.5,-8746.2,-0.9,136.5,-2247.6,-533.1,0,3156,1034285006848,18,0, 
1.7567,-166.5,59.4,-452.4,-43.5,9169.5,-281.7,-129.3,5675.7,105740.7,-92.1,4974.9,5651.4,83.4,9101.7,9830.1,5829.0,-7.2,-6.3,5900.7,5963.7,-0.6,6.3,4497.3,-473.1,0,3162,1034285006848,19,0, 
1.7600,-131.4,73.8,-432.9,-10.2,6531.9,-291.3,-99.9,9830.1,164798.4,-36.6,9830.1,9817.5,132.0,9827.1,8390.1,9830.1,-6.9,-5.7,9830.1,9830.1,-0.6,69.3,4428.3,-477.9,0,3168,1034285006848,20,0, 
1.7633,-55.2,75.9,-399.3,78.3,-5381.4,-584.4,-11.4,2796.9,82251.0,123.0,159.6,845.7,-419.7,6931.8,9830.1,2858.4,-6.9,-5.7,1409.7,2126.1,-0.3,243.6,-2763.3,-548.4,0,3174,1034285006848,21,0, 
1.7667,-44.1,71.4,-391.8,96.3,-9132.3,-727.2,17.7,-9830.1,-27046.5,169.2,-9830.1,-9817.8,-775.8,-9827.4,-2228.1,-9830.1,-6.6,-6.0,-9830.1,-9830.1,-0.6,299.1,-6669.0,-579.3,0,3180,1034285006848,22,0, 
1.7700,-111.6,68.7,-417.0,19.2,-37.5,-540.6,-55.2,-9168.9,-11263.2,34.2,-6936.3,-7533.9,-453.9,-6710.7,2500.5,-9086.4,-7.2,-5.7,-8547.3,-8628.0,-0.6,159.0,-2155.5,-533.4,0,3186,1034285006848,23,0, 
1.7733,-164.4,66.3,-450.3,-50.4,9187.2,-281.7,-129.6,5949.9,106037.1,-91.2,4992.6,5740.8,77.1,9231.6,9830.1,6122.7,-6.9,-6.0,6060.3,6157.2,-0.9,28.5,4464.9,-471.3,0,3192,1034285006848,24,0, 
1.7767,-123.3,82.8,-426.9,-10.2,6398.7,-300.9,-98.7,9830.1,163020.0,-29.1,9830.1,9817.5,119.7,9827.1,8427.3,9830.1,-6.6,-6.0,9830.1,9830.1,-0.9,86.7,4339.8,-474.6,0,3198,1034285006848,25,0, 
1.7800,-52.2,85.8,-393.0,76.2,-5238.0,-579.9,-18.3,2761.5,82917.9,135.3,99.3,878.7,-415.8,7072.2,9830.1,2861.7,-6.9,-5.7,1247.4,1976.4,-0.9,251.4,-2669.4,-543.9,0,3204,1034285006848,26,0, 
1.7833,-40.8,77.4,-381.0,96.6,-9220.8,-736.2,7.8,-9830.1,-27046.5,183.6,-9830.1,-9817.8,-780.3,-9827.4,-2234.1,-9830.1,-6.9,-6.3,-9830.1,-9830.1,-0.6,293.4,-6699.3,-582.3,0,3210,1034285006848,27,0, 
1.7867,-111.3,69.9,-422.7,17.7,-139.5,-548.4,-63.9,-9226.8,-12967.5,53.4,-7047.9,-7545.3,-473.1,-6760.5,1669.5,-9126.9,-6.6,-6.0,-8608.5,-8682.3,-0.9,154.2,-2235.0,-540.6,0,3216,1034285006848,28,0, 
1.7900,-165.9,69.6,-444.9,-48.6,9290.7,-285.0,-132.6,5849.4,106259.4,-73.8,4963.2,5838.0,77.7,9233.1,9830.1,6074.7,-7.2,-6.0,5968.5,6120.9,-0.9,24.0,4559.7,-468.6,0,3222,1034285006848,29,0, 
1.7933,-125.1,80.1,-431.7,-4.2,6308.7,-299.4,-98.4,9830.1,162723.6,-16.2,9830.1,9817.5,116.7,9827.1,8313.3,9830.1,-6.9,-5.7,9830.1,9830.1,-0.9,92.1,4321.2,-469.8,0,3228,1034285006848,30,0, 
1.7967,-63.6,75.6,-403.8,72.6,-5371.2,-599.1,-22.8,2660.7,80546.7,141.9,-139.2,670.5,-433.2,6993.0,9830.1,2804.1,-7.2,-6.3,1114.8,1929.3,-0.6,243.0,-2771.4,-558.9,0,3234,1034285006848,31,0, 
1.8000,-55.8,63.0,-399.3,88.8,-9019.8,-742.8,0.3,-9830.1,-26824.2,177.6,-9830.1,-9817.8,-781.2,-9827.4,-2569.2,-9830.1,-6.9,-6.0,-9830.1,-9830.1,-0.6,288.3,-6595.8,-586.8,0,3240,1034285006848,32,0, 
1.8033,-125.7,52.8,-435.3,10.2,-246.0,-564.6,-65.7,-9360.9,-13338.0,45.0,-7166.1,-7713.6,-483.9,-6945.0,1875.6,-9285.3,-6.9,-6.3,-8739.0,-8849.4,-0.3,143.7,-2307.3,-537.3,0,3246,1034285006848,33,0, 
1.8067,-177.6,48.0,-462.6,-57.6,9193.5,-299.1,-140.7,5526.3,104629.2,-93.6,4795.5,5610.0,63.3,9038.4,9830.1,5701.5,-6.9,-5.7,5813.7,5915.1,-0.6,10.8,4468.2,-479.4,0,3252,1034285006848,34,0, 
1.8100,-140.1,67.2,-438.6,-8.1,6523.2,-299.4,-104.1,9830.1,163686.9,-32.7,9830.1,9817.5,112.5,9827.1,8337.6,9830.1,-7.5,-6.6,9830.1,9830.1,-0.6,75.6,4421.7,-482.7,0,3258,1034285006848,35,0, 
1.8133,-62.7,63.9,-409.2,78.6,-5413.2,-594.3,-21.3,2684.7,80769.0,132.9,-88.8,828.3,-449.4,6807.6,9830.1,2746.5,-7.5,-6.0,1271.4,1987.2,-0.6,244.2,-2772.9,-562.8,0,3264,1034285006848,36,0, 
1.8167,-49.5,64.2,-399.0,96.0,-9132.6,-735.3,7.8,-9830.1,-28824.9,184.5,-9830.1,-9817.8,-798.0,-9827.4,-3129.3,-9830.1,-6.3,-5.7,-9830.1,-9830.1,-0.9,291.9,-6680.4,-596.7,0,3270,1034285006848,37,0, 
1.8200,-129.6,47.4,-448.5,2.7,-97.5,-557.1,-72.9,-9243.3,-12819.3,37.5,-7023.0,-7493.7,-491.1,-6791.7,1691.7,-9173.4,-6.9,-6.0,-8575.2,-8716.5,-0.9,140.4,-2219.1,-555.6,0,3276,1034285006848,38,0, 
1.8233,-185.4,47.1,-480.6,-65.7,9176.7,-302.7,-145.8,5788.2,103814.1,-103.2,4810.5,5790.9,43.5,9150.6,9830.1,5952.3,-7.2,-6.3,5998.5,6016.8,-1.2,8.7,4354.8,-495.0,0,3282,1034285006848,39,0, 
1.8267,-147.6,63.3,-454.5,-22.5,6377.1,-311.7,-116.1,9830.1,161389.8,-43.2,9830.1,9817.5,88.2,9827.1,8349.6,9830.1,-6.9,-6.3,9830.1,9830.1,-0.9,64.8,4310.4,-497.1,0,3288,1034285006848,40,0, 
1.8300,-74.7,64.8,-417.3,66.6,-5268.0,-586.2,-30.3,2626.2,81213.6,127.2,33.3,927.0,-445.5,6960.0,9830.1,2765.7,-7.2,-6.0,1161.3,1937.7,-0.6,233.1,-2710.5,-567.3,0,3294,1034285006848,41,0, 
1.8333,-63.6,49.8,-415.8,84.3,-9273.0,-741.3,-3.6,-9830.1,-28899.0,173.7,-9830.1,-9817.8,-811.8,-9827.4,-3242.1,-9830.1,-6.9,-6.0,-9830.1,-9830.1,-0.6,280.2,-6757.5,-601.2,0,3300,1034285006848,42,0, 
1.8367,-138.6,34.5,-463.5,-6.9,-230.4,-561.3,-79.8,-9281.4,-15190.5,37.2,-7115.7,-7582.2,-509.4,-6883.2,950.1,-9188.7,-6.6,-6.0,-8685.6,-8740.8,-0.9,135.9,-2307.6,-556.8,0,3306,1034285006848,43,0, 
1.8400,-197.1,32.4,-495.0,-76.5,9266.7,-295.5,-153.0,5739.9,104406.9,-97.5,4888.2,5736.6,40.8,9122.4,9830.1,5922.6,-7.2,-6.3,5809.2,6036.6,-0.6,0.3,4489.5,-496.8,0,3312,1034285006848,44,0, 
1.8433,-152.1,48.6,-471.6,-35.7,6291.9,-315.9,-120.3,9830.1,161019.3,-37.2,9830.1,9817.5,79.5,9827.1,8253.3,9830.1,-7.2,-6.0,9830.1,9830.1,-0.6,65.7,4265.1,-497.1,0,3318,1034285006848,45,0, 
1.8467,-78.3,50.1,-429.9,54.0,-5361.3,-598.5,-36.6,2589.9,79287.0,126.9,-195.0,700.2,-464.4,6854.1,9830.1,2651.7,-6.9,-6.0,924.0,1920.9,-0.6,229.5,-2778.3,-571.5,0,3324,1034285006848,46,0, 
1.8500,-61.5,45.3,-416.4,77.1,-9071.1,-739.2,-7.2,-9830.1,-28380.3,174.3,-9830.1,-9817.8,-813.9,-9827.4,-3487.2,-9830.1,-6.6,-6.0,-9830.1,-9830.1,-0.6,273.9,-6659.4,-602.4,0,3330,1034285006848,47,0, 
1.8533,-131.1,40.8,-451.8,-1.8,-275.1,-555.6,-73.2,-9403.5,-15412.8,40.8,-7167.3,-7678.8,-518.4,-7136.4,1089.9,-9346.2,-6.6,-6.0,-8828.1,-8866.8,-0.9,149.7,-2352.0,-558.3,0,3336,1034285006848,48,0, 
1.8567,-177.9,42.9,-480.9,-67.5,9180.9,-288.9,-144.9,5429.1,102332.1,-87.3,4765.8,5591.7,36.0,8910.0,9830.1,5554.5,-7.2,-6.0,5673.9,5865.9,-0.6,13.2,4418.7,-495.0,0,3342,1034285006848,49,0, 
1.8600,-136.2,62.1,-458.7,-25.8,6564.9,-294.6,-112.5,9830.1,161686.2,-32.4,9830.1,9817.5,93.6,9827.1,8278.2,9830.1,-7.5,-6.0,9830.1,9830.1,-0.9,72.3,4379.4,-496.2,0,3348,1034285006848,50,0, 
1.8633,-61.8,63.0,-418.2,62.1,-5379.3,-586.8,-28.5,2633.4,79287.0,140.1,-63.9,770.4,-454.2,6724.2,9830.1,2670.6,-6.9,-6.3,1068.9,2004.9,-0.3,236.1,-2798.1,-578.4,0,3354,1034285006848,51,0, 
1.8667,-49.2,62.1,-403.8,85.8,-9164.1,-726.6,3.0,-9830.1,-29862.3,187.2,-9830.1,-9817.8,-799.8,-9827.4,-3943.2,-9830.1,-6.6,-6.0,-9830.1,-9830.1,-0.6,292.2,-6745.2,-606.9,0,3360,1034285006848,52,0, 
1.8700,-120.3,49.8,-445.2,5.1,-154.8,-543.3,-69.6,-9292.8,-14820.0,51.6,-7038.6,-7598.7,-489.0,-6919.8,891.3,-9222.0,-6.6,-5.7,-8640.0,-8701.8,-0.9,148.8,-2265.3,-562.8,0,3366,1034285006848,53,0, 
1.8733,-171.0,48.0,-469.5,-60.6,9135.9,-293.4,-139.8,5700.9,101739.3,-77.1,4749.9,5680.2,54.3,9049.2,9830.1,5858.4,-6.9,-5.7,5905.8,6096.9,-0.6,24.0,4327.2,-505.5,0,3372,1034285006848,54,0, 
1.8767,-130.8,62.4,-448.5,-21.6,6375.9,-305.7,-108.9,9830.1,159463.2,-21.9,9830.1,9817.5,100.2,9827.1,8295.6,9830.1,-7.2,-6.0,9830.1,9830.1,-1.2,71.4,4285.5,-506.1,0,3378,1034285006848,55,0, 
1.8800,-63.0,60.6,-412.5,62.4,-5232.9,-587.7,-30.3,2653.8,79805.7,135.9,-55.5,729.3,-445.2,6884.4,9830.1,2696.4,-6.9,-6.0,1153.5,2064.9,-0.6,234.3,-2704.5,-577.5,0,3384,1034285006848,56,0, 
1.8833,-52.2,55.5,-401.1,86.7,-9262.2,-737.1,-2.1,-9830.1,-30529.2,183.9,-9830.1,-9817.8,-804.3,-9827.4,-4044.0,-9830.1,-6.9,-6.0,-9830.1,-9830.1,-1.2,282.6,-6773.1,-613.2,0,3390,1034285006848,57,0, 
1.8867,-121.2,43.2,-439.2,11.4,-188.7,-556.2,-73.2,-9311.1,-16598.4,49.8,-7140.6,-7654.2,-483.9,-6983.1,396.0,-9245.1,-6.6,-6.0,-8682.0,-8737.2,-0.9,144.9,-2357.4,-562.5,0,3396,1034285006848,58,0, 
1.8900,-171.9,46.2,-468.0,-53.7,9251.7,-296.7,-144.9,5675.4,102628.5,-83.7,4800.9,5681.1,58.8,9039.3,9830.1,5816.1,-6.9,-6.0,5828.4,6012.3,-0.9,14.1,4443.6,-499.2,0,3402,1034285006848,59,0, 
1.8933,-131.1,65.4,-442.2,-12.0,6352.2,-306.6,-106.8,9830.1,159240.9,-15.9,9830.1,9817.5,105.9,9827.1,8254.5,9830.1,-6.6,-6.3,9830.1,9830.1,-0.9,75.3,4220.4,-500.1,0,3408,1034285006848,60,0, 
1.8967,-61.8,60.3,-405.6,68.4,-5322.0,-602.7,-29.1,2615.7,77953.2,135.9,-124.2,618.9,-443.7,6816.0,9830.1,2653.5,-7.5,-6.0,1018.2,1934.1,-0.6,235.8,-2780.7,-586.8,0,3414,1034285006848,61,0, 
1.9000,-45.9,57.0,-393.9,90.9,-9045.3,-736.8,0.0,-9830.1,-29936.4,182.7,-9830.1,-9817.8,-779.7,-9827.4,-4273.8,-9830.1,-6.9,-6.0,-9830.1,-9830.1,-0.9,283.5,-6675.9,-611.4,0,3420,1034285006848,62,0, 
1.9033,-112.8,48.6,-425.4,12.9,-294.0,-556.2,-71.7,-9402.6,-17117.1,52.8,-7154.7,-7773.0,-481.5,-7276.2,262.8,-9349.2,-7.2,-5.4,-8816.4,-8895.3,-0.9,153.6,-2394.3,-561.0,0,3426,1034285006848,63,0, 
1.9067,-169.8,44.1,-456.0,-56.7,9198.6,-290.7,-141.9,5462.1,100924.2,-81.9,4788.3,5493.6,66.9,8784.9,9830.1,5589.6,-6.9,-6.0,5702.1,5791.8,-0.9,13.2,4378.5,-498.6,0,3432,1034285006848,64,0, 
1.9100,-129.3,57.9,-435.6,-20.7,6490.8,-305.1,-112.8,9830.1,160056.0,-27.3,9830.1,9817.5,118.2,9827.1,8259.9,9830.1,-6.6,-6.3,9830.1,9830.1,-0.9,68.1,4342.5,-497.7,0,3438,1034285006848,65,0, 
1.9133,-55.2,58.2,-396.0,74.7,-5431.2,-595.5,-33.3,2517.6,77656.8,143.4,51.9,585.3,-436.8,6521.7,9830.1,2539.8,-6.9,-5.7,1030.8,1724.1,-0.6,240.9,-2838.3,-567.6,0,3444,1034285006848,66,0, 
1.9167,-43.5,53.4,-392.1,91.8,-9141.0,-741.0,-7.5,-9830.1,-31640.7,194.4,-9830.1,-9817.8,-790.8,-9827.4,-4741.8,-9830.1,-7.2,-6.0,-9830.1,-9830.1,-0.9,285.6,-6724.2,-599.4,0,3450,1034285006848,67,0, 
1.9200,-111.9,46.2,-431.7,12.0,-145.2,-558.9,-75.0,-9325.2,-16450.2,50.7,-6882.9,-7593.3,-475.5,-7029.6,271.5,-9258.9,-6.6,-6.3,-8675.4,-8786.7,-0.6,151.5,-2277.0,-552.6,0,3456,1034285006848,68,0, 
1.9233,-164.1,51.9,-460.5,-54.6,9193.8,-297.9,-138.9,5643.0,99886.8,-73.5,4991.1,5674.2,62.4,8958.3,9830.1,5785.2,-6.6,-6.0,5875.8,5928.9,-0.9,21.6,4324.8,-489.0,0,3462,1034285006848,69,0, 
1.9267,-126.0,67.2,-443.1,-17.7,6457.5,-309.9,-113.7,9830.1,158129.4,-18.6,9830.1,9817.5,108.3,9827.1,8287.8,9830.1,-6.6,-5.7,9830.1,9830.1,-1.5,77.7,4287.6,-487.5,0,3468,1034285006848,70,0, 
1.9300,-58.5,60.9,-403.2,62.4,-5177.7,-595.2,-29.7,2630.1,78471.9,141.9,309.0,744.9,-432.6,6826.8,9830.1,2690.4,-7.5,-5.7,1205.1,1857.9,-0.9,234.3,-2688.0,-563.4,0,3474,1034285006848,71,0, 
1.9333,-42.6,59.1,-391.2,90.9,-9261.9,-734.1,4.8,-9830.1,-32307.6,191.1,-9830.1,-9817.8,-789.3,-9827.4,-4663.5,-9830.1,-6.9,-6.0,-9830.1,-9830.1,-0.6,288.0,-6798.3,-599.4,0,3480,1034285006848,72,0, 
1.9367,-111.3,51.9,-434.4,7.8,-205.5,-551.7,-67.5,-9333.6,-18450.9,56.1,-6867.3,-7688.1,-484.5,-7084.2,-132.3,-9263.1,-6.3,-6.0,-8711.1,-8852.4,-0.3,148.2,-2340.3,-553.2,0,3486,1034285006848,73,0, 
1.9400,-168.0,51.3,-466.8,-65.1,9264.0,-291.6,-144.6,5629.5,100776.0,-71.7,5113.2,5550.3,60.9,8958.0,9830.1,5789.1,-7.2,-5.7,5769.3,5805.3,-0.9,13.8,4415.4,-492.9,0,3492,1034285006848,74,0, 
1.9433,-125.7,64.5,-444.0,-24.3,6343.8,-305.7,-111.6,9830.1,157388.4,-16.2,9830.1,9817.5,105.3,9827.1,8263.2,9830.1,-6.6,-5.7,9830.1,9830.1,-1.2,72.9,4250.7,-497.7,0,3498,1034285006848,75,0, 
1.9467,-49.8,74.7,-397.5,74.7,-5258.1,-588.0,-25.8,2609.7,76841.7,147.0,372.3,499.2,-430.5,6793.5,9830.1,2688.3,-7.5,-6.3,1083.9,1710.9,-0.3,240.0,-2745.3,-566.1,0,3504,1034285006848,76,0, 
1.9500,-41.4,65.7,-391.8,87.9,-9058.5,-735.6,-0.3,-9830.1,-31196.1,184.2,-9830.1,-9817.8,-786.3,-9827.4,-4595.4,-9830.1,-6.9,-5.7,-9830.1,-9830.1,-0.9,279.3,-6683.4,-603.6,0,3510,1034285006848,77,0, 
1.9533,-107.1,58.5,-426.0,11.4,-305.7,-556.5,-66.0,-9438.6,-19117.8,64.8,-6974.7,-7920.0,-490.2,-7443.3,-198.6,-9360.0,-6.6,-6.0,-8878.2,-9046.2,-0.9,152.7,-2416.8,-553.2,0,3516,1034285006848,78,0, 
1.9567,-163.8,58.2,-461.4,-60.3,9180.3,-282.6,-138.3,5357.7,98849.4,-72.6,4998.6,5340.3,62.4,8668.2,9830.1,5549.7,-7.2,-5.7,5600.7,5548.8,-1.2,14.4,4376.7,-496.5,0,3522,1034285006848,79,0, 
1.9600,-123.3,78.6,-441.6,-20.1,6558.6,-289.5,-106.2,9830.1,158351.7,-9.9,9830.1,9817.5,115.2,9827.1,8261.4,9830.1,-6.9,-6.3,9830.1,9830.1,-0.9,72.0,4362.0,-493.2,0,3528,1034285006848,80,0, 
1.9633,-49.5,78.9,-398.7,71.1,-5345.1,-578.7,-22.5,2488.2,76100.7,147.3,305.7,582.0,-443.7,6390.9,9830.1,2495.4,-6.9,-6.0,977.4,1680.0,-0.6,239.7,-2779.8,-558.9,0,3534,1034285006848,81,0, 
1.9667,-42.6,73.2,-389.4,90.6,-9068.7,-720.9,5.4,-9830.1,-32826.3,196.8,-9830.1,-9817.8,-795.6,-9827.4,-5258.4,-9830.1,-7.2,-6.3,-9830.1,-9830.1,-0.9,288.3,-6687.0,-594.0,0,3540,1034285006848,82,0, 
1.9700,-110.4,62.7,-420.9,13.8,-114.3,-534.6,-68.4,-9317.7,-18006.3,62.1,-6762.6,-7759.2,-489.9,-7136.4,-401.1,-9253.2,-6.6,-5.7,-8690.4,-8827.8,-0.9,145.2,-2312.1,-543.6,0,3546,1034285006848,83,0, 
1.9733,-162.9,58.5,-460.2,-59.7,9194.1,-283.2,-138.9,5686.2,98404.8,-69.6,5061.9,5470.5,50.7,8889.9,9830.1,5832.3,-6.9,-5.7,5845.2,5856.0,-1.2,21.6,4312.2,-481.8,0,3552,1034285006848,84,0, 
1.9767,-126.0,75.0,-435.6,-23.1,6484.5,-294.3,-111.0,9830.1,157166.1,-23.7,9830.1,9817.5,108.6,9827.1,8272.8,9830.1,-6.9,-6.6,9830.1,9830.1,-0.6,65.7,4344.9,-482.7,0,3558,1034285006848,85,0, 
1.9800,-52.2,79.5,-397.5,68.4,-5145.9,-576.6,-29.1,2753.1,77953.2,147.9,493.5,731.1,-422.7,6823.2,9830.1,2831.7,-6.9,-5.7,1256.1,1886.7,-0.9,229.5,-2650.8,-559.5,0,3564,1034285006848,86,0, 
1.9833,-39.3,75.3,-387.0,92.4,-9227.4,-729.9,-3.3,-9830.1,-32752.2,194.1,-9830.1,-9817.8,-786.3,-9827.4,-5133.0,-9830.1,-6.9,-6.3,-9830.1,-9830.1,-0.6,283.8,-6749.1,-594.9,0,3570,1034285006848,87,0, 
1.9867,-107.4,66.6,-431.7,11.4,-185.7,-547.5,-74.4,-9300.6,-18821.4,51.6,-6799.8,-7610.7,-471.9,-7110.0,-437.7,-9228.0,-6.3,-6.0,-8640.6,-8860.5,-0.6,147.3,-2323.5,-554.4,0,3576,1034285006848,88,0, 
1.9900,-162.0,62.4,-460.8,-54.6,9241.5,-280.8,-143.1,5714.7,100331.4,-75.6,5119.8,5642.7,74.4,8946.0,9830.1,5874.6,-6.9,-6.3,5974.8,5792.4,-1.2,10.5,4453.2,-484.5,0,3582,1034285006848,89,0, 
1.9933,-121.5,78.9,-440.1,-14.7,6393.6,-293.7,-107.4,9830.1,157388.4,-13.5,9830.1,9817.5,118.2,9827.1,8273.1,9830.1,-6.9,-5.7,9830.1,9830.1,-0.6,72.0,4282.8,-485.7,0,3588,1034285006848,90,0, 
1.9967,-54.6,79.5,-408.3,66.3,-5182.5,-581.1,-24.3,2771.4,76989.9,141.9,296.1,719.7,-430.5,6872.7,9830.1,2887.8,-6.6,-5.7,1462.8,1822.8,-0.6,236.1,-2696.1,-548.4,0,3594,1034285006848,91,0, 
2.0000,-36.6,77.1,-395.4,93.6,-8997.6,-731.1,6.3,-9830.1,-30751.5,194.7,-9830.1,-9817.8,-773.7,-9827.4,-5013.0,-9830.1,-6.9,-6.0,-9830.1,-9830.1,-0.6,282.9,-6635.7,-580.8,0,3600,1034285006848,92,0, 
2.0033,-105.9,60.3,-433.2,14.7,-311.7,-552.9,-66.6,-9324.3,-18673.2,60.9,-7017.9,-7831.2,-486.0,-7310.4,-500.4,-9271.2,-6.9,-6.0,-8718.0,-9010.2,-0.9,150.6,-2366.7,-536.1,0,3606,1034285006848,93,0, 
2.0067,-166.2,59.4,-473.4,-60.0,9195.0,-291.9,-138.6,5659.2,99590.4,-77.7,4924.8,5486.4,59.7,8830.8,9830.1,5790.0,-6.9,-6.0,5899.2,5604.9,-0.6,13.8,4439.4,-478.2,0,3612,1034285006848,94,0, 
2.0100,-125.7,82.8,-447.0,-17.1,6593.4,-292.2,-105.9,9830.1,159240.9,-18.9,9830.1,9817.5,121.5,9827.1,8239.2,9830.1,-7.2,-6.3,9830.1,9830.1,-1.2,73.2,4441.8,-477.0,0,3618,1034285006848,95,0, 
2.0133,-55.5,79.2,-415.2,66.9,-5346.0,-588.0,-23.4,2655.3,77508.6,144.0,352.8,717.0,-440.7,6687.3,9830.1,2753.1,-7.2,-5.4,1337.4,1701.6,-1.2,237.6,-2738.4,-555.0,0,3624,1034285006848,96,0, 
2.0167,-38.7,74.7,-409.8,88.2,-9021.6,-735.6,4.8,-9830.1,-31418.4,185.7,-9830.1,-9817.8,-794.4,-9827.4,-4924.5,-9830.1,-6.9,-6.3,-9830.1,-9830.1,-0.9,286.8,-6657.3,-590.7,0,3630,1034285006848,97,0, 
2.0200,-114.3,65.4,-447.3,9.0,-125.4,-556.8,-68.7,-9248.4,-16227.9,48.3,-6793.8,-7521.9,-487.2,-6887.7,83.4,-9157.5,-6.9,-6.0,-8515.2,-8798.1,-0.9,146.7,-2242.2,-546.3,0,3636,1034285006848,98,0, 
2.0233,-166.8,67.8,-473.4,-56.1,9199.5,-299.4,-140.4,5890.2,100331.4,-74.4,4961.4,5630.1,56.4,9097.5,9830.1,6077.1,-6.9,-6.0,6139.8,5923.2,-0.9,16.5,4369.8,-483.6,0,3642,1034285006848,99,0, 
2.0267,-129.9,83.1,-460.5,-19.5,6549.6,-303.9,-112.5,9830.1,159463.2,-21.9,9830.1,9817.5,106.2,9827.1,8265.3,9830.1,-7.2,-6.0,9830.1,9830.1,-1.2,68.4,4412.4,-487.8,0,3648,1034285006848,100,0, 
2.0300,-54.0,81.0,-417.6,72.3,-5129.7,-581.1,-30.6,3141.9,80250.3,134.4,559.5,990.3,-426.9,7092.0,9830.1,3242.4,-7.2,-6.3,1789.5,2103.6,-0.9,229.8,-2598.0,-565.8,0,3654,1034285006848,101,0, 
2.0333,-48.3,74.4,-406.8,91.8,-9219.9,-737.7,-4.2,-9830.1,-30158.7,183.0,-9830.1,-9817.8,-793.5,-9827.4,-4428.9,-9830.1,-7.2,-6.0,-9830.1,-9830.1,-0.6,279.6,-6693.3,-610.5,0,3660,1034285006848,102,0, 
2.0367,-117.6,60.6,-445.8,12.6,-179.1,-554.4,-76.2,-9220.8,-16450.2,46.8,-6882.9,-7640.4,-487.2,-6921.9,218.1,-9139.8,-6.6,-5.7,-8477.4,-8827.8,-0.6,145.2,-2262.3,-561.3,0,3666,1034285006848,103,0, 
2.0400,-179.1,60.3,-483.3,-62.1,9250.8,-291.9,-149.1,5919.9,102554.4,-89.7,5176.5,5597.1,53.7,9111.9,9830.1,6068.7,-6.9,-6.3,6203.7,5896.8,-0.9,12.0,4495.2,-499.8,0,3672,1034285006848,104,0, 
2.0433,-133.5,76.8,-457.2,-15.9,6407.7,-295.8,-108.0,9830.1,159685.5,-30.0,9830.1,9817.5,99.9,9827.1,8268.6,9830.1,-7.2,-5.7,9830.1,9830.1,-0.9,69.3,4325.4,-497.1,0,3678,1034285006848,105,0, 
2.0467,-63.3,79.8,-419.7,72.3,-5192.4,-578.1,-24.3,3096.3,79879.8,131.7,540.3,796.8,-443.4,7016.1,9830.1,3132.3,-6.9,-6.0,1674.9,1985.7,-0.9,233.4,-2628.0,-575.4,0,3684,1034285006848,106,0, 
2.0500,-51.9,71.7,-410.4,86.1,-9068.7,-723.0,-1.8,-9830.1,-28528.5,177.0,-9830.1,-9817.8,-797.4,-9827.4,-3946.8,-9830.1,-7.2,-6.0,-9830.1,-9830.1,-0.6,271.5,-6610.8,-612.9,0,3690,1034285006848,107,0, 
2.0533,-114.0,66.0,-444.6,6.3,-338.7,-559.2,-73.2,-9289.8,-16005.6,46.8,-7061.7,-8067.9,-496.8,-7276.5,311.4,-9234.9,-6.6,-5.7,-8739.3,-9039.0,-0.6,145.8,-2345.7,-570.6,0,3696,1034285006848,108,0, 
