Time,P3,C3,F3,Fz,F4,C4,P4,Cz,CM,A1,Fp1,Fp2,T3,T5,O1,O2,X3,X2,F7,F8,X1,A2,T6,T4,Trigger,Time_Offset,ADC_Status,ADC_Sequence,Event,Comments
0.0033,176.1,-23.7,73.5,140.1,175.2,-97.5,53.7,25.5,-11856.0,-25.8,390.0,391.5,-18.0,-178.8,144.3,-24.0,-6.9,-6.3,48.0,39.3,-0.9,33.6,4.5,6.9,0,6,0,118,0, 
0.0067,192.9,-29.1,65.1,136.2,173.1,-108.6,48.9,20.1,-7854.6,-37.2,380.4,377.1,-27.0,-184.5,137.1,-20.7,-7.2,-6.0,41.7,28.8,-0.6,27.9,4.8,10.2,0,12,0,119,0, 
0.0100,201.0,-30.0,69.6,141.3,173.1,-102.9,48.9,19.2,1185.6,-36.3,382.5,380.1,-26.1,-186.3,137.7,-16.2,-6.9,-5.4,44.4,26.4,-0.3,23.4,9.3,13.5,0,18,0,120,0, 
0.0133,201.6,-13.8,82.5,150.9,185.1,-90.9,51.9,29.1,2815.8,-25.8,395.1,400.2,-11.1,-174.0,145.2,-21.0,-7.2,-6.0,55.2,48.6,-0.9,39.6,9.6,21.3,0,24,0,121,0, 
0.0167,186.0,-6.3,89.7,155.4,190.5,-81.9,55.5,36.3,-4816.5,-12.9,402.6,404.4,-1.8,-171.9,147.9,-16.2,-6.9,-5.1,63.3,48.9,-0.6,49.5,20.4,20.4,0,30,0,122,0, 
0.0200,183.0,-0.6,94.8,163.2,194.1,-74.1,59.1,39.0,-11707.8,-10.8,414.3,410.7,2.1,-171.9,149.4,-10.5,-6.9,-6.0,74.4,57.0,-0.6,52.2,22.8,28.2,0,36,0,123,0, 
0.0233,211.2,8.1,106.5,173.4,199.8,-69.6,56.1,42.6,-7928.7,-2.1,424.5,421.2,7.8,-175.2,145.2,-18.3,-7.2,-5.7,89.4,71.7,-0.6,57.6,9.6,40.5,0,42,0,124,0, 
0.0267,226.8,9.0,111.9,180.9,208.5,-63.0,60.6,48.9,1259.7,-6.9,434.7,428.4,7.8,-179.4,137.7,-18.0,-6.9,-6.0,93.6,78.0,-0.9,59.7,17.4,42.9,0,48,0,125,0, 
0.0300,209.4,12.0,118.2,184.8,213.3,-52.8,62.1,52.5,2445.3,-8.1,438.6,428.1,2.4,-183.0,138.9,-7.8,-6.9,-5.7,96.9,72.3,-0.9,56.4,23.7,41.1,0,54,0,126,0, 
0.0333,190.2,15.3,119.7,186.0,213.3,-54.0,62.7,59.4,-5705.7,2.1,434.4,430.5,3.9,-187.2,135.9,-10.5,-6.9,-6.0,95.1,75.6,-0.6,62.7,27.3,55.2,0,60,0,127,0, 
0.0367,183.9,12.6,118.2,183.9,211.5,-57.9,58.8,62.4,-12152.4,-7.8,427.8,426.3,-0.6,-191.7,136.2,-20.4,-6.9,-5.7,90.0,69.0,-0.3,58.2,21.6,39.0,0,66,0,128,0, 
0.0400,201.9,6.0,112.2,178.8,205.2,-64.2,53.7,55.2,-8373.3,-18.6,422.1,426.3,-8.7,-195.9,125.1,-25.2,-7.2,-6.0,80.1,72.6,-0.3,53.4,13.8,45.0,0,72,0,129,0, 
0.0433,213.3,9.6,121.2,186.6,213.6,-62.1,49.5,53.7,815.1,-11.7,432.3,430.8,-2.7,-192.9,123.6,-25.8,-6.9,-5.7,92.4,78.3,-0.3,56.1,9.3,45.3,0,78,0,130,0, 
0.0467,201.0,11.1,125.7,188.7,218.4,-59.7,51.3,55.2,2445.3,-5.7,441.3,437.4,3.0,-190.2,126.6,-21.9,-7.2,-5.4,98.4,87.9,-0.9,57.0,11.7,54.3,0,84,0,131,0, 
0.0500,186.9,18.6,131.1,193.8,222.3,-54.0,53.7,58.2,-5335.2,0.9,442.5,442.2,6.6,-188.4,132.0,-19.2,-6.9,-5.7,99.0,89.4,-0.6,65.1,16.5,46.5,0,90,0,132,0, 
0.0533,189.9,18.9,133.8,196.2,228.9,-55.2,53.1,59.4,-12152.4,3.6,447.3,451.8,11.4,-182.4,139.8,-12.9,-6.6,-5.4,102.6,98.4,-0.9,68.7,16.8,49.8,0,96,0,133,0, 
0.0567,212.7,17.1,135.3,198.0,231.3,-54.6,51.3,55.8,-8151.0,1.5,447.9,453.3,13.2,-178.8,142.2,-9.9,-7.2,-6.0,102.0,98.4,-0.6,58.8,17.7,48.6,0,102,0,134,0, 
0.0600,219.6,15.6,133.5,198.0,225.0,-60.3,45.9,50.7,963.3,-0.9,454.2,448.5,11.4,-180.9,132.9,-16.2,-6.6,-5.7,106.2,95.1,-0.9,56.7,9.9,46.2,0,108,0,135,0, 
0.0633,210.3,10.2,127.8,192.0,219.9,-64.5,40.8,48.3,2148.9,-1.8,445.2,444.3,7.8,-180.3,137.4,-19.8,-6.6,-5.7,103.5,91.2,-0.6,52.5,-0.9,42.6,0,114,0,136,0, 
0.0667,194.1,11.7,123.9,182.1,207.9,-71.4,41.4,45.0,-5853.9,-1.5,443.1,433.2,3.9,-180.0,141.9,-12.0,-7.2,-5.7,101.7,77.7,-0.9,51.0,2.1,23.7,0,120,0,137,0, 
0.0700,193.5,8.4,114.0,176.7,199.5,-92.7,38.7,39.9,-12448.8,-0.9,433.8,426.6,6.0,-172.2,150.3,-12.9,-6.6,-5.7,93.3,72.6,-0.6,50.1,-1.2,15.9,0,126,0,138,0, 
0.0733,209.4,-2.1,93.6,158.7,185.1,-99.3,33.0,28.8,-8373.3,-14.7,406.8,403.5,-3.9,-174.0,146.7,-9.0,-7.2,-6.0,67.5,59.1,-0.3,43.8,0.3,9.6,0,132,0,139,0, 
0.0767,216.9,-8.4,85.5,151.8,184.5,-100.8,26.1,21.9,1037.4,-22.2,390.6,395.7,-10.2,-177.6,133.5,-24.3,-6.6,-5.4,51.6,54.0,-0.3,35.4,-7.2,6.6,0,138,0,140,0, 
0.0800,204.9,-11.4,77.7,143.7,172.5,-110.7,25.5,15.6,2741.7,-22.2,392.7,399.6,-14.1,-174.3,142.2,-17.1,-7.2,-6.0,50.4,59.7,-0.6,37.2,-2.4,-1.8,0,144,0,141,0, 
0.0833,181.5,-19.2,70.8,139.8,171.3,-115.2,30.0,12.3,-5409.3,-21.9,398.1,401.7,-18.9,-177.0,149.4,-2.7,-6.3,-6.0,53.4,58.2,-0.6,40.8,7.8,-5.1,0,150,0,142,0, 
0.0867,184.5,-12.9,77.7,145.2,173.4,-109.5,35.4,18.0,-12522.9,-13.2,410.1,409.5,-11.7,-166.5,152.7,-27.0,-7.2,-5.7,66.0,60.0,-0.3,43.8,5.7,-4.8,0,156,0,143,0, 
0.0900,190.5,-24.3,67.2,139.2,168.3,-105.9,38.1,13.2,-8521.5,-24.3,396.9,398.4,-22.8,-171.6,144.9,-10.8,-7.2,-5.7,53.4,49.8,-0.6,34.2,10.2,-6.6,0,162,0,144,0, 
0.0933,198.9,-36.0,58.8,132.9,161.1,-114.0,37.8,5.4,592.8,-33.6,389.4,390.3,-31.2,-183.3,146.4,-4.8,-7.2,-6.0,44.4,36.0,-0.6,26.4,17.1,-4.2,0,168,0,145,0, 
0.0967,191.7,-34.2,66.6,135.3,166.8,-109.2,36.6,10.5,2148.9,-32.4,389.7,390.3,-30.3,-181.5,151.8,-3.6,-6.9,-5.7,45.0,41.4,-0.6,29.4,11.7,1.8,0,174,0,146,0, 
0.1000,183.0,-21.0,81.6,153.0,184.2,-99.0,44.4,22.8,-5779.8,-24.3,400.2,404.4,-25.2,-178.2,146.7,-20.4,-7.2,-5.4,57.6,56.1,-1.2,45.0,8.7,10.5,0,180,0,147,0, 
0.1033,181.8,-18.0,85.2,155.7,187.8,-91.2,48.9,23.7,-12448.8,-25.2,401.4,407.1,-23.7,-178.8,139.2,-22.8,-7.2,-6.0,55.8,58.8,-0.9,43.8,15.9,10.5,0,186,0,148,0, 
0.1067,194.7,-18.9,79.8,153.0,185.7,-92.7,46.8,18.3,-8299.2,-31.5,398.1,405.6,-26.7,-180.0,143.7,-26.7,-7.2,-5.7,52.2,58.5,-0.9,30.9,10.8,13.2,0,192,0,149,0, 
0.1100,206.1,-16.5,80.4,154.2,185.1,-86.7,53.7,24.0,1111.5,-28.5,399.0,402.9,-21.6,-182.7,138.3,-16.5,-6.9,-6.0,61.2,57.3,-0.9,42.3,26.4,20.7,0,198,0,150,0, 
0.1133,204.3,-10.8,86.7,160.8,192.9,-77.4,60.3,29.7,2889.9,-21.6,413.4,413.4,-17.4,-180.6,139.5,-12.0,-6.9,-5.7,68.4,69.3,-0.3,44.7,36.0,28.2,0,204,0,151,0, 
0.1167,183.9,-2.4,93.9,167.1,197.7,-74.1,66.6,36.3,-5409.3,-16.8,418.8,418.8,-13.8,-175.5,144.0,0.6,-6.6,-5.7,72.9,67.5,-0.9,48.3,45.3,29.1,0,210,0,152,0, 
0.1200,183.0,-2.4,90.6,166.2,192.9,-72.9,67.8,36.6,-12448.8,-19.5,410.7,409.2,-10.8,-173.1,152.7,7.2,-7.2,-6.0,66.3,63.9,-0.6,43.2,47.7,14.7,0,216,0,153,0, 
0.1233,199.8,3.3,93.6,173.1,198.9,-83.1,54.6,39.9,-7928.7,-21.0,409.5,414.9,-3.0,-173.4,135.6,-15.9,-6.9,-5.7,66.9,69.6,-0.9,51.3,29.1,36.9,0,222,0,154,0, 
0.1267,216.9,1.8,95.7,173.7,196.2,-86.1,52.2,40.5,1111.5,-21.9,407.7,410.7,-1.2,-174.0,128.4,-28.5,-6.9,-5.7,64.2,68.7,-0.9,44.7,22.8,33.0,0,228,0,155,0, 
0.1300,201.0,3.6,96.6,172.5,192.9,-84.6,50.1,36.9,2667.6,-20.1,410.1,415.2,-2.1,-178.5,131.1,-21.6,-7.5,-6.0,70.8,63.0,-0.6,38.7,24.3,25.5,0,234,0,156,0, 
0.1333,189.6,12.0,107.7,180.3,201.0,-84.0,48.3,42.3,-5261.1,-11.4,427.8,426.9,5.1,-178.5,134.1,-27.9,-7.2,-5.7,92.4,71.7,-0.3,47.4,18.0,22.5,0,240,0,157,0, 
0.1367,193.5,14.1,111.6,181.5,201.6,-82.2,49.5,42.9,-11930.1,-11.4,430.8,427.2,8.7,-175.2,132.9,-23.4,-7.2,-6.0,92.1,70.5,-0.3,47.4,13.2,21.3,0,246,0,158,0, 
0.1400,210.0,6.0,105.9,173.4,193.8,-87.3,41.4,38.7,-7928.7,-16.8,417.9,414.0,8.7,-181.8,129.0,-31.5,-7.5,-6.0,80.4,60.6,-0.6,40.2,6.0,20.1,0,252,0,159,0, 
0.1433,217.8,2.4,97.8,165.6,190.5,-90.9,33.6,33.3,1037.4,-22.8,411.3,410.1,4.5,-189.3,126.9,-33.0,-6.9,-5.4,75.3,52.5,-0.3,27.6,-1.2,14.1,0,258,0,160,0, 
0.1467,199.2,-1.8,95.4,161.7,182.4,-94.5,27.6,29.7,3112.2,-29.1,406.8,408.6,-4.5,-195.0,124.8,-35.4,-6.9,-5.7,71.1,48.9,-0.6,22.5,-14.4,-0.3,0,264,0,161,0, 
0.1500,191.7,4.2,100.2,171.0,190.2,-82.2,31.8,36.6,-5261.1,-23.1,417.9,417.9,-2.1,-191.4,130.8,-39.0,-6.9,-6.0,76.8,60.0,-0.6,27.3,-8.7,6.6,0,270,0,162,0, 
0.1533,183.9,-0.6,97.2,168.0,189.3,-84.3,34.8,35.7,-11263.2,-22.8,412.2,413.4,-8.1,-197.7,131.7,-38.7,-7.2,-5.7,67.8,54.3,-0.3,27.6,-7.8,15.0,0,276,0,163,0, 
0.1567,199.5,-2.7,96.3,172.8,195.0,-79.8,31.8,37.5,-7410.0,-31.2,411.9,412.2,-11.1,-195.9,128.7,-40.2,-7.2,-5.1,68.1,53.7,-0.6,23.7,-19.2,13.8,0,282,0,164,0, 
0.1600,204.6,-13.5,90.3,165.9,188.1,-87.3,34.8,33.6,1852.5,-39.3,406.8,408.9,-20.7,-202.8,125.1,-33.6,-7.2,-5.4,62.7,47.4,-0.6,17.7,-8.4,12.0,0,288,0,165,0, 
0.1633,190.2,-16.8,88.5,165.9,188.7,-82.2,35.1,32.7,3038.1,-36.0,406.5,405.0,-18.6,-204.0,129.6,-33.0,-6.9,-5.7,65.4,44.7,-1.2,18.6,-8.4,9.9,0,294,0,166,0, 
0.1667,172.5,-18.3,89.7,166.2,182.4,-88.5,35.4,33.0,-4594.2,-32.7,414.0,407.4,-21.3,-212.4,127.2,-28.5,-6.9,-6.0,69.9,42.3,-0.3,19.8,-9.9,0.3,0,300,0,167,0, 
0.1700,182.7,-8.1,97.2,172.5,191.1,-82.5,39.9,42.3,-10818.6,-22.8,413.7,405.6,-8.7,-197.7,130.8,-39.6,-7.2,-5.4,79.5,43.8,-0.6,25.2,-16.8,3.9,0,306,0,168,0, 
0.1733,203.1,-13.8,89.4,164.1,185.7,-84.6,45.3,34.5,-7410.0,-32.1,400.5,393.9,-18.0,-195.9,138.0,-22.5,-6.9,-6.0,62.7,30.9,-0.6,21.6,-3.0,-6.3,0,312,0,169,0, 
0.1767,212.7,-15.3,82.8,156.3,182.1,-86.4,38.7,32.1,1704.3,-38.1,390.0,387.6,-18.9,-198.9,125.7,-34.2,-6.6,-5.7,55.5,26.4,-0.6,10.8,-12.9,-12.0,0,318,0,170,0, 
0.1800,206.4,-12.0,85.5,157.5,182.7,-84.9,39.6,32.7,3705.0,-33.6,396.6,400.8,-14.7,-191.7,131.4,-39.9,-7.2,-6.0,62.4,39.0,-0.9,21.3,-6.3,1.5,0,324,0,171,0, 
0.1833,190.8,-6.9,84.0,153.3,183.6,-86.4,42.0,31.8,-4149.6,-24.9,393.0,402.9,-11.1,-187.5,143.1,-32.7,-6.9,-5.4,56.7,39.0,-0.9,27.6,-6.0,3.9,0,330,0,172,0, 
0.1867,192.9,-11.7,77.1,146.7,177.6,-81.0,47.1,25.5,-10892.7,-35.1,386.4,397.2,-16.5,-186.0,144.6,-30.0,-6.9,-5.7,47.7,39.9,-0.9,25.5,3.0,3.3,0,336,0,173,0, 
0.1900,201.3,-16.2,72.9,145.5,175.5,-92.7,46.5,21.0,-6669.0,-30.6,387.0,393.9,-20.4,-187.8,139.2,-28.2,-7.2,-6.0,49.5,37.8,-0.3,24.0,3.0,0.0,0,342,0,174,0, 
0.1933,210.3,-26.4,63.3,137.1,165.3,-105.0,40.2,9.6,2741.7,-36.6,386.4,389.1,-28.2,-190.8,133.8,-31.5,-6.6,-5.7,48.6,28.2,-1.5,17.4,-0.3,-5.7,0,348,0,175,0, 
0.1967,200.7,-27.6,54.6,130.8,158.1,-104.4,38.7,8.7,4668.3,-44.4,375.9,381.9,-32.7,-188.4,142.8,-31.2,-7.5,-6.0,39.0,23.1,-0.6,10.8,-2.1,-6.9,0,354,0,176,0, 
0.2000,181.5,-28.5,59.4,136.2,162.0,-102.3,42.9,12.6,-3408.6,-39.9,378.3,386.1,-32.4,-190.2,129.9,-41.1,-6.9,-5.7,39.6,25.8,-0.6,19.8,3.0,-3.9,0,360,0,177,0, 
0.2033,181.5,-31.2,55.2,133.5,160.2,-100.5,45.3,15.6,-10003.5,-45.3,370.8,378.0,-32.7,-185.7,137.1,-32.1,-7.2,-6.3,33.3,19.5,-0.6,17.4,5.4,-4.8,0,366,0,178,0, 
0.2067,190.2,-33.0,54.9,130.5,157.5,-107.4,42.9,9.9,-6446.7,-48.3,369.3,372.0,-30.9,-189.9,128.1,-32.1,-6.9,-5.7,27.6,12.3,-0.6,14.7,7.2,-4.8,0,372,0,179,0, 
0.2100,195.6,-34.5,51.6,132.3,159.6,-107.4,35.1,4.8,3482.7,-56.1,369.0,379.5,-33.0,-190.8,136.2,-31.5,-6.6,-6.0,26.7,12.9,-0.6,-0.3,0.3,-6.3,0,378,0,180,0, 
0.2133,192.3,-20.7,71.1,147.3,170.4,-104.4,38.4,20.1,4668.3,-37.5,391.2,400.5,-16.5,-183.0,129.0,-37.8,-6.6,-5.7,51.6,33.6,-0.9,20.4,1.8,3.9,0,384,0,181,0, 
0.2167,172.8,-18.9,79.2,152.1,178.2,-103.2,40.2,25.8,-3038.1,-32.4,396.9,401.7,-15.9,-186.6,128.4,-33.3,-7.2,-6.0,54.0,34.2,-0.6,24.9,15.9,2.7,0,390,0,182,0, 
0.2200,168.3,-14.1,84.0,157.8,184.5,-96.3,44.7,29.4,-9558.9,-27.0,396.0,399.0,-11.1,-183.0,133.8,-23.1,-6.9,-5.4,51.9,30.6,-0.3,30.0,22.5,-7.8,0,396,0,183,0, 
0.2233,186.9,-12.0,84.9,163.2,187.2,-98.7,36.9,27.3,-5335.2,-29.4,398.1,401.7,-8.7,-183.6,138.0,-30.9,-7.2,-6.0,54.3,37.8,-0.9,29.7,5.1,12.6,0,402,0,184,0, 
0.2267,197.1,-9.9,93.0,169.8,194.1,-93.6,34.8,29.7,3705.0,-29.7,406.8,411.6,-3.6,-184.8,127.2,-35.7,-6.6,-5.4,61.5,41.7,-0.3,35.1,8.1,19.5,0,408,0,185,0, 
0.2300,185.4,-7.2,93.3,173.7,197.1,-90.3,38.4,35.1,5409.3,-24.6,410.1,418.5,-7.5,-191.4,119.7,-36.0,-7.2,-5.7,63.3,47.4,-0.6,31.8,8.1,21.6,0,414,0,186,0, 
0.2333,170.4,2.1,102.9,182.1,204.0,-87.3,45.6,38.4,-2445.3,-16.8,418.2,424.8,-0.9,-191.1,128.4,-32.7,-6.9,-6.0,72.3,56.4,-0.9,46.8,11.4,25.5,0,420,0,187,0, 
0.2367,168.3,3.6,105.6,184.8,202.5,-84.0,44.7,43.2,-9114.3,-17.1,423.9,427.5,1.8,-195.6,125.7,-36.6,-7.2,-6.0,75.9,60.9,-0.3,40.8,4.8,23.1,0,426,0,188,0, 
0.2400,178.8,-0.6,108.0,183.0,201.3,-72.9,49.2,44.7,-5409.3,-23.7,420.0,424.2,1.8,-198.3,122.4,-27.0,-6.9,-6.0,71.7,57.6,-0.6,40.2,12.6,24.0,0,432,0,189,0, 
0.2433,189.9,0.6,109.2,189.0,203.1,-83.4,39.3,46.2,3705.0,-19.5,429.3,431.1,4.8,-198.3,117.0,-38.7,-6.9,-6.3,78.9,64.8,-0.6,38.7,-0.9,27.3,0,438,0,190,0, 
0.2467,186.6,0.9,112.8,189.9,204.9,-78.9,41.4,47.7,5409.3,-14.4,432.9,432.9,9.0,-192.0,139.5,-31.5,-6.9,-6.3,82.8,68.1,-0.6,43.5,-6.9,28.2,0,444,0,191,0, 
0.2500,169.5,2.1,115.8,191.1,208.5,-69.0,51.0,52.8,-2519.4,-9.6,434.4,436.2,10.5,-195.9,135.6,-21.3,-6.9,-5.7,85.8,69.3,-0.3,45.6,7.8,26.4,0,450,0,192,0, 
0.2533,173.1,5.7,117.0,194.1,215.7,-62.4,53.4,55.8,-9410.7,-11.1,429.0,436.5,11.1,-191.7,125.7,-28.2,-7.2,-5.7,83.7,62.7,-0.9,45.9,5.1,32.4,0,456,0,193,0, 
0.2567,195.6,-1.8,106.8,188.4,207.9,-74.1,45.3,51.0,-5705.7,-8.1,419.1,425.1,12.9,-189.0,123.0,-42.3,-6.9,-6.0,75.0,55.8,-0.6,43.5,-10.8,31.5,0,462,0,194,0, 
0.2600,205.5,-11.4,97.8,182.4,204.6,-73.2,45.3,42.6,3186.3,-17.4,408.9,414.0,9.3,-188.7,122.4,-26.1,-7.2,-6.0,66.0,48.0,-0.3,35.7,-0.6,31.2,0,468,0,195,0, 
0.2633,201.6,-10.5,102.3,185.4,206.7,-73.5,43.5,42.3,4964.7,-15.6,422.1,429.6,6.6,-190.2,136.5,-27.0,-6.9,-5.7,72.9,63.6,-0.3,39.3,-7.8,27.3,0,474,0,196,0, 
0.2667,187.8,-9.0,103.8,183.9,205.8,-77.1,45.6,40.8,-3408.6,-13.8,428.1,435.0,4.8,-188.7,141.9,-20.1,-6.9,-6.0,75.0,65.4,-0.9,45.6,7.2,30.9,0,480,0,197,0, 
0.2700,190.2,-2.1,108.0,190.5,209.4,-75.6,42.6,44.4,-9558.9,-4.2,429.6,437.1,9.0,-177.9,144.9,-38.7,-7.2,-5.7,76.2,73.2,-0.9,56.7,-8.7,29.7,0,486,0,198,0, 
0.2733,215.7,-5.1,105.3,183.0,200.4,-79.5,42.0,40.2,-6446.7,-11.7,417.0,426.0,7.8,-172.5,150.9,-27.3,-6.9,-6.0,67.2,66.6,-0.9,47.7,0.0,29.7,0,492,0,199,0, 
0.2767,219.9,-12.3,96.3,175.5,191.7,-86.7,36.6,33.9,3038.1,-18.9,415.8,422.4,-3.6,-177.3,152.7,-28.2,-6.6,-6.3,65.4,56.1,-0.9,37.8,-3.9,19.5,0,498,0,200,0, 
0.2800,208.5,-9.3,102.9,176.4,191.1,-89.1,37.2,33.3,4742.4,-15.6,425.4,428.7,2.1,-175.5,151.2,-21.3,-6.9,-6.0,75.9,64.8,-0.3,40.5,5.1,15.6,0,504,0,201,0, 
0.2833,192.0,-10.2,98.1,173.1,187.8,-88.8,44.4,31.2,-3630.9,-17.1,421.8,423.9,2.1,-172.2,158.4,-8.4,-6.9,-6.0,72.9,53.7,-0.9,40.2,11.7,15.6,0,510,0,202,0, 
0.2867,196.2,-7.2,97.8,171.9,189.6,-87.0,44.1,33.6,-10448.1,-14.1,412.5,418.5,2.4,-163.2,159.0,-21.6,-6.6,-6.0,66.0,47.4,-0.9,45.9,8.7,22.2,0,516,0,203,0, 
0.2900,201.9,-16.8,88.5,164.1,176.7,-94.2,41.7,26.7,-6743.1,-24.9,398.7,403.5,-2.1,-167.4,157.5,-25.8,-6.9,-5.7,51.0,34.8,-0.6,35.1,3.6,18.6,0,522,0,204,0, 
0.2933,212.4,-18.0,84.3,162.9,177.0,-89.4,44.4,27.3,2667.6,-19.8,397.8,404.4,-4.2,-171.6,147.0,-24.0,-7.2,-5.7,50.1,40.5,-0.9,34.5,14.7,19.8,0,528,0,205,0, 
0.2967,200.1,-25.5,75.3,152.4,169.2,-93.9,48.6,21.9,4297.8,-28.2,390.0,401.7,-10.5,-174.3,153.9,-22.8,-7.5,-5.7,41.7,39.0,-0.9,31.8,17.7,12.6,0,534,0,206,0, 
0.3000,177.3,-27.6,70.5,148.2,160.5,-97.5,49.5,17.7,-3630.9,-27.3,389.4,401.1,-14.7,-172.5,149.1,-12.3,-6.9,-6.0,35.4,34.5,-0.6,35.4,29.7,9.0,0,540,0,207,0, 
0.3033,174.0,-27.0,69.0,145.8,163.5,-86.4,54.6,20.1,-10374.0,-31.5,383.1,392.7,-15.6,-170.7,155.1,-13.2,-6.9,-5.7,30.3,30.0,-0.6,26.1,33.0,16.8,0,546,0,208,0, 
0.3067,186.9,-31.2,62.1,144.3,161.4,-93.9,50.4,18.6,-7335.9,-38.4,377.1,386.4,-19.2,-170.7,148.8,-9.3,-6.6,-6.0,23.4,29.1,-0.6,24.9,27.6,21.6,0,552,0,209,0, 
0.3100,198.6,-26.7,69.6,149.4,165.0,-97.8,41.1,22.8,1704.3,-29.4,383.1,388.8,-12.0,-172.2,138.6,-43.8,-7.2,-6.0,33.0,36.6,-0.6,28.2,0.6,7.8,0,558,0,210,0, 
0.3133,191.7,-26.1,71.4,150.6,169.2,-98.1,48.0,18.3,4149.6,-27.3,390.6,394.8,-10.5,-174.9,145.5,-19.8,-7.2,-5.7,36.6,36.3,-0.9,32.1,15.3,17.4,0,564,0,211,0, 
0.3167,178.5,-16.2,79.5,156.6,178.8,-92.4,49.5,22.5,-4223.7,-18.6,395.4,401.1,-5.7,-171.0,144.6,-27.3,-6.6,-6.0,44.1,46.2,-0.6,43.8,14.1,26.4,0,570,0,212,0, 
0.3200,176.1,-17.1,81.0,155.1,178.5,-92.4,48.3,25.5,-10522.2,-24.0,393.6,398.4,-6.6,-174.0,153.0,-21.6,-6.6,-5.4,40.8,40.2,-1.2,32.7,13.5,18.0,0,576,0,213,0, 
0.3233,194.1,-8.7,89.7,166.5,189.6,-87.6,46.5,31.5,-6817.2,-17.1,403.5,406.2,1.8,-173.7,146.1,-30.9,-6.6,-5.7,54.6,51.6,-0.6,36.0,8.1,23.7,0,582,0,214,0, 
0.3267,204.9,-12.6,85.8,161.7,186.6,-90.0,48.3,29.1,2074.8,-25.2,398.1,405.0,1.5,-175.2,151.8,-10.5,-6.9,-5.7,48.0,51.0,-1.2,30.6,11.7,13.2,0,588,0,215,0, 
0.3300,198.6,-7.2,93.6,171.6,193.8,-84.6,46.2,34.5,3927.3,-17.4,411.6,415.2,7.5,-182.1,138.0,-29.4,-6.6,-6.0,62.1,54.9,-0.9,39.0,9.6,9.3,0,594,0,216,0, 
0.3333,178.5,-3.0,102.9,177.6,200.4,-82.5,50.4,41.4,-3853.2,-11.1,416.4,425.4,10.2,-181.5,142.8,-27.3,-6.9,-6.0,64.5,60.6,-0.6,49.2,9.0,22.5,0,600,0,217,0, 
0.3367,171.0,-2.1,105.0,177.3,207.0,-81.0,50.1,42.0,-10596.3,-11.1,416.4,424.2,10.8,-186.0,139.5,-29.1,-6.6,-5.7,64.2,65.7,-0.3,48.6,3.9,33.0,0,606,0,218,0, 
0.3400,184.5,-10.2,96.6,173.4,202.5,-84.6,45.9,39.6,-6965.4,-19.8,404.4,411.0,6.0,-194.1,131.1,-29.1,-6.9,-6.0,54.3,53.7,-0.9,39.3,0.0,29.4,0,612,0,219,0, 
0.3433,193.8,-14.4,89.1,171.0,202.5,-85.2,40.8,35.7,1852.5,-29.7,399.6,404.4,1.2,-200.7,125.7,-33.6,-6.6,-5.7,47.1,48.6,-0.9,29.4,-8.4,26.7,0,618,0,220,0, 
0.3467,182.1,-16.8,90.6,170.1,197.7,-90.0,39.9,29.7,3779.1,-26.1,408.0,415.2,0.0,-206.4,125.1,-24.6,-7.2,-5.7,52.2,62.1,-0.9,36.0,-6.0,28.2,0,624,0,221,0, 
0.3500,167.7,-5.4,103.2,180.3,211.2,-84.3,42.3,39.6,-4075.5,-12.3,426.3,434.1,9.3,-195.3,132.6,-32.1,-6.9,-5.7,69.9,70.5,-0.6,51.3,-2.4,34.5,0,630,0,222,0, 
0.3533,171.9,-3.0,106.2,183.6,213.0,-81.9,45.3,39.9,-11040.9,-11.4,425.7,432.9,10.8,-196.5,136.8,-15.6,-6.9,-6.0,66.6,72.0,-0.9,50.7,5.1,36.0,0,636,0,223,0, 
0.3567,190.5,-3.6,101.7,181.2,208.2,-84.6,38.7,37.2,-6743.1,-13.5,419.7,425.7,5.4,-191.4,133.8,-28.8,-6.9,-5.4,63.0,63.3,-0.9,43.2,-4.5,33.0,0,642,0,224,0, 
0.3600,201.9,-6.6,101.7,178.8,204.9,-85.8,35.7,33.0,2074.8,-18.3,417.9,426.9,2.7,-189.6,137.7,-23.4,-6.6,-6.0,64.2,62.1,-0.9,36.9,-2.4,29.7,0,648,0,225,0, 
0.3633,201.3,-0.3,108.3,184.8,212.4,-72.6,40.8,44.4,3927.3,-6.3,431.7,439.2,12.6,-180.9,144.0,-23.4,-6.9,-6.0,76.2,69.0,-0.6,48.6,-0.9,37.5,0,654,0,226,0, 
0.3667,186.9,9.9,117.3,189.9,220.2,-76.2,39.9,49.8,-3853.2,6.3,443.7,449.7,22.8,-172.2,151.8,-26.1,-6.6,-5.7,87.3,82.2,-0.9,63.3,5.1,42.6,0,660,0,227,0, 
0.3700,194.7,18.0,121.8,198.6,226.5,-70.5,44.4,56.4,-10596.3,12.3,442.2,452.1,29.4,-162.3,160.8,-21.9,-6.9,-6.3,89.4,86.1,-0.6,63.3,5.1,53.4,0,666,0,228,0, 
0.3733,210.9,17.7,115.2,195.6,220.8,-72.6,39.6,54.6,-7335.9,5.1,431.4,441.3,29.4,-153.3,158.4,-17.7,-7.2,-6.3,79.2,75.9,-0.6,55.2,2.7,42.3,0,672,0,229,0, 
0.3767,225.3,12.0,112.8,195.9,219.0,-70.2,44.7,51.3,1852.5,0.9,428.1,435.0,29.7,-153.6,159.0,-17.1,-6.9,-6.0,74.7,72.3,-0.9,56.7,8.7,46.2,0,678,0,230,0, 
0.3800,216.3,15.9,113.7,191.7,217.5,-72.0,46.5,49.5,3556.8,3.6,430.5,436.2,29.4,-151.2,160.5,-13.8,-7.2,-6.3,75.0,75.0,-0.3,65.4,16.5,44.1,0,684,0,231,0, 
0.3833,201.6,16.2,112.2,192.0,220.8,-63.3,52.5,49.5,-4297.8,6.3,430.5,440.1,28.8,-150.0,172.5,1.2,-6.9,-5.7,77.4,77.4,-0.6,65.1,23.4,51.9,0,690,0,232,0, 
0.3867,197.1,18.9,112.5,189.3,213.6,-70.2,53.4,47.1,-10892.7,9.6,434.7,440.4,35.1,-141.3,168.0,-12.0,-6.9,-5.7,79.8,79.5,-0.3,69.0,26.4,41.4,0,696,0,233,0, 
0.3900,208.5,6.6,101.4,176.7,204.3,-73.8,49.8,35.7,-7335.9,0.0,423.9,427.2,28.5,-147.3,164.4,-7.8,-7.2,-5.4,70.2,67.5,-0.3,53.4,28.2,38.4,0,702,0,234,0, 
0.3933,220.5,1.5,98.4,175.5,199.2,-78.9,48.3,32.4,1778.4,-0.9,423.9,430.8,27.9,-147.6,160.2,-9.0,-6.9,-5.7,68.4,77.4,-0.6,59.7,27.9,45.6,0,708,0,235,0, 
0.3967,204.9,-2.1,95.4,167.4,194.1,-81.9,48.6,30.3,3556.8,-1.5,416.4,426.0,25.2,-145.5,170.4,0.0,-6.9,-6.0,62.4,66.9,-0.9,57.6,32.1,38.7,0,714,0,236,0, 
0.4000,190.8,3.3,100.8,169.2,195.6,-78.6,55.5,38.4,-3779.1,7.2,420.3,428.1,29.4,-146.7,165.9,-5.7,-6.9,-5.7,65.7,71.4,-0.6,61.2,37.5,42.6,0,720,0,237,0, 
0.4033,181.8,1.8,98.1,167.1,191.4,-77.1,52.8,38.1,-10966.8,-0.9,409.8,418.8,24.0,-151.5,162.3,-12.9,-6.6,-5.7,57.0,61.5,-0.9,54.0,29.1,37.8,0,726,0,238,0, 
0.4067,190.2,-7.8,88.8,161.1,181.2,-84.0,48.9,32.1,-7632.3,-10.8,399.6,406.2,14.1,-159.3,157.2,-8.7,-6.9,-6.0,43.5,48.3,-0.6,44.1,34.2,13.8,0,732,0,239,0, 
0.4100,202.2,-9.9,92.7,168.9,194.1,-81.9,47.7,35.7,1926.6,-8.1,401.4,409.5,15.3,-160.5,148.5,-16.8,-6.9,-6.3,48.3,54.6,-0.9,38.1,16.8,31.2,0,738,0,240,0, 
0.4133,195.9,-6.3,98.7,174.9,200.7,-78.3,51.0,41.4,3482.7,-5.7,417.6,416.1,15.3,-159.3,157.8,-10.5,-6.9,-5.7,63.6,56.7,-0.6,43.5,24.6,36.0,0,744,0,241,0, 
0.4167,176.4,-0.9,109.5,187.2,212.1,-69.6,54.0,45.9,-4149.6,0.6,429.9,432.3,24.3,-165.0,154.5,-11.4,-7.2,-6.0,75.9,66.9,-0.3,50.1,23.4,33.6,0,750,0,242,0, 
0.4200,175.8,0.0,113.7,189.0,219.0,-66.6,57.6,52.5,-11337.3,-5.4,426.0,433.5,24.3,-163.2,160.8,-0.3,-6.9,-6.3,71.1,63.6,-0.6,46.8,35.7,31.8,0,756,0,243,0, 
0.4233,190.5,10.5,123.6,204.6,234.0,-51.6,54.0,59.1,-8151.0,1.2,427.5,435.3,35.1,-162.0,139.2,-26.4,-6.9,-5.7,72.3,76.5,-0.3,54.9,15.6,42.9,0,762,0,244,0, 
0.4267,199.8,4.2,112.8,195.3,225.6,-58.8,51.9,51.6,889.2,-6.3,417.9,425.1,26.4,-166.5,146.7,-9.3,-7.2,-5.7,62.1,60.0,-0.9,50.4,24.6,38.4,0,768,0,245,0, 
0.4300,187.5,11.1,120.9,201.6,226.2,-69.3,50.7,54.9,2667.6,7.5,435.0,441.9,35.1,-166.2,142.5,-17.7,-6.9,-5.7,78.3,77.4,-0.3,64.2,24.9,46.5,0,774,0,246,0, 
0.4333,172.5,13.5,123.9,203.4,232.5,-63.6,51.0,58.2,-4520.1,15.9,441.9,443.1,38.4,-164.7,156.9,-3.6,-6.9,-6.0,83.4,85.5,-0.9,71.1,21.0,48.3,0,780,0,247,0, 
0.4367,177.6,27.3,133.8,210.3,240.0,-57.6,50.7,61.5,-11856.0,24.6,454.5,451.8,47.1,-161.1,153.3,-16.5,-7.2,-5.7,95.4,89.4,-0.6,76.8,20.4,48.0,0,786,0,248,0, 
0.4400,195.6,23.7,127.2,204.0,234.3,-60.3,46.2,60.0,-8002.8,18.9,449.1,441.6,45.6,-167.1,154.8,-9.9,-7.5,-6.0,86.7,81.6,-0.6,70.2,21.9,44.7,0,792,0,249,0, 
0.4433,211.8,30.3,128.7,206.1,237.0,-57.9,46.8,60.0,963.3,19.2,441.9,440.7,47.7,-161.4,148.5,-5.7,-7.2,-5.7,86.1,79.2,-1.2,69.6,29.7,56.1,0,798,0,250,0, 
0.4467,207.6,33.0,137.7,207.0,238.5,-58.2,42.3,63.3,2964.0,26.1,450.3,449.1,49.8,-159.9,158.7,-6.0,-6.9,-5.7,93.0,84.6,-1.2,78.3,19.2,52.2,0,804,0,251,0, 
0.4500,193.5,42.6,148.8,220.8,246.6,-51.3,47.1,71.7,-4890.6,34.8,462.3,464.4,54.3,-155.7,160.2,-9.3,-6.9,-6.3,106.5,95.4,-0.3,91.5,28.2,62.4,0,810,0,252,0, 
0.4533,195.0,41.7,152.1,220.5,246.3,-47.7,47.4,73.2,-11707.8,36.9,458.7,462.9,54.6,-156.3,165.9,5.1,-6.9,-5.4,106.5,97.5,-0.6,95.7,39.9,67.8,0,816,0,253,0, 
0.4567,218.1,46.2,149.1,219.3,243.9,-45.9,49.2,71.7,-8151.0,36.0,458.7,460.2,56.1,-147.3,176.1,5.4,-6.9,-5.4,103.5,96.3,-0.9,90.9,41.1,67.2,0,822,0,254,0, 
0.4600,233.1,43.5,148.8,219.3,244.5,-44.7,49.5,73.5,518.7,36.3,457.8,457.8,57.0,-147.3,166.5,1.5,-7.5,-5.4,102.0,95.7,-0.9,92.4,39.0,68.7,0,828,0,255,0, 
0.4633,223.5,37.8,138.9,209.1,237.0,-56.1,54.3,64.8,2371.2,31.2,453.3,452.7,48.0,-150.6,175.2,8.7,-7.2,-5.7,95.7,92.1,-0.9,86.7,43.2,66.0,0,834,0,0,0, 
0.4667,204.3,35.4,133.2,203.1,231.3,-57.9,53.4,61.5,-5409.3,32.7,450.9,447.3,46.8,-148.8,181.8,1.8,-7.2,-6.3,95.7,86.4,-0.6,84.3,39.3,53.4,0,840,0,1,0, 
0.4700,201.6,24.0,122.1,192.6,226.2,-63.3,52.8,53.4,-11930.1,20.1,433.8,440.1,34.8,-148.2,181.2,-3.0,-6.6,-6.0,79.5,78.9,-0.6,75.6,38.7,45.0,0,846,0,2,0, 
0.4733,210.6,6.6,99.6,170.1,200.4,-81.6,48.3,38.4,-9040.2,0.6,414.0,414.6,21.3,-153.0,177.3,-4.2,-6.9,-5.7,62.1,62.1,-0.9,61.2,30.3,35.1,0,852,0,3,0, 
0.4767,219.3,-4.5,90.0,161.1,189.3,-88.5,45.0,30.9,74.1,-5.1,408.0,406.8,11.7,-159.3,154.2,-15.6,-6.9,-6.0,54.6,51.9,-0.9,55.5,23.7,42.3,0,858,0,4,0, 
0.4800,208.8,-7.5,82.2,153.3,180.0,-96.3,42.6,23.1,1926.6,-7.2,402.3,401.7,10.5,-160.5,150.9,-14.7,-7.2,-6.0,48.6,48.9,-0.9,51.0,21.3,27.3,0,864,0,5,0, 
0.4833,190.8,-12.3,78.0,148.8,174.0,-99.6,43.8,21.6,-5928.0,-9.9,395.7,393.6,2.4,-161.7,160.8,-13.5,-6.6,-5.7,40.5,36.9,-1.2,46.2,18.3,20.7,0,870,0,6,0, 
0.4867,183.9,-17.1,67.5,137.1,165.6,-95.7,47.4,18.6,-12819.3,-15.0,381.0,385.2,-2.1,-163.8,156.0,-15.0,-6.9,-6.0,27.0,30.0,-0.6,36.0,18.6,8.4,0,876,0,7,0, 
0.4900,198.6,-25.8,57.3,132.6,162.6,-112.8,44.7,15.0,-9558.9,-25.8,363.6,378.9,-12.9,-165.6,152.7,-20.4,-7.2,-6.3,7.5,26.7,-0.6,33.3,13.2,11.1,0,882,0,8,0, 
0.4933,204.9,-36.0,49.2,122.7,153.0,-111.0,44.1,8.1,-222.3,-37.2,355.5,362.4,-21.0,-171.0,149.1,-18.9,-6.9,-5.7,-1.5,14.4,-0.6,21.6,9.3,6.0,0,888,0,9,0, 
0.4967,194.1,-36.9,51.9,124.2,155.4,-108.3,45.6,13.2,2223.0,-34.5,366.3,374.1,-22.5,-169.8,144.3,-16.2,-6.9,-5.7,7.5,24.0,-0.6,27.0,12.6,9.6,0,894,0,10,0, 
0.5000,173.7,-36.3,53.4,129.6,161.7,-98.4,48.3,16.8,-5409.3,-27.6,372.6,376.5,-17.1,-166.5,152.4,-11.4,-6.9,-6.0,17.4,25.2,-0.6,33.0,16.5,9.9,0,900,0,11,0, 
0.5033,167.1,-36.3,57.3,129.9,164.4,-96.9,50.4,18.6,-12300.6,-27.6,375.3,379.2,-17.1,-167.7,156.9,-8.4,-6.9,-6.0,15.3,24.0,-0.9,33.6,18.6,7.2,0,906,0,12,0, 
0.5067,184.8,-35.1,60.0,133.8,167.1,-92.1,51.3,17.1,-8595.6,-30.3,378.3,380.4,-17.1,-169.2,145.2,-16.2,-6.6,-6.0,18.3,28.8,-0.6,31.2,15.3,-9.9,0,912,0,13,0, 
0.5100,194.1,-35.7,65.4,142.8,172.8,-96.0,48.3,20.1,370.5,-28.5,385.5,391.2,-13.8,-165.9,144.6,-12.6,-6.9,-5.7,23.4,35.7,-0.6,37.5,14.7,23.1,0,918,0,14,0, 
0.5133,182.7,-31.2,71.7,150.9,182.1,-92.4,49.8,24.9,2519.4,-17.4,395.7,401.1,-10.5,-167.1,152.4,-12.6,-6.6,-5.7,30.6,41.4,-0.9,40.5,15.6,30.3,0,924,0,15,0, 
0.5167,162.9,-28.2,80.7,159.9,189.3,-85.5,51.3,30.0,-5038.8,-12.3,401.1,406.5,-6.6,-164.7,154.5,-17.4,-7.2,-5.7,39.9,47.4,-0.6,46.8,18.0,32.1,0,930,0,16,0, 
0.5200,165.0,-18.0,91.8,172.5,202.8,-74.7,56.7,39.6,-12004.2,-5.4,412.2,417.6,-0.3,-160.5,156.0,-8.7,-7.2,-5.7,51.6,59.1,-0.9,55.8,23.1,37.2,0,936,0,17,0, 
0.5233,185.7,-15.6,100.8,181.5,204.6,-77.4,54.9,45.3,-9114.3,-2.4,423.9,428.7,8.1,-161.4,148.5,-12.0,-7.5,-6.0,59.4,65.4,-0.6,63.9,22.5,48.6,0,942,0,18,0, 
0.5267,188.7,-14.7,97.5,181.2,204.3,-78.0,50.7,42.6,-74.1,-9.3,422.1,422.1,2.7,-172.8,147.0,-6.6,-7.2,-5.4,57.6,60.9,-0.6,52.8,23.4,39.6,0,948,0,19,0, 
0.5300,188.1,-3.9,117.3,195.0,215.4,-71.1,51.9,56.4,2223.0,3.9,434.1,439.2,14.7,-165.6,156.0,-6.0,-6.9,-5.7,72.6,76.2,-0.9,60.6,12.6,43.8,0,954,0,20,0, 
0.5333,175.5,6.6,125.4,206.1,227.7,-62.7,58.8,65.1,-5779.8,9.9,446.4,449.7,21.3,-166.8,158.1,-6.0,-7.2,-6.0,82.5,86.4,-0.6,68.4,25.5,48.9,0,960,0,21,0, 
0.5367,186.3,20.1,140.7,217.5,241.2,-54.3,56.1,77.4,-13189.8,18.3,456.6,459.3,30.3,-163.8,155.1,-19.5,-7.2,-6.0,95.1,95.1,-0.9,77.4,20.1,61.2,0,966,0,22,0, 
0.5400,198.9,14.7,131.1,212.7,232.2,-58.5,51.9,71.7,-9855.3,6.9,441.0,442.2,23.4,-167.7,148.8,-18.6,-6.9,-5.4,79.5,82.5,-0.9,69.0,7.8,56.1,0,972,0,23,0, 
0.5433,210.9,14.4,132.0,212.7,234.3,-54.6,52.8,71.4,-1037.4,2.1,439.5,443.4,26.4,-167.4,145.2,-22.5,-6.9,-5.7,78.0,82.5,-0.9,61.8,7.8,55.5,0,978,0,24,0, 
0.5467,203.7,19.8,135.3,215.4,236.7,-50.4,52.8,73.5,74.1,5.7,445.5,449.4,29.4,-161.4,156.0,-10.2,-6.9,-5.7,81.9,90.3,-0.6,67.8,13.8,64.8,0,984,0,25,0, 
0.5500,187.2,31.2,146.7,221.1,239.4,-43.8,55.8,77.7,-7335.9,17.7,462.0,463.5,37.2,-162.6,155.4,-21.0,-6.9,-5.7,97.5,99.3,-0.3,78.0,13.2,63.9,0,990,0,26,0, 
0.5533,187.5,30.6,137.1,215.4,233.4,-45.3,57.3,77.1,-14523.6,11.1,448.5,452.7,31.2,-161.7,161.4,-11.4,-6.9,-6.0,85.5,94.2,-0.6,70.8,14.7,59.4,0,996,0,27,0, 
0.5567,207.3,24.3,129.9,206.4,223.8,-49.5,57.9,72.3,-11485.5,3.3,436.5,436.2,26.7,-169.2,159.3,-18.6,-6.9,-6.0,74.4,76.2,-0.6,63.3,15.6,48.0,0,1002,0,28,0, 
0.5600,220.2,19.2,124.5,200.4,216.9,-67.8,51.0,66.6,-2964.0,0.9,430.5,432.0,24.9,-169.2,160.2,-11.7,-6.9,-6.0,70.8,81.0,-0.9,57.0,10.2,55.2,0,1008,0,29,0, 
0.5633,216.0,24.3,127.2,202.2,222.0,-60.0,57.9,69.6,-1037.4,11.7,434.1,431.7,27.6,-164.7,156.9,-7.8,-6.9,-6.0,75.0,79.2,-0.9,68.1,20.7,58.8,0,1014,0,30,0, 
0.5667,199.2,24.0,126.6,202.5,217.2,-64.2,57.9,67.5,-8817.9,15.9,435.9,435.3,31.5,-157.5,171.6,-5.1,-6.9,-6.0,79.5,84.9,-0.3,75.3,17.7,54.6,0,1020,0,31,0, 
0.5700,203.7,27.6,123.3,201.0,216.0,-68.4,57.6,65.1,-16079.7,17.4,441.9,439.2,32.7,-151.5,170.4,-3.9,-6.6,-6.3,84.6,83.7,-0.9,73.5,23.4,50.4,0,1026,0,32,0, 
0.5733,226.2,20.7,113.7,193.8,208.8,-70.5,59.4,57.0,-12967.5,18.3,432.6,433.5,29.1,-141.0,170.1,-1.5,-7.2,-6.0,75.0,78.0,-0.6,72.9,24.9,54.3,0,1032,0,33,0, 
0.5767,233.4,12.0,101.4,183.0,198.6,-73.8,55.5,48.0,-3853.2,8.4,417.0,419.4,21.6,-140.4,170.1,-3.0,-6.9,-5.4,58.2,67.2,-0.6,62.7,30.3,47.1,0,1038,0,34,0, 
0.5800,226.8,9.9,101.4,180.3,198.6,-71.7,59.7,49.2,-1482.0,15.3,413.7,412.2,21.3,-132.3,180.0,2.7,-6.9,-5.4,57.9,65.7,-0.6,71.1,40.5,53.1,0,1044,0,35,0, 
0.5833,208.2,11.7,100.8,180.9,201.0,-66.6,65.1,47.1,-8669.7,17.7,417.0,416.4,20.7,-132.9,183.6,9.0,-6.6,-5.7,58.8,70.2,-0.6,71.1,52.2,55.2,0,1050,0,36,0, 
0.5867,209.4,12.0,104.1,184.8,207.9,-60.6,70.8,50.1,-15338.7,23.4,421.5,427.2,22.5,-126.3,186.6,9.0,-6.9,-5.7,64.8,76.2,-0.6,80.7,56.1,60.3,0,1056,0,37,0, 
0.5900,218.1,4.5,95.4,178.2,202.5,-62.4,69.9,47.4,-11707.8,12.6,409.5,419.4,16.5,-129.0,188.1,12.0,-6.6,-6.0,55.8,70.8,-0.9,71.1,51.6,56.4,0,1062,0,38,0, 
0.5933,231.0,-1.8,91.5,170.7,191.4,-65.7,68.1,40.5,-2741.7,3.9,402.9,407.7,10.5,-134.7,181.5,7.8,-7.2,-6.0,51.3,56.1,-0.9,66.3,45.6,51.3,0,1068,0,39,0, 
0.5967,217.2,-0.9,90.0,168.0,188.4,-66.9,65.4,40.5,-518.7,3.9,399.3,406.2,14.4,-134.7,182.1,5.7,-7.2,-6.0,50.1,52.2,-1.2,61.2,47.7,54.6,0,1074,0,40,0, 
0.6000,204.0,2.4,94.5,174.3,191.1,-60.6,70.8,45.6,-8521.5,8.1,403.8,411.6,15.0,-132.6,184.5,10.8,-6.9,-5.7,54.9,59.1,-0.9,72.0,54.3,41.7,0,1080,0,41,0, 
0.6033,195.3,1.8,96.3,175.5,196.5,-54.9,69.9,47.4,-15042.3,9.3,407.7,412.2,15.6,-134.7,184.2,14.1,-6.6,-5.4,60.6,62.7,-0.9,72.3,53.1,58.2,0,1086,0,42,0, 
0.6067,209.7,-3.3,92.7,174.3,194.1,-60.3,67.5,42.3,-12004.2,4.8,400.5,406.8,11.4,-137.4,176.1,6.3,-6.9,-5.7,52.5,62.7,-0.6,65.7,51.3,57.6,0,1092,0,43,0, 
0.6100,218.7,-16.2,87.6,169.2,182.1,-75.9,61.8,34.2,-2371.2,-10.8,393.0,401.4,3.9,-144.6,172.8,9.9,-6.9,-6.0,43.5,55.5,-0.6,56.1,46.5,46.8,0,1098,0,44,0, 
0.6133,206.1,-11.7,93.0,175.2,190.2,-74.7,55.2,38.1,-444.6,-5.1,399.6,407.4,5.1,-145.8,162.9,-6.3,-6.6,-6.0,51.0,55.8,-0.9,57.3,32.4,41.4,0,1104,0,45,0, 
0.6167,185.4,-9.3,100.2,180.0,192.6,-72.9,59.4,42.6,-8002.8,-5.7,406.8,416.7,6.9,-152.1,167.4,7.8,-6.9,-6.0,54.9,59.1,-0.6,60.0,34.5,39.9,0,1110,0,46,0, 
0.6200,188.1,5.4,111.9,190.5,205.8,-77.1,56.7,52.5,-14968.2,2.1,416.4,427.2,15.3,-147.9,161.7,-4.8,-6.9,-5.7,61.5,75.9,-0.6,67.8,31.8,48.0,0,1116,0,47,0, 
0.6233,202.5,3.9,112.5,189.9,206.1,-70.2,54.3,54.0,-11411.4,-0.6,412.2,422.4,16.8,-152.1,162.9,-2.4,-7.2,-6.0,60.3,69.3,-0.9,65.7,27.9,41.1,0,1122,0,48,0, 
0.6267,210.9,0.6,110.7,189.3,206.4,-72.3,53.4,54.3,-2593.5,-8.1,414.0,415.8,13.8,-160.8,159.3,2.1,-6.9,-6.0,63.0,67.8,-0.9,56.1,28.2,35.4,0,1128,0,49,0, 
0.6300,201.0,8.4,121.5,195.9,211.8,-71.1,53.4,59.4,-518.7,2.4,425.1,424.2,19.2,-160.2,164.4,1.2,-6.9,-6.0,80.7,71.4,-1.5,62.7,25.2,41.1,0,1134,0,50,0, 
0.6333,187.8,19.2,134.4,207.0,220.2,-61.8,57.0,69.0,-8299.2,17.7,437.1,438.6,25.8,-157.5,162.9,6.3,-6.9,-5.7,92.4,84.6,-0.9,79.2,27.9,53.4,0,1140,0,51,0, 
0.6367,190.8,27.9,144.3,215.4,229.8,-50.1,62.4,76.2,-15412.8,27.0,448.5,447.9,40.5,-150.0,162.3,1.8,-7.2,-6.0,100.8,89.4,-0.6,82.8,33.0,60.6,0,1146,0,52,0, 
0.6400,208.2,23.7,145.2,216.9,232.8,-45.0,63.6,75.0,-12152.4,23.1,444.9,443.4,41.1,-151.5,159.3,2.7,-6.9,-5.4,96.0,87.9,-0.9,76.8,30.3,53.4,0,1152,0,53,0, 
0.6433,212.7,18.9,138.6,213.6,230.1,-45.3,61.2,71.7,-2667.6,16.5,436.5,441.0,39.0,-149.7,165.9,8.1,-6.9,-6.0,91.2,91.5,-0.6,76.8,27.0,53.4,0,1158,0,54,0, 
0.6467,212.7,29.4,146.1,218.4,236.1,-39.3,61.5,78.3,-741.0,27.0,451.2,459.0,47.4,-143.4,166.2,2.7,-6.9,-5.7,104.7,104.7,-1.2,91.2,27.3,66.6,0,1164,0,55,0, 
0.6500,198.6,31.2,144.0,216.9,242.1,-29.1,64.8,77.7,-8743.8,32.1,455.4,465.9,47.7,-147.3,172.8,4.5,-6.9,-6.0,110.7,114.6,-0.9,89.7,30.6,75.6,0,1170,0,56,0, 
0.6533,198.9,31.2,141.0,215.1,234.3,-39.9,60.0,73.8,-15857.4,29.1,453.3,459.9,43.8,-145.5,169.5,-3.0,-7.2,-6.0,108.0,106.8,-0.6,87.3,21.9,72.6,0,1176,0,57,0, 
0.6567,209.4,20.1,125.1,201.9,223.8,-46.8,55.8,66.0,-12448.8,9.6,429.9,435.0,30.3,-157.5,158.4,-12.9,-6.9,-5.7,87.9,87.3,-0.3,71.4,11.1,65.1,0,1182,0,58,0, 
0.6600,222.3,17.1,117.6,195.6,219.6,-51.9,49.8,60.3,-2889.9,-2.7,422.1,429.3,21.9,-158.1,159.0,-21.6,-7.5,-6.0,78.9,81.6,-0.9,58.8,3.9,58.2,0,1188,0,59,0, 
0.6633,214.8,11.1,106.8,186.6,210.9,-60.3,44.7,54.3,-1630.2,-10.2,412.2,421.5,13.5,-165.3,159.9,-19.2,-6.9,-5.7,67.2,69.9,-1.2,51.9,2.1,51.9,0,1194,0,60,0, 
0.6667,202.8,16.8,108.6,188.4,211.5,-57.9,47.1,55.8,-8817.9,-5.4,420.9,422.7,13.5,-166.5,156.9,-24.0,-6.9,-6.3,78.0,68.1,-0.6,53.1,3.6,54.0,0,1200,0,61,0, 
0.6700,200.7,17.1,110.1,187.2,207.9,-59.4,44.1,57.6,-15783.3,-11.1,419.7,421.2,13.2,-164.1,157.8,-22.8,-6.6,-6.3,76.2,66.0,-0.6,47.1,2.1,43.5,0,1206,0,62,0, 
0.6733,221.1,12.6,107.1,182.7,203.7,-62.4,45.0,56.4,-12671.1,-17.4,412.5,412.5,11.4,-162.3,150.9,-37.2,-7.2,-5.7,72.0,61.5,-0.3,39.9,-9.9,40.5,0,1212,0,63,0, 
0.6767,225.3,1.2,92.4,173.1,192.0,-64.2,42.6,45.9,-3927.3,-28.5,393.9,401.7,1.8,-171.9,147.9,-34.2,-7.2,-6.0,54.3,47.1,-0.6,30.6,-11.7,41.1,0,1218,0,64,0, 
0.6800,219.0,1.8,92.1,170.1,188.4,-68.4,44.7,45.0,-1852.5,-27.3,394.5,398.4,3.6,-171.3,147.9,-34.8,-7.2,-5.7,53.1,45.0,-0.6,30.6,-2.7,37.8,0,1224,0,65,0, 
0.6833,205.5,7.2,90.3,168.0,188.1,-73.2,46.8,46.2,-9410.7,-20.4,397.5,402.6,3.9,-166.5,159.3,-14.1,-6.6,-6.0,56.1,43.2,-0.3,39.9,7.8,38.7,0,1230,0,66,0, 
0.6867,207.0,11.4,94.2,174.9,192.0,-59.4,51.9,52.5,-16450.2,-10.2,404.7,408.0,12.3,-160.2,160.8,-31.8,-6.9,-5.7,64.2,48.0,-0.9,48.3,-0.9,45.9,0,1236,0,67,0, 
0.6900,212.1,-2.1,82.8,163.5,181.2,-65.4,52.8,47.1,-12745.2,-24.0,388.2,395.1,5.4,-167.4,153.0,-24.0,-6.6,-5.7,48.3,34.5,-0.3,41.1,8.7,33.0,0,1242,0,68,0, 
0.6933,212.7,-6.6,77.1,159.6,177.6,-59.7,53.4,40.8,-3927.3,-25.8,382.8,385.5,2.4,-167.1,153.6,-28.5,-7.2,-5.4,41.1,29.7,-0.9,34.2,12.6,38.4,0,1248,0,69,0, 
0.6967,207.3,-5.7,82.5,159.9,177.0,-65.1,54.6,38.4,-2000.7,-12.9,386.4,393.6,9.9,-162.9,157.8,-21.9,-7.2,-6.0,47.1,35.1,-1.2,48.3,22.8,53.1,0,1254,0,70,0, 
0.7000,186.6,-3.6,87.9,165.6,181.5,-60.0,62.4,42.0,-9929.4,-5.7,398.7,406.2,11.7,-164.1,164.4,-8.1,-6.9,-5.4,55.5,47.4,-0.3,60.6,27.9,47.1,0,1260,0,71,0, 
0.7033,184.8,-1.5,89.7,168.6,184.5,-56.7,64.5,39.6,-16672.5,-5.7,400.2,414.6,10.8,-158.1,170.1,10.8,-6.9,-6.0,55.2,51.9,-0.3,67.2,43.5,53.1,0,1266,0,72,0, 
0.7067,198.3,0.6,93.9,176.4,190.5,-56.7,59.7,42.0,-13263.9,-3.3,407.7,419.4,19.2,-155.4,162.3,-8.1,-7.2,-5.7,61.5,60.6,-0.6,62.1,33.0,60.9,0,1272,0,73,0, 
0.7100,212.4,-1.8,91.8,174.6,186.6,-58.2,53.4,37.5,-4520.1,-3.9,406.8,413.4,20.7,-152.4,168.3,-6.6,-6.9,-6.0,60.6,56.7,-0.6,63.6,38.7,65.1,0,1278,0,74,0, 
0.7133,202.8,6.6,103.8,186.9,195.3,-53.7,57.6,45.3,-2519.4,6.6,418.8,423.9,30.0,-154.8,168.0,-3.9,-6.9,-5.7,74.1,69.3,-0.9,68.1,34.8,67.8,0,1284,0,75,0, 
0.7167,189.9,12.6,115.5,195.3,207.9,-45.9,63.9,52.5,-10596.3,13.8,429.3,435.0,33.6,-151.2,179.4,4.8,-6.6,-5.7,83.7,74.1,-0.6,75.3,48.6,68.7,0,1290,0,76,0, 
0.7200,191.1,23.4,125.4,206.1,217.5,-43.8,65.7,64.8,-17265.3,25.5,442.5,442.8,42.0,-149.7,167.1,2.7,-6.9,-5.7,98.4,81.0,0.0,84.3,48.6,70.2,0,1296,0,77,0, 
0.7233,198.0,21.6,123.6,204.9,216.0,-52.5,63.6,62.4,-13560.3,13.5,437.4,438.3,38.1,-149.7,168.0,6.9,-7.2,-6.0,93.0,73.2,-0.9,75.9,52.8,69.9,0,1302,0,78,0, 
0.7267,219.0,27.6,127.8,211.5,219.9,-52.5,58.2,67.2,-4742.4,15.9,437.4,437.4,46.8,-143.7,173.1,-3.0,-6.9,-6.0,99.9,79.8,-0.3,74.1,35.7,67.2,0,1308,0,79,0, 
0.7300,208.5,31.5,133.2,213.9,218.4,-51.9,59.4,72.9,-2741.7,24.3,436.8,436.2,51.0,-143.1,168.0,4.5,-7.2,-6.0,99.6,78.9,-0.3,80.7,45.0,69.0,0,1314,0,80,0, 
0.7333,197.4,42.0,143.7,225.3,228.9,-42.9,64.5,80.1,-10522.2,35.1,446.1,443.7,55.2,-141.3,161.7,4.8,-7.2,-6.0,109.2,86.1,-0.6,89.1,45.6,69.0,0,1320,0,81,0, 
0.7367,197.7,44.1,148.8,228.3,238.8,-29.7,64.8,84.6,-17487.6,36.9,454.8,453.3,60.0,-138.6,172.2,2.1,-6.9,-6.0,116.1,92.1,-0.9,87.9,47.4,77.4,0,1326,0,82,0, 
0.7400,216.0,52.2,156.0,241.5,246.6,-33.0,63.0,89.1,-14153.1,41.4,465.0,469.2,70.8,-134.7,162.9,0.9,-6.6,-5.7,123.6,113.1,-0.6,101.1,41.4,83.1,0,1332,0,83,0, 
0.7433,233.7,49.5,156.9,238.8,243.9,-43.8,59.1,84.6,-5112.9,38.4,465.6,472.5,70.8,-131.4,171.3,7.8,-7.2,-6.3,123.9,115.5,-0.6,96.3,38.7,80.7,0,1338,0,84,0, 
0.7467,227.7,51.6,163.2,244.2,249.0,-32.4,63.9,90.3,-2964.0,38.4,471.3,475.5,67.8,-130.2,173.7,6.0,-7.2,-6.0,124.5,116.4,-0.3,96.6,45.3,81.3,0,1344,0,85,0, 
0.7500,210.9,55.2,159.6,238.2,248.7,-35.4,68.1,87.6,-11115.0,35.4,465.9,477.6,63.3,-130.5,175.8,6.6,-6.9,-6.0,122.1,117.0,-0.6,93.6,40.8,78.9,0,1350,0,86,0, 
0.7533,206.7,44.4,143.7,222.9,234.0,-44.1,56.7,77.7,-18080.4,21.0,444.6,457.5,50.4,-136.2,167.4,-8.1,-6.9,-5.7,102.3,99.6,-0.6,77.1,35.4,57.9,0,1356,0,87,0, 
0.7567,222.6,36.0,128.7,211.2,219.6,-53.7,52.2,66.6,-14597.7,5.4,427.5,438.6,39.9,-142.2,162.6,-20.1,-6.9,-5.7,85.2,83.7,-0.9,63.6,15.6,48.0,0,1362,0,88,0, 
0.7600,231.9,23.7,112.5,193.8,201.9,-66.6,46.5,53.4,-5261.1,-9.3,414.3,415.8,30.3,-147.9,161.7,-22.8,-6.6,-5.7,72.9,65.7,-0.6,48.0,8.4,36.3,0,1368,0,89,0, 
0.7633,221.7,16.2,100.2,180.9,187.8,-75.6,45.9,47.4,-3186.3,-18.0,401.4,399.9,16.8,-154.5,162.6,-23.1,-7.2,-5.7,62.4,46.8,-0.9,37.5,10.2,28.2,0,1374,0,90,0, 
0.7667,198.0,3.3,85.8,164.1,174.0,-88.2,40.5,35.7,-11040.9,-30.9,385.2,383.1,7.8,-165.3,156.3,-29.1,-6.9,-6.0,45.9,32.4,-0.9,22.2,6.9,13.8,0,1380,0,91,0, 
0.7700,181.2,-4.5,72.9,146.4,155.1,-98.4,41.4,21.3,-18006.3,-44.1,371.4,369.3,-7.2,-174.6,150.3,-27.6,-6.9,-6.0,31.8,12.0,-1.2,7.8,1.5,1.8,0,1386,0,92,0, 
0.7733,195.6,-12.6,67.8,146.4,152.4,-97.8,41.1,17.4,-14745.9,-53.4,373.5,372.0,-7.8,-176.7,143.1,-32.7,-7.5,-6.3,33.6,17.7,-0.6,7.5,0.3,-13.8,0,1392,0,93,0, 
0.7767,201.0,-26.1,55.8,132.6,139.2,-101.7,39.9,6.9,-6446.7,-65.4,354.0,358.2,-19.2,-184.2,137.1,-34.5,-7.2,-6.0,12.3,2.7,-0.3,-11.4,-6.6,-25.8,0,1398,0,94,0, 
0.7800,185.1,-32.7,51.9,130.2,133.8,-109.2,36.9,4.5,-3556.8,-66.0,344.4,344.1,-23.7,-189.9,132.3,-35.1,-6.9,-5.7,6.6,-9.9,-0.6,-15.0,-10.2,-14.1,0,1404,0,95,0, 
0.7833,168.6,-26.4,53.7,133.5,138.9,-102.3,39.9,8.7,-11633.7,-61.2,349.8,347.1,-19.5,-186.3,138.9,-31.8,-6.9,-5.7,12.3,-6.9,-0.6,-1.5,-10.2,0.6,0,1410,0,96,0, 
0.7867,160.2,-24.6,59.1,141.3,154.2,-91.8,42.9,14.7,-18154.5,-56.7,359.1,363.3,-18.0,-187.8,133.8,-36.0,-6.9,-6.0,20.4,6.6,-0.9,-0.6,-2.7,7.2,0,1416,0,97,0, 
0.7900,180.0,-23.7,57.6,142.8,149.7,-93.9,41.4,13.8,-14968.2,-55.5,359.7,363.9,-18.9,-186.9,132.6,-33.0,-6.9,-6.0,19.2,13.2,-0.6,-1.8,-8.7,1.5,0,1422,0,98,0, 
0.7933,188.7,-26.1,59.1,141.3,149.1,-94.2,42.3,12.6,-6076.2,-55.8,358.2,357.0,-17.1,-189.9,132.0,-30.6,-7.2,-5.7,20.1,9.0,-0.9,0.9,-0.9,-6.0,0,1428,0,99,0, 
0.7967,184.2,-22.2,63.9,150.0,157.8,-91.5,40.8,15.6,-4297.8,-42.9,363.6,366.3,-9.9,-184.2,141.0,-21.6,-7.2,-6.0,27.6,19.5,-0.6,15.6,5.7,15.9,0,1434,0,100,0, 
0.8000,166.2,-11.7,78.6,157.5,169.5,-75.3,44.7,25.8,-12152.4,-33.9,374.1,375.6,-4.5,-179.4,147.0,-21.6,-6.9,-5.7,38.4,27.0,-0.9,25.5,7.5,18.0,0,1440,0,101,0, 
0.8033,159.9,-6.9,84.0,166.5,174.0,-83.1,46.2,31.2,-19191.9,-22.5,384.3,381.3,6.6,-175.8,149.1,-19.2,-6.9,-6.0,48.6,36.9,-0.9,35.4,12.3,21.9,0,1446,0,102,0, 
0.8067,182.4,-13.8,81.0,164.4,173.7,-86.4,42.6,26.4,-16524.3,-27.0,384.6,379.8,3.0,-182.1,141.3,-12.6,-6.9,-6.0,49.2,38.7,-0.6,30.9,11.1,21.9,0,1452,0,103,0, 
0.8100,186.6,-19.5,78.6,165.9,172.8,-88.2,36.6,22.5,-7854.6,-24.3,383.7,379.5,8.1,-182.4,134.7,-27.9,-6.6,-6.0,46.5,35.7,-0.6,33.3,4.8,25.5,0,1458,0,104,0, 
0.8133,177.0,-13.8,83.7,169.8,181.5,-85.8,36.6,25.8,-5409.3,-18.9,389.7,387.0,7.5,-177.9,141.6,-21.6,-6.3,-6.0,50.1,45.0,-0.9,38.1,7.5,27.9,0,1464,0,105,0, 
0.8167,161.7,-3.0,97.8,185.4,194.7,-73.5,45.3,37.2,-13263.9,3.3,409.5,405.6,19.5,-175.5,144.3,-12.9,-6.9,-5.7,66.6,62.7,-0.6,58.2,9.9,41.7,0,1470,0,106,0, 
0.8200,159.3,4.8,108.0,197.1,206.4,-66.6,46.5,45.9,-20822.1,8.7,416.4,420.3,29.7,-170.1,149.4,-12.6,-6.6,-6.3,77.4,75.6,-1.2,70.5,10.5,43.5,0,1476,0,107,0, 
0.8233,176.1,-0.9,106.2,199.2,208.8,-66.0,42.3,42.9,-17265.3,4.2,423.9,428.4,24.9,-177.0,153.6,-15.3,-7.2,-6.0,74.7,78.9,-0.9,65.1,3.3,42.6,0,1482,0,108,0, 
0.8267,195.6,0.0,112.2,205.5,211.2,-62.4,42.0,44.4,-9040.2,0.6,423.3,431.1,27.6,-169.8,153.9,-14.4,-6.6,-5.7,75.3,84.0,-0.3,66.3,8.1,47.7,0,1488,0,109,0, 
0.8300,182.7,2.4,116.7,205.5,214.2,-62.4,43.2,48.3,-6817.2,9.6,430.8,436.2,26.4,-177.0,138.9,-14.7,-7.5,-5.7,81.0,90.0,-0.9,72.6,10.2,54.3,0,1494,0,110,0, 
0.8333,170.7,9.6,123.3,211.5,218.7,-56.7,40.8,54.6,-14745.9,16.8,434.7,440.7,35.1,-171.0,147.0,-13.2,-6.9,-5.7,88.5,92.4,-0.6,77.4,3.9,58.8,0,1500,0,111,0, 
0.8367,165.6,8.1,118.5,201.6,206.7,-69.6,38.7,45.6,-21933.6,12.9,427.5,433.5,35.4,-173.7,150.6,-17.4,-7.8,-5.7,80.7,93.0,-0.6,75.9,-0.3,54.0,0,1506,0,112,0, 
0.8400,191.1,9.0,115.5,199.8,206.7,-66.3,38.7,47.1,-18228.6,8.7,422.4,426.6,32.1,-171.6,149.1,-15.3,-7.2,-5.7,82.2,83.4,-0.6,72.3,0.6,52.8,0,1512,0,113,0, 
0.8433,195.0,3.6,108.0,190.8,198.0,-72.0,32.1,44.1,-9633.0,1.8,412.8,415.2,30.9,-176.1,144.9,-24.0,-6.9,-5.7,72.0,72.0,-0.6,57.6,-8.1,46.2,0,1518,0,114,0, 
0.8467,191.4,3.6,105.6,185.7,192.3,-71.7,34.8,42.0,-7558.2,-0.9,404.7,408.6,31.5,-175.8,146.7,-18.3,-7.2,-6.3,65.4,70.5,-0.3,60.3,-7.5,46.8,0,1524,0,115,0, 
0.8500,178.2,12.6,115.2,192.3,200.1,-68.4,36.6,45.6,-15338.7,6.9,413.4,413.7,38.4,-174.9,149.7,-23.1,-6.9,-5.7,72.6,76.5,-0.6,72.6,-6.0,46.5,0,1530,0,116,0, 
0.8533,181.2,19.2,117.3,196.5,207.3,-63.0,42.9,51.3,-22378.2,9.9,425.1,430.5,38.4,-169.2,153.9,-19.8,-7.2,-6.3,80.7,92.1,-0.9,69.0,2.1,51.6,0,1536,0,117,0, 
0.8567,194.1,12.0,112.8,195.6,204.3,-69.3,35.1,50.1,-19191.9,-0.6,422.1,429.3,30.9,-172.8,151.2,-22.8,-7.2,-5.7,72.6,92.4,-0.6,64.8,-5.1,57.0,0,1542,0,118,0, 
0.8600,205.2,13.2,112.2,198.6,205.5,-61.2,37.5,51.3,-10448.1,-1.8,426.6,426.6,31.2,-172.5,147.6,-21.9,-6.6,-5.7,76.5,88.2,-0.6,60.0,3.6,57.9,0,1548,0,119,0, 
0.8633,196.5,14.7,117.3,199.2,203.7,-59.7,37.5,56.4,-8521.5,1.8,427.2,429.6,30.6,-175.8,146.1,-24.3,-7.5,-6.0,82.2,87.9,-0.9,62.4,3.0,49.8,0,1554,0,120,0, 
0.8667,184.5,21.9,121.2,204.3,204.9,-68.4,40.8,57.6,-16524.3,6.6,431.1,431.4,37.5,-166.5,158.1,-21.0,-6.9,-5.4,85.5,92.1,-0.6,67.8,4.5,52.8,0,1560,0,121,0, 
0.8700,183.9,24.9,124.2,202.8,208.8,-61.2,45.0,62.1,-24230.7,6.6,430.8,433.2,44.7,-164.4,152.1,-18.9,-6.9,-6.3,86.1,93.6,-0.9,67.5,11.1,52.5,0,1566,0,122,0, 
0.8733,200.7,21.0,115.8,193.5,201.0,-67.2,43.8,58.2,-21192.6,-6.3,414.3,415.2,33.3,-163.5,162.0,-21.6,-7.2,-5.7,69.9,78.0,-0.3,52.8,3.3,40.5,0,1572,0,123,0, 
0.8767,210.6,20.1,110.7,190.5,198.3,-64.5,44.4,57.3,-12374.7,-14.4,403.8,402.6,32.7,-169.5,155.1,-24.0,-6.6,-6.3,56.7,68.7,-1.2,45.9,6.9,42.6,0,1578,0,124,0, 
0.8800,194.4,17.1,111.9,192.6,201.3,-57.9,48.3,59.1,-10522.2,-14.7,404.7,405.0,29.4,-173.4,135.0,-21.0,-7.2,-5.4,56.1,71.7,-0.9,48.0,12.3,45.6,0,1584,0,125,0, 
0.8833,182.7,27.9,123.3,199.5,204.6,-56.1,55.5,64.8,-18376.8,-4.8,417.6,415.2,35.7,-170.1,140.4,-12.9,-6.6,-5.7,72.6,82.2,-0.6,58.2,25.2,53.1,0,1590,0,126,0, 
0.8867,185.1,31.8,126.9,201.6,209.4,-51.9,57.0,66.9,-25638.6,0.9,425.7,425.7,41.4,-164.7,143.1,-9.6,-6.6,-5.7,78.9,87.3,-0.9,63.3,28.2,51.6,0,1596,0,127,0, 
0.8900,192.0,27.6,119.1,192.3,202.8,-55.2,54.0,60.3,-22971.0,-5.4,420.3,415.2,36.0,-168.3,139.8,-17.1,-6.9,-6.0,74.1,78.3,-0.6,56.4,22.8,48.9,0,1602,0,128,0, 
0.8933,197.1,12.6,106.8,179.7,192.0,-58.8,48.9,50.1,-13856.7,-16.5,403.8,399.6,25.5,-172.8,142.2,-8.7,-7.5,-5.4,54.6,66.9,-0.6,46.2,26.1,41.1,0,1608,0,129,0, 
0.8967,188.7,16.8,106.5,183.0,195.9,-58.8,53.4,51.9,-12078.3,-18.0,402.9,400.2,23.4,-174.0,132.6,-15.3,-7.2,-5.7,55.8,63.6,-1.2,50.4,29.4,37.5,0,1614,0,130,0, 
0.9000,172.5,21.9,114.9,190.2,197.7,-52.8,56.4,60.9,-20081.1,-5.4,411.6,407.7,30.9,-164.4,143.7,-13.2,-6.9,-5.7,63.0,70.8,-0.6,55.2,31.8,52.5,0,1620,0,131,0, 
0.9033,172.2,27.3,119.7,198.0,203.7,-44.1,59.4,66.0,-27120.6,-3.3,415.5,414.0,34.8,-159.9,152.4,-9.3,-6.9,-6.0,68.7,77.4,-0.6,64.5,36.9,47.1,0,1626,0,132,0, 
0.9067,186.3,20.4,114.0,193.2,202.2,-46.2,56.4,59.7,-24008.4,-4.2,410.7,408.6,30.0,-163.2,142.2,-4.5,-6.9,-5.7,62.7,75.9,-0.3,62.1,42.6,46.2,0,1632,0,133,0, 
0.9100,199.5,20.7,114.3,196.5,202.5,-46.5,51.3,57.0,-15190.5,-1.2,411.6,416.1,28.2,-162.0,147.0,-3.6,-6.9,-6.0,62.4,81.3,-0.3,65.4,31.5,63.0,0,1638,0,134,0, 
0.9133,194.4,19.2,115.2,196.8,204.6,-49.8,51.3,56.1,-13338.0,3.9,419.7,423.9,32.7,-157.8,153.9,-4.8,-6.9,-6.0,70.5,86.4,-0.9,70.8,33.0,57.3,0,1644,0,135,0, 
0.9167,179.1,30.0,126.6,208.2,216.6,-45.0,54.9,64.8,-21266.7,17.7,431.7,436.2,42.0,-151.8,154.2,-7.5,-6.6,-5.7,82.2,98.4,-0.9,84.0,37.8,63.6,0,1650,0,136,0, 
0.9200,181.2,33.3,126.3,210.3,219.3,-44.4,51.6,67.5,-28750.8,15.0,431.4,438.3,45.0,-147.9,163.2,-2.4,-6.6,-6.0,79.2,101.4,-0.3,84.0,37.5,60.6,0,1656,0,137,0, 
0.9233,198.3,33.3,127.8,210.0,225.0,-37.2,51.9,69.3,-25194.0,12.0,431.4,438.9,39.6,-154.2,156.6,-4.5,-6.9,-6.0,78.9,102.0,-0.3,75.3,32.7,54.6,0,1662,0,138,0, 
0.9267,210.9,30.3,123.0,207.6,216.0,-44.7,46.5,66.9,-15709.2,9.0,426.6,432.9,37.5,-156.3,140.4,-9.0,-6.9,-5.7,74.1,91.5,-0.6,70.8,30.3,53.4,0,1668,0,139,0, 
0.9300,204.0,27.3,120.9,200.1,212.1,-45.9,45.0,59.4,-13708.5,6.6,423.0,430.2,33.9,-155.4,151.8,7.8,-7.2,-6.0,73.2,93.9,-0.3,74.7,40.8,53.4,0,1674,0,140,0, 
0.9333,195.9,35.7,130.5,210.6,223.5,-49.5,44.7,67.8,-21637.2,16.8,431.4,442.2,46.8,-147.9,154.8,-9.6,-6.9,-5.7,85.5,107.4,-0.6,82.5,29.7,65.1,0,1680,0,141,0, 
0.9367,186.3,31.2,127.8,205.8,222.0,-45.6,43.8,67.2,-28158.0,11.4,424.5,432.0,43.2,-150.6,158.7,-12.9,-6.9,-5.7,73.5,96.0,-0.9,77.4,22.5,57.9,0,1686,0,142,0, 
0.9400,199.2,20.1,117.9,198.3,213.3,-49.5,37.8,61.2,-24378.9,-5.4,408.6,417.6,34.2,-159.0,146.4,-16.8,-7.2,-6.0,57.6,81.0,0.0,67.5,19.8,49.5,0,1692,0,143,0, 
0.9433,206.1,13.2,114.6,199.8,218.4,-42.0,40.8,61.2,-14968.2,-6.3,413.1,422.4,33.3,-161.1,147.3,-20.1,-6.9,-5.7,61.5,87.6,-0.6,63.6,18.9,53.1,0,1698,0,144,0, 
0.9467,195.6,7.8,119.7,206.1,216.0,-36.9,43.8,63.3,-11781.9,-0.3,422.4,425.4,26.7,-170.4,144.6,-20.7,-6.9,-5.7,68.4,86.7,-0.6,64.8,21.0,54.9,0,1704,0,145,0, 
0.9500,178.5,9.0,122.7,205.8,217.5,-33.0,51.0,66.6,-18599.1,4.2,426.6,425.7,31.2,-174.0,145.8,-14.4,-6.9,-5.7,73.2,90.0,-0.6,70.5,21.9,55.2,0,1710,0,146,0, 
0.9533,176.7,8.4,119.4,202.8,213.6,-29.4,56.7,64.2,-24971.7,-4.8,419.7,421.2,22.2,-182.4,142.5,-14.1,-7.2,-6.3,70.2,84.9,-0.6,66.0,24.3,47.7,0,1716,0,147,0, 
0.9567,189.0,-4.5,108.3,195.0,201.3,-34.8,54.3,57.9,-20748.0,-16.8,398.7,405.6,11.1,-188.1,133.2,-16.2,-6.9,-5.7,50.1,69.6,-0.6,53.7,22.5,39.0,0,1722,0,148,0, 
0.9600,195.3,-7.2,105.3,189.9,195.9,-39.0,55.8,55.5,-10077.6,-21.3,395.4,401.1,7.5,-188.1,129.6,-21.0,-7.2,-5.7,43.2,64.8,-0.6,46.5,18.3,36.6,0,1728,0,149,0, 
0.9633,188.1,-11.7,97.8,183.6,188.4,-46.5,51.9,45.6,-6298.5,-24.3,392.7,396.6,3.0,-194.1,129.0,-12.0,-6.3,-6.0,39.6,61.5,-0.3,46.2,14.4,25.2,0,1734,0,150,0, 
0.9667,173.1,-9.3,99.9,180.9,188.4,-50.7,51.3,43.5,-12522.9,-13.5,399.9,402.0,4.5,-191.1,132.3,-15.3,-6.9,-6.0,50.4,66.3,-0.6,51.3,10.2,26.4,0,1740,0,151,0, 
0.9700,176.1,-11.7,96.6,177.3,183.6,-56.1,49.8,40.2,-17413.5,-21.3,398.1,397.5,5.1,-190.2,135.0,-14.1,-7.5,-6.3,48.0,59.4,-0.9,42.0,8.1,28.2,0,1746,0,152,0, 
0.9733,189.9,-18.6,81.6,163.2,166.8,-72.9,42.9,30.0,-11781.9,-25.5,382.5,382.8,0.3,-188.1,131.1,-17.4,-6.6,-5.7,34.5,51.6,-0.9,33.9,-1.2,18.0,0,1752,0,153,0, 
0.9767,205.5,-19.2,78.3,160.8,164.1,-74.7,42.6,24.3,-296.4,-32.4,373.8,374.1,0.3,-186.0,134.7,-12.9,-7.2,-6.3,26.1,48.0,-0.9,30.0,2.7,15.0,0,1758,0,154,0, 
0.9800,204.3,-12.0,82.5,162.9,171.3,-69.3,40.8,27.3,3927.3,-17.1,386.7,384.0,3.9,-176.4,140.4,-23.4,-6.9,-5.4,39.9,58.5,-0.9,36.3,-4.8,17.4,0,1764,0,155,0, 
0.9833,182.4,-10.5,87.3,165.6,171.6,-71.4,42.0,30.9,-889.2,-20.4,390.0,388.2,6.9,-178.2,134.1,-18.0,-6.9,-6.0,39.3,57.9,-0.3,46.2,-1.8,20.4,0,1770,0,156,0, 
0.9867,184.8,-9.3,84.3,162.9,167.7,-71.7,45.9,31.8,-4520.1,-18.0,386.1,384.3,7.2,-173.1,139.2,-21.9,-6.9,-5.7,36.9,56.4,-0.6,42.6,-2.1,10.5,0,1776,0,157,0, 
0.9900,201.6,-11.1,84.9,165.0,170.7,-75.3,42.6,30.9,2519.4,-19.5,381.9,377.4,5.7,-172.5,139.8,-18.0,-6.9,-5.7,31.5,51.9,-0.6,37.8,-2.4,13.2,0,1782,0,158,0, 
0.9933,213.6,-12.6,81.6,165.6,167.4,-77.1,38.7,30.0,14745.9,-23.4,376.5,369.9,8.7,-167.1,137.7,-20.7,-6.6,-5.7,27.3,46.2,-0.6,34.5,-9.9,16.5,0,1788,0,159,0, 
0.9967,207.3,-8.7,85.5,165.9,165.0,-74.4,40.8,34.2,19932.9,-17.1,378.6,375.3,13.8,-163.2,146.1,-16.8,-6.9,-6.0,32.1,46.8,-0.6,40.2,-2.1,17.7,0,1794,0,160,0, 
1.0000,189.0,-7.8,85.8,163.5,165.6,-72.3,37.8,35.1,15264.6,-11.7,385.5,382.2,17.7,-158.7,142.8,-28.5,-6.6,-5.7,39.0,51.3,-0.9,45.0,-8.4,13.8,0,1800,0,161,0, 
1.0033,185.7,-9.6,77.4,160.2,164.4,-72.6,39.6,30.0,11115.0,-12.6,386.4,384.6,17.4,-160.8,149.1,-12.9,-6.9,-5.7,38.1,49.5,-0.9,44.1,-2.1,8.4,0,1806,0,162,0, 
1.0067,200.1,-6.6,80.4,162.3,165.0,-84.6,32.4,30.0,16968.9,-9.3,392.7,392.7,21.3,-156.9,141.6,-30.9,-6.9,-5.4,42.9,52.8,-0.9,41.7,-13.2,12.0,0,1812,0,163,0, 
1.0100,208.2,-17.1,71.4,153.3,156.9,-86.4,29.1,22.8,27046.5,-20.1,377.1,372.3,15.0,-158.7,141.3,-15.3,-6.9,-6.0,29.1,39.0,-0.9,33.6,-3.9,9.9,0,1818,0,164,0, 
1.0133,198.9,-9.9,71.7,154.5,157.2,-86.7,25.8,24.6,30084.6,-14.1,378.3,373.2,16.5,-156.9,141.3,-29.7,-6.9,-5.7,30.6,39.0,-0.9,39.3,-7.2,6.9,0,1824,0,165,0, 
1.0167,182.7,2.4,85.8,166.2,173.4,-74.1,30.6,38.1,22526.4,-6.0,393.0,390.9,22.2,-151.8,149.7,-27.9,-6.9,-5.7,45.0,54.3,-0.6,47.4,-12.6,15.0,0,1830,0,166,0, 
1.0200,184.8,7.5,88.8,167.1,175.2,-78.6,29.1,41.7,15412.8,0.0,397.5,393.0,27.3,-149.1,149.7,-26.4,-7.2,-5.7,51.0,55.5,-0.3,54.3,-15.9,5.7,0,1836,0,167,0, 
1.0233,201.0,3.0,89.1,172.8,179.1,-79.8,25.5,41.1,18080.4,-4.5,397.2,400.8,27.6,-150.9,147.6,-24.9,-6.9,-5.7,50.1,66.0,-0.3,52.2,-23.7,21.9,0,1842,0,168,0, 
1.0267,207.3,6.9,93.0,178.2,183.9,-73.5,27.6,43.8,26601.9,-8.4,399.9,399.9,24.6,-148.8,148.2,-26.1,-7.2,-5.7,47.4,66.3,-0.6,50.7,-21.0,29.1,0,1848,0,169,0, 
1.0300,207.3,10.2,98.4,179.4,187.5,-69.9,32.4,44.4,28009.8,0.0,403.5,396.3,31.8,-146.1,148.8,-23.7,-6.6,-5.7,51.6,68.1,-0.6,57.6,-16.5,30.3,0,1854,0,170,0, 
1.0333,191.4,16.5,103.5,186.6,195.9,-60.6,37.5,52.2,19266.0,9.3,409.2,403.5,33.3,-143.4,156.0,-28.2,-6.9,-6.3,58.5,70.8,-0.9,66.3,-9.6,36.3,0,1860,0,171,0, 
1.0367,192.3,15.0,103.2,188.4,198.3,-51.3,41.7,55.8,11856.0,4.5,410.4,410.1,31.2,-147.9,152.7,-21.0,-6.9,-5.4,55.2,77.4,-0.3,65.1,4.8,34.8,0,1866,0,172,0, 
1.0400,210.6,12.6,104.1,192.9,201.0,-46.8,42.6,59.7,15116.4,3.6,412.5,409.2,31.8,-144.0,154.5,-30.6,-7.5,-6.0,59.7,78.0,-0.3,62.7,-4.5,37.5,0,1872,0,173,0, 
1.0433,217.8,8.1,99.3,193.2,203.4,-49.5,44.4,56.7,23267.4,-3.9,411.9,411.3,25.5,-150.9,149.7,-21.6,-6.9,-6.0,52.2,77.1,-0.9,58.5,2.4,49.5,0,1878,0,174,0, 
1.0467,202.2,5.7,100.8,194.1,201.6,-46.2,51.3,55.8,25119.9,-3.0,414.6,414.3,24.6,-156.3,149.7,-16.5,-6.9,-5.7,58.8,80.4,-0.6,63.3,11.1,48.3,0,1884,0,175,0, 
1.0500,184.8,6.6,105.3,194.4,200.7,-42.6,57.3,59.7,16746.6,1.2,415.5,414.9,24.9,-155.7,154.8,-11.4,-7.2,-6.0,60.6,79.8,-0.6,65.7,22.8,45.6,0,1890,0,176,0, 
1.0533,182.1,6.0,101.4,192.0,198.0,-40.5,58.8,60.0,9336.6,-0.3,409.2,406.5,20.1,-157.8,155.7,-11.7,-6.6,-5.4,55.5,76.5,-0.9,62.1,19.8,41.7,0,1896,0,177,0, 
1.0567,192.3,-7.8,91.8,183.0,188.7,-42.3,54.6,47.1,12893.4,-13.2,400.8,396.9,11.1,-165.9,145.8,-14.4,-6.9,-5.7,45.6,65.7,-0.9,54.9,18.9,36.9,0,1902,0,178,0, 
1.0600,201.3,-11.4,90.3,178.5,181.5,-47.7,56.4,42.0,21711.3,-15.9,399.9,394.5,10.2,-166.8,141.0,-28.8,-6.9,-6.0,44.7,62.7,-0.6,45.3,9.9,28.5,0,1908,0,179,0, 
1.0633,195.0,-11.4,90.3,180.0,184.8,-61.5,55.2,40.5,23860.2,-11.4,403.2,397.8,9.3,-171.9,143.7,-27.3,-6.6,-6.0,49.2,67.8,-0.6,51.9,11.4,34.2,0,1914,0,180,0, 
1.0667,176.4,-12.3,95.4,179.7,185.7,-60.6,54.3,41.1,15857.4,-11.7,404.7,400.5,3.6,-172.8,146.7,-24.9,-6.9,-6.0,51.9,66.9,-0.6,52.2,8.4,29.4,0,1920,0,181,0, 
1.0700,172.5,-15.3,90.9,174.6,182.1,-55.8,56.1,42.0,9262.5,-18.9,400.5,399.3,0.3,-176.4,141.3,-15.3,-6.9,-5.7,46.2,68.1,-0.9,51.3,9.9,27.3,0,1926,0,182,0, 
1.0733,189.9,-21.3,84.3,168.3,177.3,-62.1,48.9,38.4,12374.7,-28.2,390.3,393.6,-5.7,-181.8,141.0,-20.4,-7.2,-6.0,34.8,58.8,-0.6,36.6,1.2,16.2,0,1932,0,183,0, 
1.0767,204.3,-17.4,85.5,171.6,180.6,-65.4,46.5,42.3,21785.4,-27.0,396.0,392.7,-7.2,-178.5,141.9,-30.6,-6.6,-5.7,39.0,60.6,-0.9,35.4,-4.5,18.0,0,1938,0,184,0, 
1.0800,198.3,-14.1,92.7,174.0,182.7,-64.5,45.6,42.6,24156.6,-23.4,403.5,393.6,-3.0,-176.1,145.5,-32.4,-6.6,-5.7,47.4,60.6,-0.3,37.5,-7.8,18.3,0,1944,0,185,0, 
1.0833,182.4,-5.1,97.8,179.4,191.1,-54.9,50.4,52.5,17043.0,-15.0,411.6,406.5,3.9,-177.3,135.3,-29.1,-7.2,-6.0,56.7,68.4,-0.6,47.1,0.0,24.6,0,1950,0,186,0, 
1.0867,175.8,-6.3,93.0,178.5,184.8,-56.7,49.8,50.7,10299.9,-15.9,402.3,394.5,2.7,-175.5,140.4,-26.4,-6.3,-6.0,45.6,59.4,-0.6,44.4,-3.0,18.3,0,1956,0,187,0, 
1.0900,198.6,-4.8,88.5,171.9,179.1,-61.5,45.3,47.1,13930.8,-16.8,396.6,385.5,4.8,-168.0,143.4,-27.0,-6.6,-5.4,40.2,49.5,-0.6,36.6,-7.8,13.5,0,1962,0,188,0, 
1.0933,209.7,-7.8,88.2,171.6,177.6,-66.6,43.2,43.2,23341.5,-24.3,389.7,385.5,5.1,-167.1,135.3,-30.0,-7.2,-5.7,33.6,50.4,-0.3,37.5,-9.3,10.8,0,1968,0,189,0, 
1.0967,202.2,-8.1,84.0,167.1,172.5,-71.4,42.0,41.7,25638.6,-16.8,390.3,385.8,4.2,-168.9,140.1,-28.5,-6.9,-5.1,32.7,54.0,-0.6,40.5,-8.1,10.8,0,1974,0,190,0, 
1.1000,181.2,-3.6,89.7,171.6,175.8,-66.3,43.8,43.2,18376.8,-10.5,399.3,394.5,5.7,-163.2,154.8,-20.7,-7.2,-6.0,42.9,56.7,-0.6,46.8,-2.7,11.4,0,1980,0,191,0, 
1.1033,189.0,7.2,99.3,181.2,187.8,-56.1,47.1,51.0,11633.7,-4.2,410.7,396.9,16.5,-153.6,153.6,-24.9,-6.9,-5.4,52.8,63.3,-0.6,48.3,-4.2,14.4,0,1986,0,192,0, 
1.1067,207.3,5.7,98.4,175.5,185.1,-61.2,43.8,48.6,15412.8,-7.5,407.7,392.7,15.3,-146.1,165.0,-20.1,-6.9,-6.3,48.6,65.7,-0.3,53.7,-4.2,19.5,0,1992,0,193,0, 
1.1100,222.0,9.9,106.5,185.4,193.8,-54.0,43.5,51.3,24675.3,-2.4,413.7,406.5,20.7,-147.9,161.4,-25.8,-6.9,-5.7,54.9,69.0,-0.9,53.1,-1.8,28.8,0,1998,0,194,0, 
1.1133,208.8,8.1,109.2,190.8,201.3,-54.6,39.9,53.1,26972.4,-0.3,420.3,409.2,21.3,-146.1,165.3,-19.5,-6.6,-6.0,61.8,76.5,-0.3,63.3,-1.5,36.3,0,2004,0,195,0, 
1.1167,193.2,19.5,126.0,205.2,215.4,-39.6,50.4,65.1,18673.2,15.3,442.5,429.0,29.7,-141.9,151.8,-14.1,-6.6,-6.0,81.3,92.1,-0.9,75.0,15.3,25.5,0,2010,0,196,0, 
1.1200,195.9,24.6,131.1,212.1,220.8,-37.5,52.5,72.6,11633.7,16.2,446.4,435.6,32.1,-138.6,165.0,-14.7,-6.9,-6.3,82.5,97.2,-0.3,79.2,13.2,40.5,0,2016,0,197,0, 
1.1233,208.2,20.4,124.2,210.6,222.0,-30.9,52.5,72.6,15857.4,9.6,431.1,426.3,28.2,-147.0,154.8,-23.4,-7.2,-5.7,67.2,90.3,-0.6,68.1,12.9,45.6,0,2022,0,198,0, 
1.1267,219.0,19.5,122.4,207.6,218.4,-34.2,51.9,69.6,24453.0,0.0,421.2,418.5,25.5,-149.7,156.9,-15.6,-6.9,-6.0,59.7,85.5,-0.9,64.2,18.9,51.6,0,2028,0,199,0, 
1.1300,208.2,22.8,126.6,213.6,224.1,-38.7,53.4,75.6,26083.2,6.3,431.1,427.2,27.0,-152.1,154.8,-15.3,-7.5,-5.4,68.1,94.2,-0.6,72.6,25.2,51.9,0,2034,0,200,0, 
1.1333,193.8,27.6,131.1,213.3,226.5,-35.7,60.0,75.9,18080.4,8.7,435.3,437.4,26.7,-154.2,158.1,-6.6,-6.9,-5.4,70.5,97.8,-0.6,73.2,34.5,58.8,0,2040,0,201,0, 
1.1367,195.3,25.5,126.9,209.4,225.9,-33.6,60.9,73.5,11040.9,3.6,432.9,431.7,25.5,-153.3,157.8,-9.3,-6.9,-5.7,67.2,91.5,-0.3,69.9,28.2,47.4,0,2046,0,202,0, 
1.1400,204.3,18.0,120.6,201.0,218.1,-37.8,60.6,66.3,14375.4,-10.2,419.4,417.3,22.8,-160.2,148.8,-11.1,-6.9,-5.7,55.8,79.5,-0.6,58.2,32.4,46.8,0,2052,0,203,0, 
1.1433,216.0,13.2,111.9,198.9,216.9,-36.9,57.6,65.4,23193.3,-16.8,413.4,406.8,18.9,-158.7,146.1,-19.5,-7.2,-5.7,46.2,75.3,-1.2,53.7,23.1,43.2,0,2058,0,204,0, 
1.1467,203.1,11.4,110.4,195.3,205.8,-43.8,55.5,61.5,24971.7,-11.7,413.4,406.2,21.0,-159.0,150.6,-17.7,-7.2,-5.7,48.6,76.5,-0.3,56.7,19.2,41.1,0,2064,0,205,0, 
1.1500,191.7,10.5,111.0,193.2,206.4,-39.9,63.0,58.2,16894.8,-5.4,416.1,406.8,23.7,-153.9,162.3,-9.0,-6.9,-5.4,51.9,72.6,-0.9,65.4,30.9,37.8,0,2070,0,206,0, 
1.1533,182.7,6.6,108.9,187.5,204.3,-39.9,65.4,55.5,9855.3,-1.8,412.8,404.7,21.0,-155.7,158.7,-3.6,-6.6,-5.4,50.4,66.6,-0.9,56.7,31.8,27.0,0,2076,0,207,0, 
1.1567,201.6,2.1,103.8,185.7,200.4,-39.6,66.0,54.0,12819.3,-6.0,408.0,397.8,19.2,-151.2,155.7,-5.1,-6.9,-5.7,45.3,67.2,-0.9,60.0,30.6,29.4,0,2082,0,208,0, 
1.1600,208.5,-6.3,96.6,178.5,190.5,-50.4,64.5,45.9,21414.9,-18.3,397.5,390.0,7.2,-155.1,158.7,-2.4,-6.9,-5.4,35.1,59.4,-0.9,51.0,29.1,30.3,0,2088,0,209,0, 
1.1633,199.8,-12.6,94.2,176.4,189.0,-52.8,64.5,39.0,22822.8,-16.2,396.9,393.9,7.2,-158.4,160.5,0.9,-6.9,-5.4,33.6,63.0,-0.6,47.7,30.3,30.0,0,2094,0,210,0, 
1.1667,183.9,-2.1,108.3,188.1,201.6,-46.5,61.8,49.5,14745.9,-2.7,413.4,415.2,17.4,-151.8,164.7,-12.0,-6.9,-5.4,51.0,82.8,-0.9,60.3,17.1,31.5,0,2100,0,211,0, 
1.1700,178.5,-3.9,111.0,189.3,204.6,-48.0,61.2,45.3,7187.7,-3.0,418.8,416.4,14.1,-153.9,158.4,-5.4,-6.6,-5.7,55.5,85.8,-1.2,65.4,20.7,33.0,0,2106,0,212,0, 
1.1733,195.0,-6.3,108.3,186.0,200.1,-54.9,58.5,42.3,10077.6,-7.5,408.6,405.9,12.0,-147.6,162.6,-9.3,-6.9,-5.7,46.2,78.3,-0.6,59.4,12.6,28.2,0,2112,0,213,0, 
1.1767,197.1,-13.5,97.2,176.4,185.7,-63.6,48.6,37.5,18450.9,-18.0,392.1,387.3,4.2,-152.4,157.2,-8.7,-7.2,-5.4,31.8,60.9,-0.9,44.1,7.8,21.9,0,2118,0,214,0, 
1.1800,189.6,-9.6,99.3,173.7,184.8,-72.0,47.7,39.0,20155.2,-14.1,396.3,388.8,7.2,-153.9,157.2,-10.5,-6.9,-6.0,37.5,59.7,-0.9,47.4,3.0,12.9,0,2124,0,215,0, 
1.1833,185.4,0.0,110.1,183.3,194.4,-63.0,47.4,45.9,11559.6,-5.7,414.3,407.7,16.2,-146.7,160.2,-22.2,-6.9,-5.7,54.0,75.0,-0.6,57.3,-0.3,19.2,0,2130,0,216,0, 
1.1867,170.7,-11.4,98.4,171.6,179.7,-74.4,40.5,35.4,3853.2,-9.3,409.2,399.3,8.7,-153.0,158.4,-17.7,-6.9,-6.0,44.1,63.0,-0.9,48.3,-2.7,10.8,0,2136,0,217,0, 
1.1900,185.1,-18.0,87.6,161.7,172.2,-77.4,34.2,26.1,6817.2,-21.6,394.2,387.3,-0.3,-161.1,155.4,-18.0,-6.9,-6.0,29.1,49.8,-0.6,36.9,-12.3,7.5,0,2142,0,218,0, 
1.1933,197.1,-24.6,84.0,164.4,170.7,-79.5,30.3,24.6,15116.4,-27.0,385.2,382.2,-5.4,-159.0,150.6,-28.2,-6.9,-5.7,22.8,50.4,-0.6,29.4,-14.7,0.6,0,2148,0,219,0, 
1.1967,183.6,-20.1,85.8,164.7,173.1,-77.4,26.1,24.6,17043.0,-28.2,388.2,384.9,-6.9,-165.9,149.4,-25.2,-7.5,-5.4,26.1,54.3,-0.9,33.6,-15.0,2.4,0,2154,0,220,0, 
1.2000,165.0,-16.5,89.4,167.7,180.6,-72.6,33.0,30.0,8966.1,-20.7,393.9,393.6,-4.5,-163.5,155.7,-14.1,-6.9,-5.7,30.3,57.3,-1.2,41.1,-3.6,6.9,0,2160,0,221,0, 
1.2033,164.7,-9.9,96.3,175.8,187.2,-67.8,38.4,36.6,1259.7,-8.1,404.1,404.1,3.9,-153.0,163.2,-20.1,-6.9,-5.4,36.9,71.4,-0.6,57.0,-1.2,17.1,0,2166,0,222,0, 
1.2067,187.8,-7.5,96.9,178.2,193.2,-58.8,38.7,39.3,4223.7,-10.5,406.8,406.5,9.9,-143.7,172.8,-22.8,-6.6,-6.3,38.4,70.2,-0.6,56.4,-6.0,21.3,0,2172,0,223,0, 
1.2100,204.3,3.0,105.6,189.0,202.2,-48.3,44.7,46.2,12300.6,-2.4,421.8,417.0,17.4,-149.7,157.5,-11.4,-7.2,-5.4,52.5,83.4,-0.6,61.5,7.2,35.1,0,2178,0,224,0, 
1.2133,193.2,9.0,112.8,193.5,204.0,-48.9,46.8,50.1,14301.3,6.9,429.0,423.0,22.5,-146.1,165.3,-16.5,-6.6,-5.7,64.5,90.0,-0.6,67.5,11.4,40.8,0,2184,0,225,0, 
1.2167,186.0,23.1,127.5,206.4,219.9,-29.7,57.0,64.2,5779.8,16.8,441.3,435.3,39.3,-136.2,167.7,-0.3,-6.6,-6.0,73.2,103.2,-0.3,82.8,28.8,52.2,0,2190,0,226,0, 
1.2200,186.3,25.2,132.0,213.6,225.6,-25.5,58.5,71.7,-1407.9,19.5,438.0,433.8,43.2,-135.6,165.6,-8.4,-6.6,-6.0,68.7,99.6,-0.3,79.8,24.6,53.1,0,2196,0,227,0, 
1.2233,204.3,28.2,131.7,213.6,226.2,-24.3,59.1,70.5,1556.1,13.5,432.0,426.3,44.7,-133.8,179.1,4.2,-6.3,-5.7,67.5,96.0,-0.9,77.7,32.7,54.6,0,2202,0,228,0, 
1.2267,217.5,30.6,135.9,221.7,232.5,-16.5,62.4,75.6,10299.9,14.1,438.6,429.9,45.0,-140.4,162.3,-8.7,-6.9,-6.0,68.7,94.8,-0.9,76.2,36.9,63.6,0,2208,0,229,0, 
1.2300,211.8,37.5,141.6,225.3,240.6,-21.9,63.9,83.1,12078.3,21.0,447.3,443.4,55.2,-136.8,163.5,-8.7,-6.9,-6.0,80.1,107.1,-0.9,85.5,38.1,63.0,0,2214,0,230,0, 
1.2333,198.6,41.4,144.0,228.6,240.9,-23.1,64.2,87.6,4149.6,24.0,450.9,446.7,54.0,-134.7,167.4,-4.8,-6.9,-5.4,81.0,108.3,-0.9,87.0,45.3,69.0,0,2220,0,231,0, 
1.2367,195.0,38.4,142.5,224.7,241.2,-19.5,63.9,85.5,-3112.2,23.7,449.4,443.1,55.5,-137.1,163.2,-2.7,-7.2,-5.7,77.7,106.8,-0.6,86.7,44.4,63.6,0,2226,0,232,0, 
1.2400,214.2,36.6,132.9,220.2,230.7,-26.1,61.8,77.7,148.2,12.9,434.1,428.7,50.7,-139.2,156.9,-6.0,-7.2,-6.0,66.6,98.1,-0.6,71.1,43.8,58.2,0,2232,0,233,0, 
1.2433,225.3,36.0,130.8,214.2,228.0,-30.3,57.3,71.7,8817.9,12.0,428.1,423.0,57.3,-134.7,156.0,-12.6,-6.9,-5.7,62.7,93.3,-0.3,68.1,35.7,54.3,0,2238,0,234,0, 
1.2467,214.2,31.8,121.2,206.4,219.6,-36.6,59.1,66.9,10744.5,6.6,419.7,416.1,44.4,-138.9,159.0,-5.1,-6.9,-5.7,54.3,88.5,-0.6,57.3,38.4,46.5,0,2244,0,235,0, 
1.2500,204.3,35.7,126.3,210.0,219.9,-34.2,59.4,72.6,2667.6,15.0,429.9,423.9,53.1,-135.3,162.9,-8.4,-6.9,-6.0,62.4,90.9,-0.6,68.1,33.3,56.4,0,2250,0,236,0, 
1.2533,199.8,31.8,121.2,202.2,216.3,-40.2,58.5,66.9,-4520.1,6.9,421.8,416.1,46.8,-136.8,165.6,-7.5,-6.9,-6.0,56.1,83.7,-0.3,64.5,32.7,25.2,0,2256,0,237,0, 
1.2567,218.4,23.1,108.3,190.8,206.1,-48.0,51.9,59.1,-2148.9,-2.4,410.7,403.5,40.2,-139.5,163.8,-7.2,-6.6,-5.7,47.4,74.7,-0.9,52.8,23.7,33.0,0,2262,0,238,0, 
1.2600,222.3,18.3,102.3,182.1,192.3,-61.5,50.1,49.8,6891.3,-5.4,405.3,398.7,34.8,-136.8,161.1,-6.6,-6.9,-6.0,40.5,73.2,-0.6,45.0,22.5,15.0,0,2268,0,239,0, 
1.2633,214.2,16.8,98.7,178.5,192.6,-60.6,49.8,45.6,8743.8,-3.3,402.6,393.3,36.3,-134.1,167.1,-0.6,-6.9,-5.7,35.1,67.2,-0.6,49.8,22.5,18.3,0,2274,0,240,0, 
1.2667,198.6,14.7,97.5,175.2,188.7,-63.6,50.1,43.2,1407.9,-0.6,399.9,388.8,32.4,-129.0,170.1,-1.2,-7.2,-5.4,34.5,61.8,-0.3,55.2,21.6,23.1,0,2280,0,241,0, 
1.2700,194.4,12.3,99.3,175.5,186.9,-63.0,54.6,43.8,-5779.8,4.5,399.3,391.2,38.4,-126.3,169.5,-1.8,-7.2,-5.7,34.8,63.0,-0.6,54.6,19.2,27.9,0,2286,0,242,0, 
1.2733,200.7,-2.1,88.2,167.1,176.1,-73.2,50.4,36.6,-2815.8,-6.6,393.9,379.2,23.7,-135.9,168.6,1.8,-6.6,-5.7,28.8,50.4,-0.6,38.7,17.7,14.4,0,2292,0,243,0, 
1.2767,207.3,-2.7,87.6,167.7,177.6,-70.8,44.1,38.4,5631.6,-5.7,395.1,385.5,24.9,-136.2,156.6,-18.6,-6.6,-6.0,30.3,53.4,-1.2,41.1,-3.9,15.6,0,2298,0,244,0, 
1.2800,193.5,-10.2,78.6,156.9,166.2,-79.2,39.9,30.3,7484.1,-11.7,379.2,375.0,19.2,-138.0,169.5,-4.2,-7.2,-6.0,16.2,48.9,-0.9,40.5,2.4,7.8,0,2304,0,245,0, 
1.2833,182.7,-7.8,79.2,155.1,168.9,-76.8,39.0,29.1,-444.6,-5.7,379.2,370.2,17.7,-135.9,169.2,-7.2,-6.6,-5.7,19.5,40.5,-0.6,44.1,0.3,6.3,0,2310,0,246,0, 
1.2867,178.5,-8.1,76.8,151.2,164.1,-78.9,37.8,27.6,-7039.5,-10.2,377.4,368.4,15.6,-136.5,172.8,-7.8,-7.2,-5.4,13.5,37.8,-0.6,39.3,-4.5,5.4,0,2316,0,247,0, 
1.2900,200.7,-4.8,77.1,155.4,171.9,-78.3,35.1,27.6,-4594.2,-9.0,382.5,371.7,20.4,-129.0,173.7,-18.0,-6.6,-6.0,16.2,44.1,-0.3,45.0,-8.1,7.5,0,2322,0,248,0, 
1.2933,213.0,-3.3,84.9,158.1,175.8,-70.8,34.8,29.7,4371.9,-5.1,390.0,378.3,21.3,-131.7,158.4,-20.4,-6.6,-5.7,26.7,42.3,-0.9,42.9,0.0,14.1,0,2328,0,249,0, 
1.2967,213.3,6.0,93.0,170.4,181.8,-61.8,39.3,38.1,6298.5,0.3,402.0,391.5,33.6,-125.1,171.9,-13.5,-6.9,-5.7,33.9,58.5,-0.6,52.2,3.6,11.7,0,2334,0,250,0, 
1.3000,203.7,13.2,101.4,175.5,186.3,-72.9,43.2,39.3,-1778.4,7.8,406.8,395.7,34.5,-127.8,174.0,-0.9,-6.9,-5.7,40.2,67.5,-0.9,62.1,15.3,20.4,0,2340,0,251,0, 
1.3033,196.5,15.0,106.5,180.0,196.8,-59.7,44.4,49.5,-8669.7,9.3,410.1,397.2,37.5,-126.6,169.5,-2.7,-6.6,-6.0,44.4,66.3,-0.6,65.1,15.0,20.7,0,2346,0,252,0, 
1.3067,208.8,15.9,106.2,186.9,201.0,-55.8,45.0,49.8,-5187.0,6.3,408.6,396.6,40.8,-130.8,167.4,-9.0,-6.9,-5.7,41.7,65.1,-0.6,62.4,15.0,23.4,0,2352,0,253,0, 
1.3100,218.7,13.8,106.2,190.2,206.1,-48.0,43.5,53.4,3556.8,1.8,405.3,395.7,41.1,-135.6,157.5,-15.9,-7.2,-6.0,38.7,66.9,-0.6,61.2,15.0,29.4,0,2358,0,254,0, 
1.3133,210.3,15.9,112.8,195.0,213.6,-45.0,46.5,59.4,5631.6,4.5,411.0,405.9,39.3,-139.8,158.7,-12.9,-6.9,-6.0,38.7,78.6,-0.9,69.9,16.8,35.7,0,2364,0,255,0, 
1.3167,190.8,22.8,120.0,204.9,221.1,-33.6,52.5,69.6,-2148.9,14.7,424.5,418.2,41.7,-139.5,162.6,-10.2,-6.9,-5.7,50.1,87.6,-0.9,81.0,26.7,45.6,0,2370,0,0,0, 
1.3200,189.0,26.4,129.0,208.8,232.5,-24.3,55.2,74.1,-9040.2,22.5,435.3,431.1,47.7,-141.6,156.9,-13.2,-6.9,-5.7,60.3,98.1,-0.6,86.4,32.1,54.0,0,2376,0,1,0, 
1.3233,209.7,32.1,131.7,213.6,234.9,-18.0,58.8,79.5,-6520.8,27.6,436.5,433.8,57.6,-135.3,160.5,-10.5,-6.9,-5.7,65.1,102.9,-0.9,90.3,38.4,59.1,0,2382,0,2,0, 
1.3267,215.1,25.2,128.4,211.2,234.0,-18.0,59.7,73.8,2815.8,20.7,434.1,428.7,54.9,-144.0,153.9,0.0,-6.6,-5.7,62.7,96.9,0.0,85.8,49.5,60.9,0,2388,0,3,0, 
1.3300,203.7,33.9,138.9,219.0,233.4,-12.9,63.6,79.8,5112.9,30.6,446.7,438.3,63.9,-140.1,151.8,-0.9,-6.6,-5.7,73.8,106.8,-1.2,90.0,53.4,63.6,0,2394,0,4,0, 
1.3333,196.2,47.7,155.4,230.7,246.6,-8.1,65.4,86.4,-2445.3,42.3,460.8,453.9,72.9,-134.1,165.6,-2.4,-6.9,-5.7,87.3,115.2,-0.9,95.4,48.3,66.6,0,2400,0,5,0, 
1.3367,198.0,48.0,152.4,234.9,246.6,-5.1,69.0,85.8,-9262.5,39.6,457.5,453.9,71.1,-133.5,169.5,15.9,-6.9,-5.7,83.4,117.0,-0.9,99.6,65.7,72.3,0,2406,0,6,0, 
1.3400,207.3,44.4,145.8,224.7,241.2,-18.3,56.1,78.9,-6076.2,29.7,445.2,440.7,66.9,-141.9,157.8,3.3,-6.6,-6.0,72.9,108.6,0.0,88.2,51.6,55.5,0,2412,0,7,0, 
1.3433,222.3,38.4,142.2,219.6,235.8,-22.2,51.6,75.9,2815.8,19.5,438.3,434.7,58.5,-139.8,161.7,-0.3,-6.9,-6.0,62.4,105.6,-0.9,81.3,43.2,57.9,0,2418,0,8,0, 
1.3467,219.0,44.4,144.9,223.2,236.4,-23.7,55.5,81.6,4668.3,21.3,442.2,439.8,63.6,-134.7,165.9,2.4,-6.9,-5.7,65.4,104.4,-0.9,80.7,43.5,53.7,0,2424,0,9,0, 
1.3500,202.2,37.5,135.3,212.1,225.3,-39.0,55.2,74.4,-2593.5,18.3,435.3,432.3,54.3,-133.2,179.1,17.4,-7.2,-6.3,56.4,99.0,-0.9,77.4,53.1,44.1,0,2430,0,10,0, 
1.3533,198.6,34.5,132.3,212.7,221.7,-41.4,53.1,75.9,-10077.6,16.5,438.3,429.9,54.9,-129.0,177.0,-5.4,-7.5,-5.7,57.3,95.1,-0.6,76.8,34.5,30.3,0,2436,0,11,0, 
1.3567,213.3,22.8,120.6,201.0,213.0,-49.8,53.4,64.5,-6891.3,6.0,425.7,417.3,45.3,-136.2,169.5,-2.4,-6.9,-6.0,43.5,84.6,-0.9,69.0,34.8,30.0,0,2442,0,12,0, 
1.3600,215.4,11.7,108.0,188.1,199.5,-65.7,44.4,52.8,2223.0,-4.5,411.0,407.1,32.4,-145.5,154.2,-5.7,-7.2,-5.7,34.2,75.0,-0.6,57.6,22.5,23.4,0,2448,0,13,0, 
1.3633,203.1,0.9,96.9,177.3,184.8,-65.1,43.8,40.5,4668.3,-11.7,398.1,390.3,26.1,-151.8,161.1,-7.8,-7.2,-6.0,20.4,59.4,-0.6,54.9,25.5,20.1,0,2454,0,14,0, 
1.3667,182.1,0.6,91.5,173.4,180.0,-76.8,43.5,36.6,-2889.9,-13.2,396.3,391.5,20.1,-153.6,156.6,-9.6,-6.9,-6.3,19.8,58.8,-0.6,54.9,29.1,8.7,0,2460,0,15,0, 
1.3700,173.1,-5.4,85.5,165.0,174.3,-92.1,37.8,29.4,-9707.1,-17.7,390.6,384.9,17.4,-153.6,163.5,-16.8,-6.6,-6.0,14.4,51.0,-0.3,45.0,8.4,2.7,0,2466,0,16,0, 
1.3733,183.3,-15.0,77.1,156.9,166.2,-90.9,39.0,23.7,-6669.0,-21.9,386.1,373.8,11.7,-159.0,155.1,-11.1,-6.9,-5.7,10.2,37.8,-0.6,41.7,8.1,-14.4,0,2472,0,17,0, 
1.3767,193.8,-21.0,74.7,155.4,164.4,-96.3,33.0,18.6,2148.9,-25.8,376.5,366.3,6.3,-159.3,143.4,-10.2,-6.6,-5.7,8.1,31.8,-0.6,32.4,1.5,-1.5,0,2478,0,18,0, 
1.3800,181.8,-23.7,78.6,156.0,167.1,-90.0,33.6,18.0,4149.6,-24.9,373.2,369.9,0.6,-161.4,146.1,-15.6,-7.2,-6.0,1.8,31.8,-0.6,29.4,7.5,-12.0,0,2484,0,19,0, 
1.3833,170.1,-15.0,87.6,165.9,174.0,-78.3,39.6,24.3,-3556.8,-10.5,382.2,379.2,8.1,-150.6,161.1,-1.5,-6.9,-5.7,11.7,42.0,-0.9,48.3,15.0,-2.7,0,2490,0,20,0, 
1.3867,166.5,-13.5,94.5,173.7,189.0,-65.4,45.9,31.2,-10225.8,-6.3,391.8,387.6,12.6,-148.8,162.0,-1.5,-6.6,-5.7,21.6,50.1,-0.6,50.4,16.8,8.4,0,2496,0,21,0, 
1.3900,187.2,-9.9,99.3,182.7,186.9,-65.1,48.0,31.5,-7335.9,1.8,400.8,397.5,21.3,-141.6,159.6,-7.8,-7.2,-5.7,25.5,59.4,-0.9,60.9,27.3,19.2,0,2502,0,22,0, 
1.3933,198.0,-10.2,97.8,180.9,188.1,-65.4,42.3,29.4,1333.8,2.1,404.7,396.0,22.2,-141.3,159.6,-3.3,-7.2,-6.3,29.4,58.2,-0.6,60.3,25.2,19.8,0,2508,0,23,0, 
1.3967,192.0,-1.8,102.3,184.5,189.0,-57.9,50.7,35.7,2741.7,13.2,409.5,398.1,34.5,-135.6,167.4,6.6,-6.9,-6.0,38.1,61.5,-0.3,72.0,35.1,22.8,0,2514,0,24,0, 
1.4000,174.6,9.9,113.1,192.9,199.5,-45.9,53.4,46.8,-4742.4,30.9,428.7,415.5,39.9,-129.0,175.2,8.1,-6.6,-5.4,54.9,72.6,-0.9,85.8,36.6,33.0,0,2520,0,25,0, 
1.4033,179.7,19.2,119.1,196.8,205.2,-39.3,56.4,50.4,-11707.8,33.6,433.2,419.1,48.0,-120.3,182.7,11.1,-6.9,-6.0,61.2,76.2,-0.3,93.3,38.1,45.9,0,2526,0,26,0, 
1.4067,199.5,17.4,119.4,197.4,210.0,-32.4,54.3,53.7,-9262.5,28.2,430.5,418.2,48.9,-123.6,173.7,9.9,-6.3,-6.0,59.4,77.4,-0.6,86.1,38.7,46.5,0,2532,0,27,0, 
1.4100,210.9,18.6,117.3,195.9,209.7,-31.8,54.3,56.1,-74.1,26.1,426.0,408.9,50.4,-124.5,172.8,12.3,-6.9,-6.3,50.4,75.6,-0.3,84.3,40.2,48.6,0,2538,0,28,0, 
1.4133,205.8,26.4,128.1,209.1,222.3,-22.8,54.0,66.0,1778.4,29.4,435.6,427.8,58.2,-123.9,176.4,16.8,-7.5,-5.7,59.7,86.7,-0.9,87.0,40.8,56.4,0,2544,0,29,0, 
1.4167,192.6,37.5,140.4,222.3,238.2,-7.2,61.5,77.1,-6002.1,47.4,451.2,441.9,66.9,-117.9,176.7,15.3,-6.9,-5.7,75.3,100.2,-0.9,99.9,49.8,71.1,0,2550,0,30,0, 
1.4200,198.9,48.9,152.1,233.1,246.3,-1.2,64.5,88.8,-13189.8,48.3,462.0,454.5,75.6,-112.5,181.2,13.2,-7.2,-6.0,85.8,114.6,-0.6,107.4,55.5,71.7,0,2556,0,31,0, 
1.4233,217.8,49.5,155.1,240.9,254.4,-2.4,68.4,92.4,-10966.8,46.8,463.5,457.8,77.4,-117.0,174.9,18.0,-6.6,-6.0,84.9,123.6,-0.3,105.6,62.1,81.6,0,2562,0,32,0, 
1.4267,225.6,44.4,150.3,234.6,246.6,-0.6,63.3,89.1,-1778.4,33.0,452.1,445.2,67.8,-122.7,170.1,10.5,-6.9,-6.0,73.2,101.7,-0.3,93.3,59.4,73.5,0,2568,0,33,0, 
1.4300,219.0,46.8,156.0,243.9,249.3,-2.7,60.6,92.1,666.9,39.9,462.6,450.6,70.5,-126.6,165.3,0.9,-6.9,-6.0,85.2,111.0,-0.6,102.6,57.3,81.0,0,2574,0,34,0, 
1.4333,201.3,42.9,159.6,240.9,248.4,-0.9,63.6,91.5,-6891.3,39.0,462.6,455.4,64.8,-127.5,173.7,5.7,-6.9,-5.7,84.3,108.0,-0.6,94.5,59.7,71.7,0,2580,0,35,0, 
1.4367,199.2,38.1,155.1,237.3,245.4,-2.4,62.7,90.6,-14079.0,36.6,459.3,453.0,62.4,-134.1,166.8,2.4,-6.9,-6.0,76.2,104.7,-0.6,96.6,60.0,64.8,0,2586,0,36,0, 
1.4400,204.9,26.4,137.4,226.5,230.4,-15.6,63.3,76.5,-11189.1,23.1,441.6,435.3,51.9,-138.3,159.9,4.2,-6.9,-6.0,60.3,94.5,-0.6,82.5,55.8,58.8,0,2592,0,37,0, 
1.4433,211.8,12.6,119.7,207.0,214.2,-31.8,53.7,60.6,-2519.4,9.9,425.4,422.4,42.9,-147.6,156.9,-0.3,-6.9,-5.7,42.9,80.7,-0.9,73.5,42.3,58.2,0,2598,0,38,0, 
1.4467,197.4,5.4,108.3,192.3,198.9,-45.6,49.5,52.5,-222.3,3.6,414.6,411.9,36.0,-151.8,156.9,-0.3,-6.9,-6.0,34.2,68.7,-1.2,68.4,39.0,48.6,0,2604,0,39,0, 
1.4500,179.1,0.3,99.3,183.3,191.1,-54.9,47.4,48.0,-7706.4,-1.5,406.2,403.2,24.9,-160.5,156.3,-10.8,-7.5,-6.0,24.3,59.1,-0.6,60.0,26.4,35.1,0,2610,0,40,0, 
1.4533,176.1,0.9,97.8,180.9,188.4,-57.6,45.0,47.1,-14968.2,-2.4,401.1,395.4,24.6,-162.0,155.4,-9.9,-6.9,-5.4,20.4,49.8,-0.3,51.9,27.0,25.5,0,2616,0,41,0, 
1.4567,189.6,-5.1,89.4,170.7,177.0,-64.5,42.0,39.0,-12522.9,-11.4,394.2,384.6,15.0,-167.7,153.9,-16.5,-6.9,-6.0,14.4,37.5,-0.9,42.6,15.6,16.5,0,2622,0,42,0, 
1.4600,195.9,-17.4,82.2,162.3,170.7,-76.2,35.1,35.7,-3334.5,-24.9,384.3,379.2,2.7,-171.6,147.9,-17.7,-6.9,-6.0,3.6,31.5,-0.6,27.0,7.5,9.6,0,2628,0,43,0, 
1.4633,189.9,-13.2,85.5,164.7,170.7,-74.7,36.3,37.2,-1482.0,-24.3,387.3,381.0,3.9,-172.2,150.0,-25.8,-6.9,-5.7,3.3,36.6,-0.6,34.5,3.0,9.0,0,2634,0,44,0, 
1.4667,171.0,-10.8,86.7,165.0,172.2,-69.9,36.6,39.3,-8225.1,-19.2,386.1,379.2,2.1,-170.4,158.4,-15.3,-6.9,-5.7,5.4,36.0,-0.6,36.3,5.4,6.9,0,2640,0,45,0, 
1.4700,180.9,-2.7,95.4,172.8,178.5,-67.5,39.0,46.5,-15190.5,-10.5,400.2,395.4,13.5,-159.3,161.1,-22.5,-7.2,-6.0,18.0,51.6,-0.3,42.9,-1.2,8.7,0,2646,0,46,0, 
1.4733,194.7,-9.0,85.2,165.9,169.2,-73.2,37.5,36.0,-12671.1,-16.5,390.6,384.9,13.2,-157.5,165.9,-14.4,-7.5,-6.0,14.4,39.3,-0.9,33.3,7.2,-10.2,0,2652,0,47,0, 
1.4767,205.8,-9.3,85.5,165.9,170.4,-76.8,34.2,30.3,-4149.6,-10.8,391.2,387.0,19.2,-147.9,162.0,-16.2,-6.9,-6.0,14.4,39.9,-0.3,40.2,-4.8,18.0,0,2658,0,48,0, 
1.4800,194.7,-6.3,87.6,167.1,169.5,-75.9,33.0,30.3,-1037.4,-3.6,395.4,385.2,21.3,-146.1,159.6,-18.3,-6.9,-5.4,19.2,40.2,-0.3,40.5,1.2,15.9,0,2664,0,49,0, 
1.4833,182.1,0.9,96.9,172.2,173.4,-72.9,36.6,33.3,-8225.1,4.2,403.8,393.9,30.3,-138.0,171.0,-15.6,-6.6,-5.7,30.3,46.5,-0.9,57.0,0.6,15.9,0,2670,0,50,0, 
1.4867,177.3,3.6,100.5,177.0,179.1,-63.0,45.9,41.7,-15264.6,6.0,411.9,401.7,34.2,-140.7,166.2,-3.9,-6.9,-5.7,35.1,50.4,-0.9,57.3,18.6,21.9,0,2676,0,51,0, 
1.4900,195.0,2.7,98.1,178.5,185.4,-56.7,40.8,45.0,-12597.0,3.6,403.5,395.1,34.5,-145.5,161.4,-7.5,-7.2,-5.7,28.5,47.7,-0.6,54.6,5.7,25.5,0,2682,0,52,0, 
1.4933,204.0,4.2,102.3,185.1,192.9,-55.5,34.5,46.8,-3630.9,1.8,402.3,396.6,35.4,-140.7,155.1,-20.1,-6.6,-6.0,27.0,51.9,-1.2,55.5,6.3,26.4,0,2688,0,53,0, 
1.4967,194.7,8.1,106.5,192.0,198.9,-57.6,38.7,53.4,-741.0,12.0,411.3,407.1,38.7,-137.1,166.2,-10.2,-6.9,-5.7,31.2,61.8,-0.6,61.5,10.5,35.1,0,2694,0,54,0, 
1.5000,184.5,21.0,120.6,203.4,215.7,-33.0,47.7,69.9,-7706.4,27.3,423.0,420.0,51.0,-131.1,169.8,-5.1,-6.6,-6.0,48.9,75.3,-0.9,75.0,29.1,44.4,0,2700,0,55,0, 
1.5033,185.1,32.7,136.8,217.2,226.5,-24.3,51.6,80.4,-14153.1,41.4,442.5,435.3,66.0,-125.4,174.3,-5.7,-7.2,-5.7,67.8,91.5,-0.6,89.1,35.4,56.7,0,2706,0,56,0, 
1.5067,201.3,39.6,147.0,232.5,239.4,-7.8,59.1,91.5,-10818.6,48.3,451.8,442.8,73.5,-118.2,172.5,-0.9,-6.9,-6.0,77.7,101.1,-1.2,99.6,44.1,66.9,0,2712,0,57,0, 
1.5100,210.6,42.0,152.1,236.4,245.1,-9.3,60.0,92.4,-1556.1,52.2,453.6,445.5,76.2,-120.6,171.6,3.9,-6.6,-5.7,81.0,104.7,-0.6,102.6,42.0,78.9,0,2718,0,58,0, 
1.5133,211.8,48.3,158.7,240.6,249.0,-6.6,65.7,95.7,1111.5,51.3,459.9,452.1,77.4,-115.5,176.7,9.3,-6.9,-5.7,84.6,111.6,-0.6,105.6,54.6,80.1,0,2724,0,59,0, 
1.5167,203.7,53.7,162.3,240.3,252.0,-0.9,72.3,103.8,-6002.1,56.4,462.3,455.7,80.4,-109.5,181.2,15.6,-6.6,-5.7,85.5,117.3,-0.6,113.7,66.9,76.8,0,2730,0,60,0, 
1.5200,205.8,59.4,162.3,246.0,252.9,2.4,72.9,107.1,-12300.6,54.9,464.1,452.7,82.5,-109.5,179.7,13.5,-6.9,-6.0,87.6,108.9,-0.6,107.7,72.3,79.2,0,2736,0,61,0, 
1.5233,224.7,59.1,157.8,243.0,252.3,-3.6,65.4,103.5,-8669.7,53.7,461.1,450.0,84.0,-111.0,165.9,1.2,-6.9,-5.7,84.9,111.0,-0.9,104.7,62.1,87.6,0,2742,0,62,0, 
1.5267,241.8,54.6,152.1,236.7,243.0,-9.3,59.7,99.6,741.0,40.2,447.9,442.2,78.9,-110.4,174.0,3.9,-7.2,-5.7,76.8,99.3,-0.9,96.9,60.9,81.6,0,2748,0,63,0, 
1.5300,239.4,48.9,147.6,231.3,236.4,-13.2,59.4,95.7,3927.3,36.9,444.6,438.3,72.3,-109.8,182.4,7.2,-6.9,-5.7,72.6,93.9,-0.6,89.7,57.9,77.4,0,2754,0,64,0, 
1.5333,222.6,51.0,149.1,228.0,231.3,-17.7,63.0,94.8,-2445.3,35.7,447.9,436.5,70.2,-110.1,180.0,-1.8,-7.2,-5.7,77.4,91.2,-0.9,90.0,60.3,68.4,0,2760,0,65,0, 
1.5367,221.4,49.5,144.3,222.6,229.8,-19.2,66.0,88.8,-9633.0,36.6,448.5,434.1,71.4,-109.2,193.2,15.0,-7.2,-5.4,75.6,90.6,0.0,88.8,62.1,64.5,0,2766,0,66,0, 
1.5400,233.7,35.7,131.1,208.5,216.0,-30.0,60.0,74.7,-5705.7,27.9,434.1,419.4,61.8,-110.7,182.4,4.8,-7.2,-6.0,60.6,74.1,-0.6,78.3,57.0,55.2,0,2772,0,67,0, 
1.5433,240.0,18.9,113.7,193.2,202.5,-42.6,56.4,57.0,3779.1,16.5,409.2,399.3,49.5,-118.8,186.0,8.1,-6.6,-6.0,43.8,60.3,-0.6,66.9,57.6,45.6,0,2778,0,68,0, 
1.5467,225.0,8.1,102.6,179.4,190.2,-53.4,54.0,45.3,6817.2,10.8,400.5,388.5,38.7,-126.9,184.2,6.0,-6.9,-5.7,34.8,54.3,-0.9,64.2,49.8,35.7,0,2784,0,69,0, 
1.5500,199.2,4.2,98.7,171.3,180.3,-59.4,53.7,37.5,-148.2,10.8,398.1,391.5,33.6,-130.5,187.5,13.8,-6.9,-6.0,29.7,51.6,-0.9,67.5,50.1,28.2,0,2790,0,70,0, 
1.5533,193.2,-6.6,87.3,156.0,167.1,-68.7,50.7,31.8,-6817.2,-3.3,391.5,382.8,24.9,-140.7,180.9,12.0,-6.6,-5.7,18.0,42.3,-0.6,52.5,42.0,13.8,0,2796,0,71,0, 
1.5567,201.9,-15.6,73.2,144.6,156.6,-70.5,43.5,20.7,-3408.6,-14.7,375.6,363.6,12.6,-149.7,169.2,-4.2,-6.9,-5.7,6.6,18.3,-0.3,39.0,26.4,10.5,0,2802,0,72,0, 
1.5600,210.3,-22.8,64.8,137.4,147.6,-85.2,41.4,17.1,6150.3,-22.8,368.1,355.5,9.0,-155.4,168.0,2.7,-7.2,-5.7,-0.6,16.8,-1.2,30.0,25.5,1.5,0,2808,0,73,0, 
1.5633,199.2,-20.4,69.6,139.8,144.3,-99.0,39.9,13.2,8669.7,-20.4,371.7,356.7,13.2,-153.0,169.8,4.2,-6.9,-6.0,5.4,21.0,-0.9,32.1,25.5,9.3,0,2814,0,74,0, 
1.5667,178.8,-17.4,79.5,147.3,157.5,-82.8,42.0,18.9,2000.7,-13.2,382.5,371.7,15.3,-154.2,168.9,-11.4,-6.9,-5.7,19.8,31.2,-0.9,42.0,21.6,-1.2,0,2820,0,75,0, 
1.5700,178.5,-12.6,87.6,159.3,165.0,-83.1,40.2,23.7,-4446.0,-2.1,394.5,382.5,21.9,-150.6,179.1,-1.2,-7.2,-5.4,30.6,39.9,-0.6,48.9,17.4,11.1,0,2826,0,76,0, 
1.5733,192.3,-9.0,98.1,169.2,177.0,-72.6,37.8,30.3,-741.0,1.5,402.3,390.6,27.0,-149.7,164.7,-8.1,-6.6,-5.7,38.4,51.9,-0.6,56.7,16.5,28.2,0,2832,0,77,0, 
1.5767,206.1,-7.8,99.0,173.4,182.1,-67.5,39.0,30.0,8447.4,-5.1,405.6,395.1,24.0,-148.5,162.9,-3.0,-7.2,-5.7,36.6,53.4,-0.6,52.8,20.1,24.3,0,2838,0,78,0, 
1.5800,201.9,3.9,108.0,184.5,192.3,-58.8,44.4,43.2,11189.1,3.0,413.7,407.7,37.2,-141.6,165.6,-1.5,-7.5,-6.0,48.6,66.6,-0.9,60.3,20.4,34.8,0,2844,0,79,0, 
1.5833,194.4,21.0,128.7,201.6,213.0,-44.7,49.2,57.0,4223.7,24.6,431.4,423.9,56.4,-127.2,181.5,9.6,-6.6,-5.4,64.2,82.2,-0.9,75.3,28.8,44.1,0,2850,0,80,0, 
1.5867,192.9,27.9,138.6,210.3,221.7,-33.6,50.1,68.4,-2519.4,31.2,441.3,434.4,63.3,-121.5,180.0,7.8,-7.5,-6.0,74.7,95.1,-1.2,83.4,30.9,50.1,0,2856,0,81,0, 
1.5900,207.9,24.0,137.1,214.5,225.6,-34.5,48.9,67.8,963.3,28.2,439.2,430.8,62.1,-123.3,179.4,14.4,-7.2,-5.7,72.9,93.9,-0.6,77.1,26.4,60.0,0,2862,0,82,0, 
1.5933,225.9,27.3,139.5,219.0,229.2,-30.0,47.7,76.8,10225.8,26.4,437.7,429.0,67.2,-116.7,174.6,-2.7,-7.2,-5.7,73.8,97.2,-0.3,80.4,24.0,60.3,0,2868,0,83,0, 
1.5967,217.2,30.3,141.0,223.5,231.0,-26.1,51.0,77.1,12967.5,29.4,439.2,427.2,62.7,-122.7,168.3,-1.2,-7.2,-6.3,75.6,99.9,-0.9,81.3,25.5,65.1,0,2874,0,84,0, 
1.6000,200.1,39.3,149.4,229.5,239.1,-18.6,52.2,85.5,5853.9,40.5,450.6,440.7,67.5,-118.2,171.6,3.0,-7.5,-5.7,88.8,99.6,-0.6,92.7,31.5,72.6,0,2880,0,85,0, 
1.6033,197.7,38.1,150.3,228.0,237.0,-24.0,50.1,84.3,-889.2,42.0,458.7,450.6,66.0,-122.7,172.8,3.9,-7.2,-5.7,92.1,108.3,-0.9,95.7,31.8,73.2,0,2886,0,86,0, 
1.6067,216.6,34.8,147.0,227.7,236.1,-16.5,48.9,83.7,2000.7,40.5,452.7,442.5,65.1,-124.2,165.3,3.6,-7.2,-5.7,87.6,99.9,-0.3,91.8,32.4,75.6,0,2892,0,87,0, 
1.6100,229.5,29.7,139.8,225.0,236.7,-20.4,50.1,79.5,10744.5,29.1,444.0,436.2,62.1,-128.4,162.6,0.9,-6.9,-6.0,79.5,98.7,-0.3,80.1,35.7,72.0,0,2898,0,88,0, 
1.6133,227.4,29.4,138.9,222.3,237.3,-17.1,49.2,81.6,13412.1,31.8,441.0,435.6,61.8,-129.0,152.7,0.0,-6.9,-5.7,76.8,99.6,-0.6,89.7,31.8,68.4,0,2904,0,89,0, 
1.6167,206.7,29.7,142.2,223.2,231.0,-17.1,53.7,83.7,6446.7,35.4,450.0,435.9,65.1,-127.5,162.3,0.6,-6.9,-6.3,83.4,94.8,-0.6,87.6,39.6,69.9,0,2910,0,90,0, 
1.6200,217.5,41.7,147.3,229.5,234.6,-13.2,57.3,92.1,-296.4,46.2,459.6,441.3,75.9,-117.0,173.1,2.1,-6.9,-5.4,92.7,101.1,-0.6,97.8,36.0,77.1,0,2916,0,91,0, 
1.6233,229.8,34.2,141.0,222.9,231.0,-8.4,57.9,87.0,2741.7,35.4,444.9,430.5,70.8,-108.6,187.2,15.9,-6.6,-5.7,82.5,92.1,-0.9,84.9,51.0,83.4,0,2922,0,92,0, 
1.6267,248.4,45.6,152.4,233.7,234.6,-11.4,61.5,96.6,11633.7,45.6,451.5,439.5,80.1,-98.1,165.0,-0.3,-6.6,-5.4,91.5,103.5,-0.6,97.2,48.3,77.7,0,2928,0,93,0, 
1.6300,243.3,44.7,146.4,222.0,226.8,-24.0,57.6,91.5,14153.1,44.1,446.4,432.9,75.6,-99.9,171.6,9.3,-6.9,-5.7,85.2,93.3,-0.3,90.6,48.3,71.1,0,2934,0,94,0, 
1.6333,232.5,51.3,150.9,222.0,226.8,-17.4,57.9,93.9,7113.6,49.8,445.8,436.5,79.2,-93.6,174.0,-2.1,-7.2,-6.0,90.3,93.9,-0.3,95.1,50.1,74.4,0,2940,0,95,0, 
1.6367,226.5,41.7,138.3,208.5,214.5,-29.1,55.5,82.5,-222.3,39.3,433.5,418.8,68.1,-98.7,185.4,10.5,-7.5,-5.7,75.0,77.1,-0.9,84.9,50.4,62.1,0,2946,0,96,0, 
1.6400,241.5,36.0,130.5,200.1,205.5,-33.9,51.0,75.0,2519.4,30.3,425.7,410.1,64.5,-99.9,171.6,-7.8,-6.6,-5.7,66.6,73.8,-0.9,75.6,42.6,63.9,0,2952,0,97,0, 
1.6433,251.4,25.5,117.3,191.4,195.6,-38.4,48.3,60.3,11040.9,22.8,414.0,400.2,52.2,-100.8,168.3,-4.2,-6.9,-6.0,56.7,64.2,-0.9,67.2,40.2,48.9,0,2958,0,98,0, 
1.6467,242.1,12.6,107.1,177.9,181.2,-53.4,41.1,47.4,13041.6,12.0,405.3,390.3,43.5,-106.5,184.2,6.0,-6.9,-5.7,49.2,51.3,-0.9,60.6,45.6,42.9,0,2964,0,99,0, 
1.6500,217.2,5.4,103.8,173.1,169.8,-67.5,39.6,43.8,6224.4,17.4,404.1,391.5,36.6,-114.0,178.8,-6.9,-6.9,-5.7,51.6,53.4,-0.6,64.5,31.8,37.2,0,2970,0,100,0, 
1.6533,207.0,-1.8,93.0,160.2,165.9,-70.8,38.7,39.3,-1111.5,6.3,393.9,383.4,29.4,-119.1,178.8,-2.7,-6.9,-6.0,39.0,46.2,-0.6,57.3,30.6,32.1,0,2976,0,101,0, 
1.6567,219.6,-12.0,82.8,151.5,156.9,-76.5,32.4,29.7,1259.7,-1.5,380.4,367.8,18.6,-124.2,173.1,-11.1,-7.5,-6.0,24.0,30.6,-0.6,47.4,17.7,25.8,0,2982,0,102,0, 
1.6600,223.5,-24.0,71.4,141.3,147.3,-84.0,24.9,18.9,10225.8,-11.7,369.3,356.1,10.8,-132.9,169.2,-8.7,-6.9,-5.7,15.6,20.1,-0.9,40.5,17.1,6.0,0,2988,0,103,0, 
1.6633,213.6,-22.8,71.7,145.2,146.4,-84.6,27.6,21.0,12597.0,-10.5,374.4,361.2,9.6,-136.2,169.2,-12.3,-6.9,-6.0,21.0,24.9,-0.9,42.6,7.8,-6.6,0,2994,0,104,0, 
1.6667,198.0,-16.8,79.5,147.9,154.2,-84.0,29.1,23.7,5187.0,-2.1,382.2,370.8,16.8,-137.7,174.0,-6.0,-6.6,-5.4,23.7,39.0,-0.6,47.7,9.0,16.5,0,3000,0,105,0, 
1.6700,184.2,-15.9,78.0,149.1,156.9,-83.1,30.9,26.1,-2297.1,-1.8,382.8,372.6,14.7,-136.5,180.0,-1.2,-6.9,-6.0,25.8,39.0,-1.2,47.4,11.4,1.8,0,3006,0,106,0, 
1.6733,201.3,-11.4,86.7,159.6,164.4,-73.5,31.5,32.1,-222.3,-0.6,385.8,375.9,20.7,-140.4,160.8,-14.1,-6.6,-6.0,30.3,46.2,-0.9,49.5,9.3,7.5,0,3012,0,107,0, 
1.6767,205.2,-19.5,78.6,155.1,161.7,-80.7,25.2,26.4,8669.7,-12.3,381.6,369.9,11.4,-151.2,161.7,-7.8,-6.9,-5.7,22.5,39.9,-0.9,42.3,7.2,8.4,0,3018,0,108,0, 
1.6800,207.0,-9.0,96.9,171.3,179.7,-72.0,33.6,37.2,11189.1,-1.5,393.9,385.2,18.0,-147.9,163.8,-6.0,-6.6,-5.7,33.6,49.5,-0.6,55.8,10.8,24.6,0,3024,0,109,0, 
1.6833,181.2,-4.8,104.4,182.7,193.2,-65.7,37.8,43.5,4001.4,8.7,406.8,399.6,21.9,-152.1,162.3,-2.1,-7.2,-5.7,43.8,63.9,-0.6,63.0,17.7,26.7,0,3030,0,110,0, 
1.6867,175.8,1.5,116.7,196.5,204.3,-55.2,40.2,53.7,-3112.2,15.6,415.5,411.6,27.0,-151.2,164.4,-10.8,-7.2,-5.7,52.2,76.8,-0.9,71.4,20.7,31.8,0,3036,0,111,0, 
1.6900,184.5,3.0,119.4,201.3,209.7,-51.9,42.6,55.2,-592.8,15.3,422.1,414.3,30.3,-153.9,170.7,-1.8,-6.9,-5.4,57.0,82.5,-0.9,77.1,17.7,36.0,0,3042,0,112,0, 
1.6933,203.1,6.0,129.0,214.5,225.6,-39.3,48.3,63.6,8225.1,18.6,432.0,423.3,35.4,-152.7,155.1,-1.5,-7.5,-5.7,64.2,90.9,-0.6,73.2,21.0,44.1,0,3048,0,113,0, 
1.6967,195.9,17.4,137.4,224.1,233.7,-38.4,47.1,70.5,10744.5,27.0,447.0,444.6,44.1,-148.8,156.9,-4.8,-6.3,-6.0,76.5,109.5,-0.6,82.5,25.2,54.6,0,3054,0,114,0, 
1.7000,191.7,28.5,147.9,230.1,241.5,-28.5,55.8,80.7,2964.0,42.3,455.4,451.8,55.5,-139.5,168.9,5.4,-7.2,-6.0,88.2,119.4,-0.9,99.9,32.4,57.3,0,3060,0,115,0, 
1.7033,195.0,36.6,156.0,236.1,247.2,-17.7,51.3,88.2,-4223.7,48.9,468.3,457.5,60.9,-131.1,170.4,1.5,-6.9,-5.7,97.8,120.3,-0.6,99.3,28.8,60.3,0,3066,0,116,0, 
1.7067,215.4,40.2,155.4,237.3,248.1,-14.7,57.6,91.2,-889.2,45.6,464.1,452.7,66.6,-121.8,178.2,9.3,-6.9,-6.0,97.5,119.4,-0.3,91.8,27.3,57.6,0,3072,0,117,0, 
1.7100,231.6,44.1,156.3,236.4,247.8,-26.7,48.6,89.7,7706.4,46.8,461.4,452.1,72.0,-117.0,168.9,2.4,-6.9,-5.4,95.4,119.1,-0.3,98.1,27.9,64.5,0,3078,0,118,0, 
1.7133,232.2,51.6,162.6,239.4,251.1,-18.3,47.7,96.0,10151.7,47.1,465.6,457.8,78.6,-106.2,176.7,9.6,-6.9,-5.7,101.7,120.9,-1.2,96.3,32.4,68.1,0,3084,0,119,0, 
1.7167,221.1,56.1,166.8,243.3,253.5,-14.1,44.7,102.0,2889.9,55.2,470.1,461.4,82.8,-97.8,182.4,3.9,-6.6,-5.7,103.8,120.9,-0.9,104.4,33.6,67.8,0,3090,0,120,0, 
1.7200,226.8,64.5,170.7,249.9,257.4,-8.4,49.5,105.0,-4075.5,57.0,475.5,467.7,88.8,-91.5,186.9,6.9,-6.9,-5.4,109.8,125.7,-0.9,103.2,32.1,61.5,0,3096,0,121,0, 
1.7233,240.9,59.1,163.8,243.0,253.2,-12.0,49.8,95.1,-1630.2,49.8,473.7,461.7,85.8,-84.3,204.6,19.8,-7.5,-5.7,106.2,122.4,-1.2,98.7,33.0,67.8,0,3102,0,122,0, 
1.7267,253.2,52.8,157.8,238.5,245.4,-15.3,46.5,89.7,7187.7,46.2,466.5,453.3,80.7,-84.9,191.4,7.8,-6.6,-6.3,102.6,114.6,-0.6,96.0,35.1,66.6,0,3108,0,123,0, 
1.7300,250.5,51.3,156.9,234.6,246.3,-15.3,53.1,86.7,9781.2,51.3,465.6,453.9,83.7,-82.2,188.7,8.4,-6.9,-6.3,101.4,114.9,-0.6,96.6,37.8,68.1,0,3114,0,124,0, 
1.7333,238.2,46.8,147.6,223.8,237.0,-22.5,56.4,84.9,2000.7,50.1,452.1,439.8,78.9,-77.4,207.9,16.8,-7.2,-6.0,89.7,102.6,-0.9,99.9,44.4,61.5,0,3120,0,125,0, 
1.7367,225.6,37.8,131.7,206.4,218.7,-34.2,54.3,74.1,-4964.7,41.4,434.1,424.8,66.9,-82.5,202.5,20.4,-7.2,-5.7,71.7,87.9,-0.3,91.2,43.2,50.1,0,3126,0,126,0, 
1.7400,238.8,25.5,117.9,195.9,207.0,-39.3,53.7,65.4,-1704.3,31.2,424.8,410.1,56.1,-90.0,202.2,24.6,-6.9,-6.0,64.8,77.4,-0.6,78.0,48.0,42.3,0,3132,0,127,0, 
1.7433,243.6,19.8,109.8,187.8,201.9,-40.2,49.8,56.4,7113.6,25.2,420.3,404.1,51.0,-99.3,190.8,10.2,-7.2,-6.0,58.5,73.8,-0.6,75.9,44.1,36.9,0,3138,0,128,0, 
1.7467,233.1,11.4,103.5,174.9,180.6,-61.8,47.4,48.9,9929.4,16.5,410.1,397.2,39.3,-103.8,193.5,20.1,-7.2,-6.0,47.7,66.0,-0.3,73.5,46.2,40.5,0,3144,0,129,0, 
1.7500,210.6,7.8,101.7,172.8,179.4,-62.4,49.2,45.3,2593.5,18.3,414.6,394.8,36.0,-105.9,186.6,5.7,-6.9,-6.0,53.4,61.5,-0.9,69.3,38.7,22.5,0,3150,0,130,0, 
1.7533,195.3,-1.2,96.0,164.1,173.4,-66.9,47.4,39.6,-4668.3,15.3,406.2,388.8,26.1,-112.8,188.1,9.6,-7.2,-5.7,45.3,54.6,-0.9,69.3,34.5,23.1,0,3156,0,131,0, 
1.7567,209.4,-5.4,94.2,165.9,171.3,-70.2,47.4,35.7,-2074.8,9.0,403.2,383.4,25.8,-115.8,185.1,0.9,-7.2,-5.4,42.0,52.2,-0.6,69.0,21.9,32.4,0,3162,0,132,0, 
1.7600,213.0,-14.7,87.6,162.0,169.8,-74.4,43.8,30.3,6298.5,3.9,394.8,377.7,20.1,-123.0,177.6,-1.8,-6.9,-5.4,37.5,47.1,-0.3,60.6,20.7,26.1,0,3168,0,133,0, 
1.7633,203.1,-14.4,88.8,161.7,173.1,-75.9,48.9,29.7,9114.3,5.7,394.2,383.1,16.2,-127.2,182.1,2.1,-6.9,-6.0,35.7,54.0,-0.6,63.6,25.5,24.3,0,3174,0,134,0, 
1.7667,187.5,-12.0,96.3,165.9,181.8,-70.5,50.7,36.3,2074.8,14.4,409.5,398.1,24.6,-130.8,184.2,3.6,-6.9,-5.7,49.2,65.4,-0.3,71.7,25.8,33.9,0,3180,0,135,0, 
1.7700,181.2,-11.7,87.3,157.2,175.8,-72.9,53.1,33.0,-5038.8,15.3,396.0,385.2,18.6,-131.1,199.2,12.0,-7.2,-5.7,33.9,53.7,-0.6,70.5,25.2,28.8,0,3186,0,136,0, 
1.7733,190.5,-10.2,91.5,160.8,176.1,-69.0,48.9,35.4,-1852.5,8.1,398.7,382.5,25.5,-140.7,161.1,-3.9,-6.9,-5.7,38.7,51.9,-0.6,67.5,21.6,30.9,0,3192,0,137,0, 
1.7767,210.9,-4.8,95.4,168.0,179.4,-64.2,50.4,40.8,6520.8,10.2,402.3,383.4,30.6,-139.2,156.6,-5.4,-6.9,-5.7,44.7,57.6,-0.3,73.8,23.1,37.2,0,3198,0,138,0, 
1.7800,198.3,-3.6,97.8,171.6,183.6,-56.7,49.5,40.5,9484.8,15.6,408.0,396.9,28.2,-142.5,168.0,-6.6,-6.9,-5.7,48.3,62.7,-0.9,71.4,25.8,42.9,0,3204,0,139,0, 
1.7833,180.3,-1.5,105.3,173.1,189.9,-53.4,53.1,47.4,2074.8,20.7,421.5,406.2,31.2,-144.6,167.7,4.8,-6.6,-6.0,57.0,70.5,-0.9,79.8,30.0,48.9,0,3210,0,140,0, 
1.7867,184.5,7.8,113.7,188.7,202.2,-42.9,57.6,56.1,-5187.0,27.3,434.4,419.7,34.2,-140.7,170.1,-1.8,-6.9,-6.0,69.6,86.7,-0.6,90.6,30.6,56.7,0,3216,0,141,0, 
1.7900,196.8,5.1,112.2,184.2,199.8,-36.3,58.8,51.6,-2667.6,24.0,422.1,411.9,33.6,-144.6,169.8,0.3,-6.9,-6.0,57.9,76.2,-0.6,87.9,33.9,58.8,0,3222,0,142,0, 
1.7933,212.4,3.6,110.7,186.9,201.0,-41.1,54.0,51.0,5409.3,20.1,423.3,411.0,32.4,-147.0,168.3,8.1,-6.6,-5.7,58.5,76.5,-0.6,84.3,39.0,56.4,0,3228,0,143,0, 
1.7967,206.7,9.3,116.7,190.5,207.0,-42.0,52.2,51.9,8299.2,27.3,426.9,410.4,36.0,-144.6,175.8,8.1,-7.2,-6.0,63.3,77.4,-0.9,87.0,36.9,64.5,0,3234,0,144,0, 
1.8000,189.0,16.2,124.8,200.4,215.7,-30.6,57.0,63.0,1111.5,31.2,430.8,425.7,42.6,-141.0,180.3,16.5,-6.6,-6.0,69.0,93.6,-0.9,93.9,41.4,68.7,0,3240,0,145,0, 
1.8033,187.5,26.4,136.5,210.3,226.2,-27.3,56.4,74.7,-6372.6,44.1,448.5,437.4,47.1,-133.8,180.3,7.5,-6.6,-5.7,81.6,105.9,-0.6,106.8,41.4,76.8,0,3246,0,146,0, 
1.8067,203.1,24.6,134.7,216.9,233.4,-18.9,56.1,75.3,-3260.4,42.6,445.8,441.6,50.1,-128.7,179.1,11.7,-6.9,-6.0,78.0,108.6,-0.6,104.7,43.5,79.8,0,3252,0,147,0, 
1.8100,223.8,27.9,139.8,219.9,236.7,-10.8,61.2,79.2,5557.5,39.0,449.7,441.9,55.2,-120.6,179.4,14.1,-6.9,-5.7,85.2,107.4,-0.9,106.8,48.9,85.8,0,3258,0,148,0, 
1.8133,215.1,33.3,141.9,223.2,236.4,-6.6,60.9,82.2,7928.7,45.0,450.3,442.2,61.5,-114.0,189.9,14.7,-6.6,-5.7,84.9,106.2,-0.9,105.6,50.1,89.4,0,3264,0,149,0, 
1.8167,207.3,44.1,155.7,230.7,245.1,2.4,68.1,96.9,518.7,58.2,462.9,452.7,71.1,-108.0,201.6,20.4,-6.9,-6.0,98.1,117.6,-0.3,119.1,57.6,92.1,0,3270,0,150,0, 
1.8200,204.6,50.4,159.6,239.4,254.1,13.2,78.9,103.8,-6594.9,58.2,472.8,460.5,75.0,-111.9,199.5,31.2,-7.2,-5.7,103.5,123.0,-0.9,122.1,69.6,95.7,0,3276,0,151,0, 
1.8233,216.3,50.7,157.8,240.6,256.2,16.5,79.5,104.7,-3927.3,58.5,469.8,461.4,73.8,-117.9,174.9,28.2,-6.9,-5.7,102.3,129.3,-0.9,114.0,71.4,96.0,0,3282,0,152,0, 
1.8267,223.8,44.7,151.8,235.8,251.4,14.7,80.4,100.2,5038.8,48.3,463.8,456.3,69.3,-124.8,178.2,12.6,-6.9,-6.0,93.0,121.5,-0.9,100.2,63.3,86.1,0,3288,0,153,0, 
1.8300,207.9,38.7,143.4,222.6,234.3,-1.5,77.1,89.4,8299.2,37.2,447.9,443.7,55.8,-137.4,173.4,18.9,-7.5,-6.0,80.4,110.1,-0.9,94.5,61.8,78.3,0,3294,0,154,0, 
1.8333,186.9,36.9,141.3,219.9,228.6,-9.9,72.3,87.3,963.3,39.0,450.0,436.5,51.3,-144.6,159.9,1.2,-7.2,-6.0,81.9,100.2,-0.6,97.5,49.8,72.3,0,3300,0,155,0, 
1.8367,180.3,25.5,129.6,203.1,213.9,-18.9,71.4,77.7,-6669.0,24.0,434.4,422.1,43.5,-155.7,164.7,6.3,-6.9,-5.7,66.6,87.9,-0.9,81.9,43.5,59.4,0,3306,0,156,0, 
1.8400,193.8,15.0,115.8,193.2,205.5,-32.1,66.9,71.4,-4075.5,13.5,420.9,409.2,33.0,-160.2,156.6,-4.5,-6.9,-5.7,50.7,76.2,-0.6,66.3,30.3,48.3,0,3312,0,157,0, 
1.8433,189.0,-3.6,98.4,177.6,189.3,-44.1,57.0,57.6,5112.9,-4.5,402.0,390.3,17.4,-169.5,143.4,-10.2,-7.2,-6.0,33.6,54.6,-0.6,48.3,24.9,34.8,0,3318,0,158,0, 
1.8467,181.5,-14.1,86.4,166.2,181.2,-54.6,56.4,48.0,7780.5,-9.9,388.5,378.9,11.4,-170.7,149.4,-5.4,-6.9,-6.0,22.8,43.2,-1.2,44.4,29.7,23.7,0,3324,0,159,0, 
1.8500,162.6,-12.9,84.3,167.1,179.1,-54.0,53.1,44.7,222.3,-7.8,391.8,386.7,6.9,-174.9,156.3,-6.9,-6.9,-6.0,20.4,47.7,-0.6,48.3,21.9,20.7,0,3330,0,160,0, 
1.8533,166.8,-8.1,86.4,168.9,182.7,-51.6,44.7,49.8,-7039.5,-2.4,390.0,386.4,14.7,-168.9,157.2,-28.2,-6.6,-5.7,20.1,48.0,-0.6,48.6,6.3,16.5,0,3336,0,161,0, 
1.8567,171.6,-18.9,78.9,162.9,175.2,-61.2,46.2,38.4,-4075.5,-9.3,390.0,380.1,8.7,-176.4,144.0,-14.4,-7.2,-5.7,21.0,42.6,-0.6,44.1,17.7,21.3,0,3342,0,162,0, 
1.8600,190.8,-20.1,79.8,161.7,171.6,-69.9,42.6,37.2,4594.2,-13.2,392.7,374.1,7.2,-168.6,144.6,-22.2,-7.2,-6.0,27.3,41.4,-0.6,38.4,12.9,7.5,0,3348,0,163,0, 
1.8633,177.3,-26.1,78.0,163.8,171.6,-72.9,36.9,32.7,7335.9,-11.1,392.7,377.1,2.7,-174.0,141.6,-21.9,-7.2,-5.7,25.2,41.7,-0.6,42.6,13.2,2.7,0,3354,0,164,0, 
1.8667,168.6,-19.8,84.0,165.9,178.2,-72.9,44.1,40.2,148.2,-3.6,398.4,386.4,5.4,-170.1,154.8,-5.4,-7.2,-6.0,28.2,48.0,-0.6,55.2,17.1,20.1,0,3360,0,165,0, 
1.8700,163.2,-12.9,92.1,174.0,185.4,-64.8,43.2,46.8,-7187.7,6.9,402.6,394.8,18.0,-160.2,157.5,-15.6,-7.2,-6.0,32.4,53.7,-0.3,64.2,18.9,20.1,0,3366,0,166,0, 
1.8733,179.7,-7.5,94.5,178.5,192.6,-62.4,45.9,51.0,-4890.6,5.4,401.7,390.6,23.7,-158.7,153.9,-15.6,-6.9,-6.0,34.5,57.6,-0.9,60.0,17.1,24.9,0,3372,0,167,0, 
1.8767,192.3,-7.2,98.1,183.9,194.1,-55.8,45.0,50.7,3112.2,4.5,403.5,389.4,25.2,-150.9,156.6,-19.2,-7.2,-6.3,35.7,60.0,-0.6,59.7,16.2,30.6,0,3378,0,168,0, 
1.8800,181.5,-4.5,106.8,191.7,204.6,-46.5,47.1,54.3,5853.9,13.2,414.0,399.9,26.1,-146.4,161.7,-7.8,-6.9,-6.0,44.4,68.4,-0.9,67.8,23.1,35.1,0,3384,0,169,0, 
1.8833,167.1,10.8,125.4,209.7,219.3,-34.8,52.8,66.6,-1259.7,31.2,439.2,422.1,34.2,-141.6,167.7,2.7,-6.9,-5.7,68.7,86.4,-0.9,88.2,32.4,44.7,0,3390,0,170,0, 
1.8867,167.4,16.8,132.3,215.1,230.4,-19.8,58.2,74.7,-8225.1,39.6,447.0,429.6,43.5,-137.4,171.9,-0.9,-7.2,-5.7,77.4,95.1,-0.6,92.1,36.0,54.6,0,3396,0,171,0, 
1.8900,186.3,15.3,128.4,216.6,231.9,-25.2,60.0,73.5,-5705.7,35.4,440.1,430.2,43.5,-132.0,174.9,12.0,-6.9,-6.0,72.3,102.0,-0.6,87.6,41.4,56.1,0,3402,0,172,0, 
1.8933,201.3,23.1,138.0,225.3,237.9,-21.9,60.3,81.3,2371.2,41.4,448.5,433.8,51.0,-132.6,159.6,-1.5,-6.9,-5.7,77.7,108.9,-0.6,98.1,38.1,74.7,0,3408,0,173,0, 
1.8967,199.5,29.7,142.8,229.5,240.3,-14.7,57.9,82.8,5187.0,40.2,451.8,439.5,54.9,-128.4,168.0,9.3,-6.6,-6.0,81.3,108.0,-0.6,101.1,43.2,72.9,0,3414,0,174,0, 
1.9000,190.5,42.0,155.1,237.9,254.4,-2.4,65.1,91.2,-2297.1,52.2,466.5,455.1,63.6,-124.2,173.7,12.6,-7.2,-5.7,92.7,121.5,-0.6,111.6,48.6,82.2,0,3420,0,175,0, 
1.9033,190.5,50.4,165.0,242.4,258.3,-5.1,63.9,95.7,-9188.4,59.1,472.5,464.4,72.0,-114.9,179.4,11.7,-6.9,-5.7,103.8,129.9,-0.9,118.2,50.1,89.1,0,3426,0,176,0, 
1.9067,213.6,51.9,162.0,242.1,255.3,-4.8,60.3,95.7,-6817.2,54.6,465.6,456.6,73.2,-109.5,184.8,9.6,-6.9,-5.7,99.0,127.8,-0.6,112.8,51.0,87.0,0,3432,0,177,0, 
1.9100,234.3,51.9,162.9,243.6,256.5,-1.2,58.5,99.0,1926.6,48.9,462.0,457.8,72.0,-108.9,170.4,3.6,-6.9,-5.7,95.7,129.3,-0.9,106.5,45.0,89.7,0,3438,0,178,0, 
1.9133,230.7,59.1,168.0,244.8,259.8,3.3,57.6,102.3,4668.3,52.2,466.5,458.4,71.4,-110.4,164.7,4.8,-7.2,-5.7,97.5,126.6,-0.3,111.0,45.6,84.9,0,3444,0,179,0, 
1.9167,208.2,51.9,159.9,240.3,252.6,-3.3,55.5,98.1,-2371.2,47.4,462.0,454.5,68.1,-108.9,177.3,5.1,-6.9,-5.7,93.9,119.1,-0.9,103.2,45.0,73.5,0,3450,0,180,0, 
1.9200,209.1,51.0,155.7,237.6,252.6,-8.1,51.3,90.0,-9781.2,48.9,459.3,450.0,72.6,-106.8,186.6,8.4,-6.6,-5.7,95.1,116.7,-0.6,101.4,44.1,73.8,0,3456,0,181,0, 
1.9233,223.2,42.9,141.6,222.0,237.9,-19.8,50.7,79.5,-7261.8,41.1,444.3,433.8,66.3,-108.0,183.3,2.4,-6.9,-6.0,80.4,98.7,-0.9,91.2,33.9,70.5,0,3462,0,182,0, 
1.9267,228.9,28.2,126.0,206.1,223.2,-30.3,46.2,65.7,1482.0,21.9,428.1,416.4,51.0,-119.7,181.5,-0.6,-6.9,-5.7,61.5,83.4,-0.9,78.0,31.8,57.3,0,3468,0,183,0, 
1.9300,217.2,21.9,113.7,195.3,213.0,-40.5,48.3,60.0,4297.8,14.1,414.9,402.3,44.1,-128.7,172.8,2.7,-6.9,-6.0,54.9,68.4,-0.6,65.1,30.6,44.7,0,3474,0,184,0, 
1.9333,197.4,13.5,110.7,190.5,204.9,-44.1,51.0,54.9,-2667.6,15.3,413.1,402.9,36.9,-134.4,173.7,6.3,-6.9,-6.0,48.0,68.1,-0.6,68.1,27.6,34.5,0,3480,0,185,0, 
1.9367,186.3,6.3,103.8,184.2,197.7,-51.3,49.2,52.2,-9929.4,10.5,406.8,393.3,28.2,-142.5,168.3,-7.2,-7.2,-6.0,42.3,58.8,-0.9,62.1,22.8,27.3,0,3486,0,186,0, 
1.9400,199.8,-5.4,91.5,169.2,183.0,-63.6,42.6,40.2,-7484.1,-7.2,390.3,381.3,13.8,-151.5,153.6,-16.8,-6.9,-6.0,27.6,51.6,-0.6,47.7,11.7,15.0,0,3492,0,187,0, 
1.9433,204.0,-19.5,73.2,152.7,165.3,-78.6,34.2,29.7,1482.0,-26.7,369.9,357.6,1.2,-164.7,143.7,-21.3,-6.9,-5.7,10.2,25.8,-0.6,27.9,0.9,-0.6,0,3498,0,188,0, 
1.9467,191.7,-26.1,63.6,143.4,155.1,-86.1,28.5,22.8,4446.0,-29.4,364.8,353.4,-7.5,-175.2,145.2,-20.1,-6.9,-6.0,2.4,21.0,-0.6,25.8,-0.9,-7.5,0,3504,0,189,0, 
1.9500,172.2,-31.8,61.5,141.3,155.4,-89.7,30.6,19.8,-2667.6,-30.0,370.5,356.4,-11.4,-180.9,147.6,-15.3,-6.9,-6.0,6.6,22.8,-0.9,25.8,0.9,-12.6,0,3510,0,190,0, 
1.9533,176.1,-24.0,71.4,148.5,163.8,-76.8,35.4,27.0,-10522.2,-21.9,381.0,367.2,-4.2,-175.5,147.3,-22.8,-6.9,-6.0,17.7,28.5,-0.9,34.8,-1.8,-1.5,0,3516,0,191,0, 
1.9567,180.9,-33.0,65.1,143.4,153.6,-78.9,32.4,20.4,-7558.2,-21.9,375.0,353.7,-6.3,-178.2,142.5,-24.9,-6.9,-5.7,11.1,20.4,-0.3,33.6,-1.8,-5.4,0,3522,0,192,0, 
1.9600,189.9,-36.9,63.6,145.2,159.6,-85.5,26.1,21.6,1482.0,-26.7,373.2,362.4,-10.2,-183.9,142.8,-16.2,-7.2,-6.0,11.4,33.9,-1.2,32.1,1.2,0.9,0,3528,0,193,0, 
1.9633,187.5,-29.7,75.6,154.8,169.2,-78.0,32.4,29.7,4001.4,-19.5,387.3,371.4,-1.2,-179.1,144.9,-19.5,-6.9,-5.7,23.1,39.9,-0.6,40.2,4.5,1.2,0,3534,0,194,0, 
1.9667,172.5,-16.2,91.5,168.9,180.9,-63.6,39.9,38.4,-2445.3,-0.6,404.7,389.7,14.1,-171.3,150.6,-22.8,-6.9,-5.7,39.0,52.8,-0.9,61.2,12.6,15.0,0,3540,0,195,0, 
1.9700,173.7,-6.3,99.3,172.5,189.6,-59.7,41.1,44.7,-10003.5,8.1,408.0,396.0,18.3,-167.4,161.4,-10.8,-6.9,-5.7,43.8,60.9,-0.9,65.1,12.6,25.2,0,3546,0,196,0, 
1.9733,190.5,-0.9,105.0,182.7,197.1,-54.0,44.4,52.5,-7780.5,7.5,414.0,403.8,21.9,-165.9,158.1,-12.0,-6.6,-6.0,50.1,70.8,-0.6,67.2,17.7,28.8,0,3552,0,197,0, 
1.9767,198.9,-4.2,105.0,185.4,201.3,-48.9,46.2,49.2,1333.8,11.4,415.5,397.2,25.5,-165.6,152.1,-13.2,-7.2,-5.7,48.3,72.6,-0.6,66.6,18.0,34.8,0,3558,0,198,0, 
1.9800,188.1,0.3,112.8,191.7,205.8,-46.8,47.7,52.8,4446.0,10.2,421.8,403.2,27.6,-162.9,158.4,-2.4,-7.2,-6.3,56.7,72.6,-0.9,71.1,24.9,39.3,0,3564,0,199,0, 
1.9833,174.3,9.6,126.0,203.1,218.7,-34.8,52.5,60.0,-2964.0,27.9,435.3,417.0,38.4,-157.5,163.8,0.0,-6.9,-5.7,71.7,85.8,-0.9,81.3,26.7,41.7,0,3570,0,200,0, 
1.9867,176.1,17.4,133.5,207.9,225.9,-30.6,58.8,63.6,-9855.3,33.6,439.2,426.0,44.7,-153.0,168.3,-1.8,-6.9,-6.0,78.0,90.3,-1.2,81.0,27.0,44.7,0,3576,0,201,0, 
1.9900,198.9,21.3,138.0,213.3,229.8,-26.4,59.4,65.4,-7780.5,29.1,448.5,430.5,49.5,-156.3,169.5,5.7,-7.2,-6.0,80.1,96.6,-0.3,87.3,27.0,57.6,0,3582,0,202,0, 
1.9933,206.7,19.5,134.1,213.6,232.5,-25.5,55.2,65.1,1111.5,26.7,446.4,429.9,49.5,-153.3,161.7,1.2,-7.2,-6.3,77.4,103.5,-0.9,87.9,24.3,62.4,0,3588,0,203,0, 
1.9967,204.9,22.5,136.8,216.0,237.0,-21.3,54.6,65.4,3408.6,28.2,450.6,437.4,55.8,-146.1,172.5,0.9,-7.2,-5.7,81.0,114.3,-0.9,85.2,25.8,61.2,0,3594,0,204,0, 
2.0000,195.0,33.3,145.5,222.9,246.0,-12.6,58.2,77.7,-2889.9,39.9,455.7,445.5,64.2,-139.5,174.9,0.6,-6.9,-6.0,87.6,116.1,-0.9,93.9,27.9,66.3,0,3600,0,205,0, 
2.0033,201.9,44.1,158.7,236.4,253.8,1.5,66.0,92.1,-10374.0,50.4,468.0,454.5,75.6,-128.1,171.3,-0.6,-6.9,-6.0,100.5,124.5,-0.3,102.3,25.5,77.4,0,3606,0,206,0, 
2.0067,215.1,38.1,153.9,233.1,254.4,1.2,59.7,90.0,-7928.7,39.6,460.8,447.3,71.1,-131.1,159.0,-3.9,-6.6,-6.0,96.3,121.8,-0.6,88.8,28.2,71.7,0,3612,0,207,0, 
2.0100,235.8,34.2,151.5,228.0,243.9,-3.6,56.7,89.1,889.2,34.8,459.6,439.2,66.6,-129.6,155.1,-8.4,-6.9,-5.7,95.4,110.7,-0.3,83.4,24.9,74.1,0,3618,0,208,0, 
2.0133,229.5,39.9,153.0,227.4,242.7,-8.1,56.4,89.4,3853.2,39.6,455.4,433.8,75.3,-117.3,165.3,-3.3,-6.9,-5.7,91.2,103.5,-0.9,91.2,30.0,70.8,0,3624,0,209,0, 
2.0167,212.4,41.7,149.4,224.4,238.8,-8.7,58.8,89.4,-3334.5,34.2,446.7,431.1,73.2,-114.0,173.4,0.6,-6.6,-5.7,88.8,101.7,-0.9,84.9,37.2,66.9,0,3630,0,210,0, 
2.0200,217.2,43.8,148.8,219.6,236.1,-15.6,56.7,87.6,-10670.4,36.9,446.7,427.2,72.6,-112.5,174.3,-5.7,-6.9,-5.7,86.7,95.4,-1.2,87.6,31.5,64.5,0,3636,0,211,0, 
2.0233,229.8,36.6,137.1,211.2,226.2,-20.7,53.1,79.2,-8151.0,27.0,436.2,411.3,66.9,-113.4,170.4,-3.6,-6.6,-5.7,75.0,90.3,-0.3,74.7,29.4,52.5,0,3642,0,212,0, 
2.0267,237.3,26.7,124.2,199.8,216.6,-27.0,48.3,69.6,741.0,15.0,425.1,402.9,54.9,-115.5,174.9,-6.6,-6.9,-6.3,58.2,80.1,-0.9,65.7,25.5,47.7,0,3648,0,213,0, 
2.0300,226.5,17.4,114.3,186.9,199.5,-42.0,42.0,55.2,3482.7,10.5,415.2,393.3,46.2,-114.3,185.1,0.3,-6.9,-5.7,49.8,67.8,-0.9,55.5,20.7,28.2,0,3654,0,214,0, 
2.0333,212.1,14.7,110.7,176.4,190.2,-62.1,42.0,52.5,-4075.5,10.5,407.7,389.1,45.0,-117.0,194.7,4.8,-6.9,-6.0,41.7,59.4,-0.6,60.0,22.5,25.5,0,3660,0,215,0, 
2.0367,205.8,12.0,110.7,177.0,189.9,-58.8,39.6,54.3,-11411.4,18.3,411.3,391.5,46.8,-113.7,187.2,-8.1,-7.2,-5.7,40.2,59.4,-0.6,63.6,18.6,19.8,0,3666,0,216,0, 
2.0400,213.9,2.1,102.3,169.2,183.0,-64.8,39.0,48.3,-8521.5,12.9,405.9,383.7,40.8,-117.9,180.0,-0.3,-6.9,-6.0,35.7,50.1,-0.3,61.2,19.5,18.6,0,3672,0,217,0, 
2.0433,229.2,-5.1,101.7,170.1,181.2,-63.0,39.3,43.5,296.4,8.4,400.8,380.4,35.7,-118.2,174.0,-7.5,-6.3,-6.0,33.9,49.2,-0.6,55.8,22.8,11.7,0,3678,0,218,0, 
2.0467,216.3,-12.6,95.4,163.5,173.4,-68.7,35.4,34.2,3112.2,9.6,397.8,374.1,31.8,-124.2,185.1,8.1,-6.9,-5.7,31.2,41.4,-0.6,61.2,19.5,-0.9,0,3684,0,219,0, 
2.0500,197.4,-5.7,108.3,176.1,188.4,-56.4,41.4,46.5,-3853.2,21.0,413.4,395.4,36.3,-128.1,175.5,-12.0,-6.6,-6.0,41.1,57.3,-0.3,68.4,22.8,13.5,0,3690,0,220,0, 
2.0533,192.9,-5.1,105.6,174.3,184.2,-63.6,40.5,44.1,-11485.5,23.1,409.5,393.6,34.5,-127.8,188.1,1.2,-7.2,-6.0,42.6,60.6,-0.6,80.4,27.9,23.7,0,3696,0,221,0, 
2.0567,206.4,-9.0,103.2,169.8,180.9,-60.3,41.4,38.4,-8966.1,21.3,405.9,385.8,32.7,-133.2,180.6,-5.7,-6.9,-5.7,34.8,58.2,-1.2,75.6,27.6,32.1,0,3702,0,222,0, 
2.0600,213.9,-15.6,95.4,163.8,177.0,-66.3,35.4,30.3,-518.7,17.7,400.5,379.8,32.1,-129.3,186.3,3.6,-6.6,-5.7,29.1,48.3,-0.9,65.7,29.4,25.8,0,3708,0,223,0, 
2.0633,202.2,-15.9,98.7,164.7,177.0,-64.5,41.1,29.7,2815.8,21.3,407.4,386.7,30.0,-136.2,181.2,9.0,-7.2,-5.7,37.2,57.9,-0.6,73.5,37.2,11.7,0,3714,0,224,0, 
2.0667,186.3,-6.9,109.2,176.1,183.0,-57.9,37.2,36.6,-4223.7,32.7,422.4,399.9,36.0,-130.5,186.6,1.2,-7.2,-5.4,51.3,69.3,-0.6,84.9,33.9,26.7,0,3720,0,225,0, 
2.0700,182.7,-3.0,113.4,181.2,192.6,-53.4,38.4,40.8,-11559.6,38.4,424.8,404.4,38.4,-131.4,183.9,1.8,-6.9,-5.7,57.9,72.6,-0.9,91.5,31.5,32.7,0,3726,0,226,0, 
2.0733,198.9,-0.9,111.9,184.5,194.1,-56.4,39.3,44.4,-8966.1,34.5,421.8,403.2,42.3,-129.0,189.9,9.3,-6.9,-5.7,53.7,69.6,-0.9,91.2,30.3,41.1,0,3732,0,227,0, 
2.0767,207.3,1.5,112.8,187.2,198.9,-52.2,35.4,47.1,0.0,37.5,423.0,403.8,36.6,-144.6,170.4,0.0,-6.9,-6.0,53.4,70.5,-0.9,87.3,28.5,43.5,0,3738,0,228,0, 
2.0800,200.7,4.8,118.8,192.3,204.3,-44.7,38.4,52.5,3334.5,34.5,426.9,409.8,41.4,-142.2,175.8,6.3,-6.9,-5.7,59.4,74.1,-0.6,86.4,32.1,45.9,0,3744,0,229,0, 
2.0833,186.0,13.8,129.0,198.0,211.2,-36.9,42.9,63.0,-3853.2,41.7,436.8,416.4,45.3,-145.5,175.8,10.2,-7.2,-5.7,63.6,85.5,-0.6,95.7,36.3,55.2,0,3750,0,230,0, 
2.0867,180.9,26.7,137.1,204.3,219.0,-20.1,49.8,73.5,-11411.4,44.7,440.7,424.5,54.6,-142.2,175.8,8.1,-6.9,-5.7,69.6,94.8,-0.9,102.6,41.7,62.4,0,3756,0,231,0, 
2.0900,202.8,33.0,140.4,214.5,223.5,-16.2,51.3,78.6,-9262.5,38.1,440.1,426.3,60.0,-139.5,171.3,4.5,-7.5,-5.7,65.7,100.5,-0.6,98.4,37.2,66.6,0,3762,0,232,0, 
2.0933,225.0,32.7,138.9,213.3,222.6,-15.3,53.4,78.3,-148.2,35.1,434.4,420.6,63.3,-132.0,169.2,8.4,-6.6,-5.7,63.9,96.6,-0.6,93.9,37.8,62.1,0,3768,0,233,0, 
2.0967,221.7,38.4,144.9,221.4,231.6,-12.3,54.6,79.5,2815.8,37.2,441.0,431.1,66.9,-128.4,161.7,-1.2,-6.9,-5.7,69.3,103.8,-0.6,90.0,35.7,69.0,0,3774,0,234,0, 
2.1000,212.1,41.1,149.4,220.8,231.0,-9.0,55.2,79.8,-4149.6,42.3,451.8,434.7,70.2,-125.4,171.9,3.9,-6.9,-5.7,79.2,106.2,-0.6,98.1,35.7,65.7,0,3780,0,235,0, 
2.1033,209.7,43.5,152.4,219.9,229.2,-3.9,59.4,78.9,-11189.1,46.8,452.7,435.6,73.2,-123.0,168.3,2.4,-6.9,-6.0,81.3,111.0,-0.6,97.5,42.6,65.7,0,3786,0,236,0, 
2.1067,225.9,42.3,147.9,218.1,226.5,-11.4,60.3,75.6,-9040.2,34.5,447.6,431.4,75.0,-118.8,162.9,-3.6,-6.9,-5.7,78.0,103.8,-0.9,89.7,38.1,60.9,0,3792,0,237,0, 
2.1100,239.7,40.5,147.9,217.2,224.1,-20.1,53.4,72.9,222.3,33.9,442.8,424.8,77.1,-115.8,167.7,-9.0,-6.9,-5.7,75.0,97.8,-0.9,86.4,30.3,63.0,0,3798,0,238,0, 
2.1133,232.5,37.2,144.6,212.7,221.4,-14.7,56.4,70.2,3112.2,33.0,438.9,423.0,74.4,-114.9,169.2,-0.3,-6.9,-5.4,69.3,91.5,-0.9,83.7,36.9,57.6,0,3804,0,239,0, 
2.1167,211.5,33.3,139.8,205.2,213.9,-20.7,57.9,68.1,-3853.2,32.1,433.5,415.5,68.7,-118.2,172.8,4.2,-6.9,-6.0,64.2,77.1,-0.9,81.6,40.5,50.4,0,3810,0,240,0, 
2.1200,212.7,30.3,136.5,204.3,216.3,-18.3,62.1,67.2,-11189.1,28.2,431.7,413.4,65.7,-118.8,171.9,3.3,-7.2,-6.0,58.2,78.3,-0.6,83.1,43.8,48.3,0,3816,0,241,0, 
2.1233,224.7,23.7,127.5,196.5,211.5,-27.3,52.5,63.9,-8892.0,17.4,424.8,410.7,57.9,-122.7,166.8,-15.3,-6.9,-6.0,54.3,78.6,-1.2,71.1,31.2,41.1,0,3822,0,242,0, 
2.1267,230.7,13.2,112.8,184.2,198.0,-39.9,44.4,54.6,-74.1,8.1,411.6,398.7,45.6,-127.8,171.9,-13.8,-6.9,-5.7,39.0,63.9,-0.3,57.9,24.0,34.8,0,3828,0,243,0, 
2.1300,217.8,6.9,105.9,177.3,187.8,-50.4,43.8,50.4,2889.9,6.6,403.8,389.7,39.3,-131.7,161.1,-9.9,-7.2,-5.7,30.3,56.4,-0.3,56.7,25.8,21.3,0,3834,0,244,0, 
2.1333,196.8,5.7,106.2,173.7,189.6,-54.9,40.8,48.9,-4149.6,8.1,409.5,391.2,37.2,-135.3,164.7,-11.7,-6.9,-6.0,34.5,57.9,-0.9,54.6,24.9,15.6,0,3840,0,245,0, 
2.1367,192.0,-1.8,96.3,163.8,177.0,-63.0,37.8,40.8,-11930.1,5.7,396.0,377.4,30.0,-137.7,167.7,-16.5,-6.6,-6.3,21.0,47.1,-0.9,51.0,15.9,1.5,0,3846,0,246,0, 
2.1400,192.3,-14.4,84.6,154.2,170.4,-71.4,37.2,31.8,-9336.6,-7.2,385.8,366.3,21.6,-147.0,163.8,-18.3,-6.6,-5.7,10.5,33.0,-0.3,42.3,20.4,-0.3,0,3852,0,247,0, 
2.1433,194.4,-25.5,78.3,147.0,162.0,-80.1,32.4,22.2,0.0,-14.1,375.6,356.4,10.5,-153.6,155.1,-16.8,-6.9,-5.7,-0.6,20.7,-0.6,35.7,13.2,-3.9,0,3858,0,248,0, 
2.1467,192.9,-27.6,80.1,147.6,162.9,-78.0,35.1,20.4,2519.4,-12.0,378.0,360.9,10.5,-156.3,157.8,-14.1,-6.9,-5.7,3.9,24.6,-1.2,39.3,16.5,0.3,0,3864,0,249,0, 
2.1500,177.0,-21.3,87.3,151.2,161.4,-80.7,33.0,22.5,-4668.3,1.5,385.5,367.2,17.1,-150.0,172.2,-8.4,-7.2,-6.0,15.6,32.7,-0.6,50.7,15.0,0.6,0,3870,0,250,0, 
2.1533,171.0,-17.4,89.7,154.5,167.4,-77.7,34.2,25.5,-11263.2,8.1,395.7,374.7,18.9,-145.2,170.1,-9.3,-7.2,-6.0,20.1,40.8,-0.9,52.8,18.0,-1.5,0,3876,0,251,0, 
2.1567,179.4,-22.2,88.8,158.7,170.1,-74.4,33.3,26.1,-8892.0,2.4,396.0,377.1,19.2,-151.2,147.3,-10.8,-6.9,-6.0,24.6,49.5,-0.6,52.5,12.9,2.1,0,3882,0,252,0, 
2.1600,191.7,-27.0,90.6,162.6,168.6,-73.5,33.6,28.5,-148.2,0.0,396.9,375.9,20.1,-149.7,158.7,-3.0,-7.2,-6.0,27.3,43.5,-0.6,53.4,16.8,-15.6,0,3888,0,253,0, 
2.1633,186.0,-19.5,100.2,173.1,178.8,-70.5,35.1,36.3,2889.9,12.6,411.9,392.7,24.3,-144.9,160.8,8.1,-7.2,-6.0,38.1,60.0,-0.9,61.8,20.4,2.7,0,3894,0,254,0, 
2.1667,174.6,-10.2,106.8,179.1,191.1,-64.5,36.6,42.9,-3927.3,22.5,419.4,399.0,30.9,-142.8,168.3,5.1,-7.5,-6.0,45.0,63.3,-0.6,67.8,21.3,10.8,0,3900,0,255,0, 
2.1700,180.3,2.7,116.4,189.3,200.4,-51.3,39.9,53.4,-11263.2,31.5,426.9,408.3,41.7,-133.8,177.9,-10.2,-6.9,-6.0,51.6,72.0,-0.9,79.5,19.5,17.1,0,3906,0,0,0, 
2.1733,195.0,1.2,109.8,187.2,198.0,-40.2,41.1,54.6,-8521.5,30.0,421.8,400.5,42.3,-130.8,171.6,6.3,-7.2,-5.4,48.0,68.1,-0.9,80.1,27.3,21.9,0,3912,0,1,0, 
2.1767,208.2,3.9,116.1,189.3,203.1,-43.8,43.5,55.5,222.3,27.6,424.8,400.5,46.5,-137.1,160.5,6.0,-6.9,-6.3,48.9,73.5,-0.9,84.0,28.5,33.9,0,3918,0,2,0, 
2.1800,204.9,12.0,124.5,196.8,204.9,-35.1,46.2,62.1,3112.2,36.0,434.7,408.9,51.0,-130.8,175.5,4.5,-7.2,-5.7,57.9,80.1,-0.6,89.1,32.7,45.3,0,3924,0,3,0, 
2.1833,195.3,24.3,136.5,205.5,216.0,-21.3,53.1,75.3,-3705.0,51.3,447.9,423.0,59.1,-123.9,170.7,3.6,-7.2,-5.7,69.6,92.1,-0.6,99.9,29.1,54.6,0,3930,0,4,0, 
2.1867,198.9,29.1,142.2,210.6,221.4,-11.7,54.3,80.4,-10818.6,55.8,456.0,429.9,61.8,-121.5,175.2,4.5,-6.9,-6.3,77.1,95.1,-0.3,98.7,33.9,58.2,0,3936,0,5,0, 
2.1900,213.9,30.0,138.6,211.2,225.6,-6.0,56.7,81.0,-8299.2,43.8,449.4,431.4,61.8,-126.9,168.0,5.1,-6.9,-5.7,70.5,96.6,-0.6,93.6,32.4,66.0,0,3942,0,6,0, 
2.1933,226.5,24.9,134.4,209.1,223.5,-6.6,59.7,77.4,592.8,35.1,446.4,427.5,61.5,-124.8,170.7,7.2,-6.6,-6.0,67.2,95.7,-0.3,93.6,34.2,65.7,0,3948,0,7,0, 
2.1967,221.7,28.8,135.6,216.3,230.1,0.0,65.7,84.0,3927.3,36.6,443.4,428.7,59.1,-126.9,163.5,6.0,-6.9,-5.7,67.2,102.0,-1.2,94.5,38.1,73.8,0,3954,0,8,0, 
2.2000,201.9,34.8,146.7,222.3,234.9,10.8,71.4,90.3,-2519.4,50.4,454.5,435.9,67.5,-128.1,165.9,10.2,-6.6,-5.4,77.7,109.5,-0.6,107.4,49.5,80.4,0,3960,0,9,0, 
2.2033,203.7,42.0,151.2,228.0,240.9,16.8,78.3,96.6,-10151.7,50.1,458.7,447.9,71.7,-126.0,170.1,13.5,-7.2,-6.0,80.4,120.0,-0.6,104.1,54.0,88.5,0,3966,0,10,0, 
2.2067,219.3,37.8,148.5,225.0,237.6,11.1,79.5,91.5,-7410.0,39.9,456.9,438.0,71.1,-126.0,169.8,13.2,-6.9,-6.0,72.9,112.5,-0.6,94.8,52.2,81.9,0,3972,0,11,0, 
2.2100,232.8,33.0,141.6,223.5,234.0,5.4,74.4,86.4,1259.7,35.7,445.8,429.0,66.0,-121.8,161.7,3.6,-6.9,-6.0,67.8,101.7,-0.9,85.2,47.7,79.5,0,3978,0,12,0, 
2.2133,222.9,30.6,136.2,214.5,227.7,-0.6,69.0,81.0,4594.2,29.7,436.2,423.9,66.9,-125.4,160.2,3.3,-6.6,-5.1,58.5,101.4,-0.9,78.3,46.5,69.3,0,3984,0,13,0, 
2.2167,203.4,22.8,126.0,203.1,216.0,-14.4,66.0,72.3,-2223.0,18.6,427.8,414.6,51.6,-129.0,166.8,8.7,-7.2,-5.7,52.2,88.8,-0.6,69.0,42.0,57.6,0,3990,0,14,0, 
2.2200,202.5,23.4,124.8,199.2,209.7,-17.4,60.9,69.6,-9855.3,16.5,423.9,409.5,54.3,-120.9,167.4,5.1,-6.9,-6.3,49.8,81.3,-0.3,69.6,37.8,46.2,0,3996,0,15,0, 
2.2233,216.9,10.2,111.3,188.1,198.0,-28.8,58.8,56.7,-7632.3,4.5,405.6,392.1,39.6,-126.0,163.8,4.8,-7.5,-5.4,30.3,66.0,-0.6,56.4,33.9,30.0,0,4002,0,16,0, 
2.2267,226.2,3.0,102.0,179.4,189.3,-45.9,45.3,46.2,1407.9,-0.9,393.6,378.9,40.5,-127.2,163.5,-0.6,-6.6,-5.7,19.5,56.7,-0.3,48.6,23.1,21.3,0,4008,0,17,0, 
2.2300,216.0,-3.0,96.3,167.4,178.5,-59.1,40.5,36.9,4816.5,-4.5,390.9,371.7,33.9,-124.2,171.0,1.2,-7.5,-5.4,16.2,45.3,-0.9,42.9,15.9,15.9,0,4014,0,18,0, 
2.2333,193.2,-3.6,93.0,165.9,177.3,-57.0,38.7,34.5,-2000.7,0.3,390.9,369.9,34.5,-127.8,169.8,2.4,-6.9,-6.0,18.6,44.4,-0.6,45.9,20.7,9.0,0,4020,0,19,0, 
2.2367,189.9,-6.6,90.3,161.4,172.5,-66.3,38.4,33.9,-9262.5,-0.3,390.3,369.6,29.7,-126.6,174.3,-5.1,-6.9,-5.7,15.6,43.5,-0.6,51.3,17.1,-3.6,0,4026,0,20,0, 
2.2400,198.6,-17.1,79.2,155.1,167.7,-81.9,30.6,24.0,-6891.3,-10.2,378.0,359.1,21.0,-134.4,166.8,-4.5,-6.9,-6.0,4.5,33.9,-0.3,46.8,12.0,-0.9,0,4032,0,21,0, 
2.2433,198.9,-27.0,75.6,153.3,168.0,-79.2,32.4,21.6,1852.5,-14.1,374.4,355.5,11.4,-149.4,145.8,-11.4,-6.9,-6.0,0.0,30.6,-0.6,36.0,14.1,-3.6,0,4038,0,22,0, 
2.2467,188.7,-36.6,65.1,144.0,160.8,-87.0,29.7,12.0,4964.7,-18.6,361.5,345.6,3.3,-153.9,164.7,-3.3,-6.6,-6.0,-10.2,21.6,-0.6,34.2,14.7,-10.8,0,4044,0,23,0, 
2.2500,172.2,-33.6,74.7,149.1,166.2,-84.3,30.6,16.5,-1926.6,-7.8,376.8,360.6,9.3,-156.9,157.8,-4.5,-6.9,-6.0,1.8,29.4,-0.6,46.8,18.6,-2.1,0,4050,0,24,0, 
2.2533,169.5,-28.8,77.1,152.7,168.3,-83.4,34.2,17.7,-9262.5,8.4,385.5,365.1,14.4,-157.2,159.0,12.0,-6.3,-5.7,10.2,35.7,-0.9,60.0,23.1,3.0,0,4056,0,25,0, 
2.2567,180.3,-32.7,74.7,145.2,162.3,-90.9,29.4,10.8,-6965.4,2.7,380.4,364.8,12.6,-153.6,167.4,14.7,-6.9,-5.7,7.2,33.0,-1.2,53.4,24.9,-0.9,0,4062,0,26,0, 
2.2600,194.4,-30.0,72.3,147.6,166.2,-92.4,25.2,12.9,1926.6,3.6,382.5,369.0,14.4,-150.3,160.2,1.2,-6.9,-5.4,8.1,40.5,-0.6,53.1,16.2,3.0,0,4068,0,27,0, 
2.2633,187.5,-26.1,76.5,154.5,173.7,-86.7,28.5,15.6,4816.5,8.4,382.8,373.5,14.1,-153.3,155.4,5.7,-7.5,-5.7,8.4,47.4,-0.9,64.2,24.3,10.8,0,4074,0,28,0, 
2.2667,178.2,-16.2,82.5,160.8,179.4,-79.2,35.4,24.6,-2593.5,18.9,391.2,376.8,23.7,-149.4,166.8,7.2,-7.2,-5.7,16.2,47.7,-0.6,68.1,26.1,20.1,0,4080,0,29,0, 
2.2700,172.5,-8.4,90.9,167.1,184.8,-74.1,37.2,27.6,-9484.8,23.4,398.7,381.0,30.3,-146.4,164.7,7.2,-7.2,-6.0,21.9,57.0,-0.6,76.8,27.3,5.1,0,4086,0,30,0, 
2.2733,193.2,-5.7,96.0,175.5,195.6,-62.4,38.4,36.3,-7335.9,24.6,404.1,386.7,38.1,-146.4,163.2,12.3,-6.9,-6.0,28.8,64.8,-0.3,80.1,27.6,34.5,0,4092,0,31,0, 
2.2767,205.8,0.9,102.3,185.7,199.2,-58.5,39.6,41.7,1482.0,28.8,412.5,396.0,41.1,-140.1,169.5,18.0,-7.2,-5.7,37.8,72.6,-0.9,82.8,33.3,42.3,0,4098,0,32,0, 
2.2800,210.0,12.3,117.9,201.9,218.4,-41.7,46.2,59.1,4742.4,39.6,430.2,416.7,51.9,-132.3,177.0,9.9,-7.2,-6.6,51.9,87.9,-0.6,92.4,35.1,51.6,0,4104,0,33,0, 
2.2833,197.7,24.6,133.5,218.1,232.5,-27.9,51.3,74.7,-1926.6,53.1,448.5,436.5,59.4,-128.1,173.4,13.8,-7.2,-5.4,69.3,100.5,-0.9,107.4,37.5,62.1,0,4110,0,34,0, 
2.2867,203.1,41.1,149.4,234.0,248.1,-15.0,55.8,90.0,-9633.0,59.7,460.5,447.9,72.6,-123.3,169.8,20.7,-6.6,-5.7,82.2,111.9,-0.9,113.1,43.2,67.8,0,4116,0,35,0, 
2.2900,214.8,40.8,149.1,232.2,243.0,-12.0,54.6,92.7,-6965.4,51.9,459.0,438.6,72.6,-123.3,168.9,12.6,-7.2,-5.4,78.9,102.3,-1.2,108.9,37.8,70.2,0,4122,0,36,0, 
2.2933,234.6,42.3,148.2,233.1,246.0,-10.2,50.1,94.2,1852.5,43.8,450.9,438.9,75.0,-126.3,162.9,9.6,-7.2,-6.0,73.2,101.1,-0.9,98.4,39.9,63.9,0,4128,0,37,0, 
2.2967,222.3,40.8,144.6,225.3,239.7,-8.7,52.2,93.9,4964.7,37.5,440.1,431.1,69.9,-133.2,161.4,6.3,-7.2,-6.0,61.5,92.1,-0.6,93.9,41.1,57.9,0,4134,0,38,0, 
2.3000,213.6,52.2,150.9,233.4,249.3,2.4,60.6,102.3,-2223.0,44.1,452.4,444.9,73.2,-128.4,165.3,9.9,-6.9,-5.7,65.7,105.0,-0.9,102.6,48.9,69.9,0,4140,0,39,0, 
2.3033,214.5,57.6,154.2,238.2,255.6,8.4,64.5,105.0,-9633.0,48.0,456.3,449.7,79.8,-122.1,170.7,16.8,-6.9,-6.0,74.7,107.1,-0.6,109.5,45.9,81.3,0,4146,0,40,0, 
2.3067,231.9,55.2,152.7,237.6,257.1,1.2,60.9,105.9,-7187.7,41.1,458.7,450.9,81.6,-112.8,168.9,21.3,-6.9,-5.4,75.0,115.8,-0.6,101.1,50.1,79.2,0,4152,0,41,0, 
2.3100,245.4,52.8,145.8,228.9,244.2,-3.6,58.2,96.3,1704.3,38.7,452.1,434.1,78.6,-111.9,162.6,4.8,-7.5,-5.7,72.9,93.3,-0.6,93.0,45.9,71.1,0,4158,0,42,0, 
2.3133,235.8,45.6,136.8,219.0,237.0,-7.2,58.5,91.8,4668.3,23.1,441.0,424.8,66.6,-118.5,161.4,3.0,-6.9,-5.7,61.5,93.6,-0.6,79.8,43.8,64.5,0,4164,0,43,0, 
2.3167,213.9,39.0,127.2,209.4,228.6,-10.8,55.5,81.9,-1852.5,25.5,436.5,415.8,61.8,-123.9,159.0,1.2,-7.2,-6.0,55.8,71.1,-0.3,79.2,36.6,56.4,0,4170,0,44,0, 
2.3200,206.4,29.4,113.4,196.8,215.4,-17.4,53.7,74.4,-9336.6,12.0,422.4,399.6,50.7,-129.6,158.1,1.2,-7.2,-6.0,42.9,59.1,-0.6,67.8,35.1,45.0,0,4176,0,45,0, 
2.3233,212.4,11.7,94.8,180.0,194.1,-36.0,46.8,62.1,-7187.7,-1.8,402.6,381.3,36.6,-136.5,151.5,-6.6,-7.2,-6.3,23.7,45.6,-0.6,52.8,28.5,31.5,0,4182,0,46,0, 
2.3267,217.8,-1.2,82.8,167.4,183.3,-44.1,43.5,47.7,1111.5,-12.9,387.3,372.3,24.9,-144.9,150.3,-6.6,-6.9,-6.0,7.5,35.7,-0.9,40.8,24.3,23.4,0,4188,0,47,0, 
2.3300,211.2,-12.0,76.2,160.8,178.5,-55.8,42.6,40.8,4371.9,-19.5,381.0,369.3,12.9,-150.6,149.1,-12.0,-6.9,-5.7,-2.1,28.8,-0.3,37.8,19.5,15.3,0,4194,0,48,0, 
2.3333,186.0,-14.1,80.4,159.3,177.3,-58.8,43.2,37.5,-2297.1,-16.5,383.4,368.4,10.8,-159.3,151.2,-5.1,-7.2,-6.0,3.3,27.3,-0.9,46.5,24.0,15.3,0,4200,0,49,0, 
2.3367,179.1,-22.8,75.0,151.2,171.6,-65.1,38.7,32.1,-10003.5,-16.8,379.2,361.2,6.9,-158.7,148.8,-12.3,-6.9,-5.7,-1.5,19.2,-0.6,39.9,17.7,7.8,0,4206,0,50,0, 
2.3400,186.9,-27.6,64.8,144.0,161.7,-74.7,32.1,21.9,-7780.5,-30.9,368.4,351.6,-2.7,-168.0,142.5,-10.5,-7.2,-6.0,-8.1,11.1,-0.6,27.9,12.9,-1.2,0,4212,0,51,0, 
2.3433,202.2,-33.3,63.0,141.6,159.6,-81.0,31.5,18.0,592.8,-34.2,362.4,345.9,-3.6,-165.6,141.6,-16.2,-6.9,-5.7,-16.5,11.1,-0.6,23.7,12.0,-3.3,0,4218,0,52,0, 
2.3467,191.7,-30.6,65.4,144.6,162.3,-81.0,31.8,17.4,3408.6,-30.0,361.8,355.2,-3.9,-168.9,148.2,-13.8,-7.2,-6.0,-11.7,18.9,-0.6,33.3,11.4,-1.2,0,4224,0,53,0, 
2.3500,170.7,-24.9,75.9,153.6,170.7,-76.8,36.6,27.0,-3556.8,-13.8,376.2,367.8,5.1,-167.7,157.8,-7.8,-6.9,-6.0,-1.5,26.7,-0.6,44.4,16.5,4.2,0,4230,0,54,0, 
2.3533,170.7,-15.9,87.6,165.3,183.6,-66.3,42.9,39.3,-10818.6,-1.8,393.6,377.7,15.3,-162.9,155.4,-7.5,-6.9,-5.7,15.3,38.7,-0.6,55.5,23.7,17.1,0,4236,0,55,0, 
2.3567,184.8,-17.1,90.3,166.8,181.5,-63.3,44.1,38.4,-8669.7,-2.7,392.7,376.5,15.6,-158.7,165.6,1.2,-7.2,-5.7,14.1,38.4,-0.9,52.8,27.3,9.6,0,4242,0,56,0, 
2.3600,199.5,-16.8,93.0,168.6,185.7,-56.1,46.2,40.8,-370.5,2.4,396.9,380.4,19.8,-157.8,158.4,-0.9,-7.2,-5.4,21.0,42.9,-0.9,61.8,30.3,24.0,0,4248,0,57,0, 
2.3633,193.5,-15.6,98.7,176.7,198.6,-48.6,46.5,42.9,2889.9,10.8,405.0,388.5,21.6,-164.4,147.6,-1.2,-6.9,-5.7,27.6,53.7,-0.6,68.1,33.0,41.4,0,4254,0,58,0, 
2.3667,173.1,-13.5,103.5,179.7,198.3,-47.1,46.5,45.3,-4297.8,18.9,412.5,395.7,26.7,-162.0,166.8,10.2,-6.6,-6.0,37.2,56.4,-0.6,82.2,33.6,45.9,0,4260,0,59,0, 
2.3700,169.5,-12.0,102.9,179.1,199.5,-39.9,48.9,43.2,-11559.6,26.1,409.8,401.7,31.2,-161.1,162.9,10.5,-6.9,-5.7,34.8,66.6,-0.9,91.2,39.3,56.1,0,4266,0,60,0, 
2.3733,187.8,-13.8,102.6,177.6,205.5,-34.5,49.8,41.7,-8817.9,24.9,416.4,410.1,35.7,-161.4,165.9,13.2,-6.9,-5.7,41.1,72.9,-0.6,86.1,45.0,46.5,0,4272,0,61,0, 
2.3767,202.2,-15.9,101.7,178.8,205.5,-26.1,48.9,39.6,-444.6,27.6,416.4,402.0,39.6,-159.3,168.3,18.0,-7.2,-6.0,44.7,71.4,-0.9,94.2,39.3,57.3,0,4278,0,62,0, 
2.3800,195.9,-11.1,106.2,177.6,202.8,-36.9,47.4,42.3,2593.5,36.6,417.6,406.2,39.0,-157.2,166.2,13.5,-6.9,-5.4,48.3,76.2,-0.3,100.8,38.7,66.0,0,4284,0,63,0, 
2.3833,181.5,-3.0,116.4,183.6,208.2,-28.5,50.4,49.2,-3705.0,36.0,426.6,409.2,43.5,-160.5,165.0,8.4,-6.9,-5.7,56.1,76.2,-0.6,103.5,37.5,65.1,0,4290,0,64,0, 
2.3867,177.3,4.2,114.3,184.5,211.8,-27.6,56.1,53.7,-11115.0,37.2,422.7,407.7,45.3,-163.5,167.1,18.3,-6.9,-6.0,52.5,77.7,-0.9,96.9,42.3,56.1,0,4296,0,65,0, 
2.3900,191.1,5.7,116.4,185.7,215.1,-22.2,51.0,55.8,-8743.8,26.7,415.5,408.6,45.6,-163.5,162.3,8.1,-6.9,-5.4,46.5,79.8,-0.6,94.2,36.9,62.1,0,4302,0,66,0, 
2.3933,205.8,7.5,116.1,188.4,216.6,-23.1,52.5,57.3,148.2,24.0,417.0,409.8,45.3,-163.2,156.3,2.7,-6.9,-5.7,45.6,85.8,-0.9,88.5,34.5,59.4,0,4308,0,67,0, 
2.3967,200.4,12.9,122.1,195.6,223.2,-20.7,55.8,63.3,3408.6,25.5,425.4,419.4,50.1,-164.4,152.4,6.0,-7.2,-5.7,54.9,87.0,-0.9,93.9,37.8,63.3,0,4314,0,68,0, 
2.4000,186.6,21.3,124.5,196.5,226.2,-18.0,60.0,68.4,-3556.8,31.8,424.8,418.2,55.8,-160.5,158.4,9.3,-6.9,-5.7,57.0,93.0,-0.6,97.2,39.3,66.6,0,4320,0,69,0, 
2.4033,187.5,26.4,125.4,200.1,227.4,-14.1,64.8,70.5,-11189.1,28.2,423.0,417.3,54.3,-162.3,156.6,15.6,-7.2,-5.7,56.4,89.4,-0.9,93.9,41.1,64.5,0,4326,0,70,0, 
2.4067,199.2,22.5,121.5,196.5,225.0,-18.6,61.5,69.9,-8225.1,23.1,416.7,410.1,48.3,-164.1,151.2,1.8,-6.6,-6.0,50.4,81.9,-0.6,83.4,33.9,60.0,0,4332,0,71,0, 
2.4100,209.1,16.8,115.5,188.7,219.3,-18.9,57.9,62.4,370.5,13.2,413.7,401.7,47.1,-168.6,144.0,0.6,-6.9,-6.0,51.0,69.0,-0.9,73.5,30.9,52.8,0,4338,0,72,0, 
2.4133,199.8,14.4,111.0,182.4,207.3,-26.7,58.5,61.2,3779.1,12.9,412.8,400.8,43.2,-173.1,146.4,3.6,-6.6,-5.7,50.7,63.6,-0.6,69.6,31.5,46.5,0,4344,0,73,0, 
2.4167,183.3,20.7,119.4,190.8,212.4,-19.5,63.3,67.2,-2741.7,18.3,417.9,409.8,50.4,-168.3,146.1,6.0,-6.9,-5.7,57.9,72.0,-0.6,76.2,41.1,52.2,0,4350,0,74,0, 
2.4200,186.0,21.9,125.1,193.8,216.9,-15.9,69.3,75.9,-10077.6,24.0,426.6,412.8,49.2,-162.6,149.7,7.5,-6.9,-5.7,65.1,71.1,-0.6,81.0,51.6,60.6,0,4356,0,75,0, 
2.4233,202.2,20.4,119.4,190.8,208.8,-22.2,64.5,69.0,-7706.4,17.1,414.9,402.0,44.1,-165.3,144.0,2.1,-6.3,-6.0,53.7,63.6,-0.6,71.1,47.7,54.3,0,4362,0,76,0, 
2.4267,213.6,17.1,113.4,185.7,199.5,-30.9,64.5,64.2,1556.1,3.6,410.7,392.7,38.1,-162.3,147.6,4.8,-7.2,-5.7,48.0,54.3,-0.9,60.3,43.5,47.4,0,4368,0,77,0, 
2.4300,211.2,18.9,114.0,186.0,202.5,-32.4,58.8,66.6,4668.3,11.1,411.6,399.0,44.1,-156.9,145.8,-10.8,-6.9,-5.7,56.4,59.4,-0.9,62.1,41.1,55.8,0,4374,0,78,0, 
2.4333,192.6,17.4,116.1,185.4,203.1,-32.1,53.1,66.0,-2593.5,12.3,418.2,402.0,43.5,-159.6,143.1,-6.0,-7.2,-5.7,60.9,61.8,-0.6,67.8,38.4,57.3,0,4380,0,79,0, 
2.4367,195.0,22.5,116.4,185.4,203.4,-36.0,56.1,68.7,-9410.7,17.1,411.0,401.7,47.4,-149.4,153.0,4.5,-6.9,-6.0,56.4,61.8,-0.3,67.5,49.5,50.1,0,4386,0,80,0, 
2.4400,210.6,16.2,109.8,176.7,196.2,-41.4,53.4,63.9,-6669.0,2.1,403.2,388.5,43.5,-144.9,163.2,19.5,-7.2,-5.4,45.9,48.3,-1.2,58.8,49.5,43.2,0,4392,0,81,0, 
2.4433,231.6,24.6,114.9,185.1,199.8,-42.3,46.8,67.8,2148.9,9.9,406.8,394.8,54.9,-134.4,159.6,-9.0,-7.2,-6.3,53.4,54.0,-0.3,58.2,33.9,39.9,0,4398,0,82,0, 
2.4467,227.7,20.7,114.6,186.0,200.7,-40.8,46.8,65.7,5112.9,12.9,408.6,394.5,54.9,-134.1,162.3,-3.6,-6.6,-5.7,55.8,54.9,-0.9,67.5,34.5,40.5,0,4404,0,83,0, 
2.4500,205.8,21.3,110.7,181.2,198.6,-39.3,47.4,65.4,-1630.2,18.9,401.1,392.4,56.4,-132.3,165.0,2.4,-6.9,-6.0,50.4,48.9,-0.3,63.3,34.2,34.5,0,4410,0,84,0, 
2.4533,204.3,23.1,117.6,186.9,201.6,-39.9,49.5,70.2,-8966.1,29.1,411.6,394.5,57.3,-128.7,168.6,3.9,-7.2,-6.3,59.1,55.5,-0.9,72.6,41.4,34.2,0,4416,0,85,0, 
2.4567,214.2,18.9,114.3,184.2,201.6,-40.5,53.7,67.8,-6817.2,22.8,407.7,389.4,53.4,-127.5,173.7,12.9,-6.9,-5.7,52.2,54.3,-0.6,72.3,44.4,42.9,0,4422,0,86,0, 
2.4600,221.7,12.3,108.6,180.9,197.1,-36.6,50.4,63.0,2445.3,16.5,396.6,375.6,50.7,-131.7,166.2,1.2,-6.9,-5.7,40.2,42.0,-1.2,63.6,39.3,38.7,0,4428,0,87,0, 
2.4633,209.4,10.5,107.7,174.3,190.2,-42.3,50.7,59.7,5853.9,16.2,397.5,378.9,47.1,-133.2,167.1,6.6,-6.9,-5.7,41.7,45.6,-0.9,66.9,38.1,40.8,0,4434,0,88,0, 
2.4667,186.0,7.8,107.4,172.5,190.2,-43.5,54.0,59.1,-1185.6,19.5,404.7,382.8,47.7,-134.7,169.5,5.1,-7.2,-6.0,50.7,46.5,-1.2,72.9,41.1,21.6,0,4440,0,89,0, 
2.4700,188.1,15.3,116.7,181.2,196.2,-36.3,52.5,66.0,-8595.6,27.3,416.7,396.9,51.0,-133.2,177.3,-5.1,-6.9,-5.7,59.1,60.6,-0.6,75.6,36.9,41.4,0,4446,0,90,0, 
2.4733,202.5,8.1,110.1,177.0,195.3,-40.8,48.3,60.0,-6743.1,19.8,405.6,380.7,47.1,-138.3,179.4,1.8,-6.6,-6.0,53.7,54.3,-0.6,67.8,35.4,35.7,0,4452,0,91,0, 
2.4767,212.7,7.5,107.7,175.8,192.0,-39.0,45.0,56.7,2223.0,13.5,403.2,375.6,46.5,-143.4,150.9,-6.3,-7.2,-5.4,51.9,48.6,-0.6,60.9,35.4,33.6,0,4458,0,92,0, 
2.4800,205.8,3.9,108.9,175.5,191.7,-36.6,44.1,56.4,5631.6,12.0,397.5,378.0,43.8,-146.7,146.1,-11.1,-6.3,-5.7,46.5,49.8,-0.6,63.6,29.1,34.5,0,4464,0,93,0, 
2.4833,195.3,10.8,114.9,176.7,194.7,-37.5,47.1,60.3,-1259.7,16.5,403.8,386.7,43.2,-145.5,159.6,-1.8,-6.9,-5.7,51.9,56.7,-0.6,67.8,26.1,39.0,0,4470,0,94,0, 
2.4867,192.3,13.5,116.7,183.6,201.3,-35.7,45.6,60.9,-8595.6,15.0,408.9,395.4,40.8,-152.1,156.3,-7.5,-6.6,-6.0,52.5,68.1,-0.6,63.3,24.3,40.8,0,4476,0,95,0, 
2.4900,203.1,9.3,112.2,181.5,195.9,-40.2,39.0,59.7,-5928.0,4.2,399.0,386.7,37.2,-153.9,148.5,-14.4,-6.9,-5.4,47.7,56.1,-0.6,60.3,17.4,28.8,0,4482,0,96,0, 
2.4933,212.4,8.4,110.4,183.3,198.9,-37.5,38.7,62.4,2741.7,-3.0,394.8,385.2,33.0,-162.6,138.6,-16.2,-6.9,-5.7,42.6,61.8,-0.9,49.5,13.8,30.6,0,4488,0,97,0, 
2.4967,210.9,8.4,111.3,179.7,192.6,-39.6,38.7,60.6,6002.1,-1.2,393.9,385.8,28.8,-162.0,145.8,-4.8,-6.6,-6.0,40.8,47.4,-0.6,57.3,22.8,29.1,0,4494,0,98,0, 
2.5000,201.0,21.0,123.0,191.4,206.7,-33.6,45.0,68.4,-889.2,12.0,411.0,395.4,39.0,-155.7,146.1,-11.1,-6.6,-6.0,56.7,68.4,-0.6,63.0,21.6,39.3,0,4500,0,99,0, 
2.5033,195.0,25.5,124.2,196.8,210.6,-27.9,46.8,72.0,-8373.3,14.1,413.4,398.1,41.4,-156.9,148.8,-4.8,-6.9,-5.4,64.2,67.8,-0.9,63.9,21.3,39.6,0,4506,0,100,0, 
2.5067,212.4,29.4,123.0,190.8,207.6,-33.6,49.2,72.9,-6150.3,12.0,409.5,390.0,44.4,-147.0,153.0,-3.9,-6.9,-6.3,60.6,63.3,-0.6,59.1,25.5,40.8,0,4512,0,101,0, 
2.5100,228.6,26.1,119.7,186.6,205.8,-38.7,45.9,69.3,2741.7,11.7,407.4,393.3,43.8,-146.1,158.7,-6.3,-6.9,-5.7,54.9,66.9,-0.3,57.0,21.6,38.7,0,4518,0,102,0, 
2.5133,223.8,32.4,127.5,196.2,209.4,-36.0,50.4,75.9,5631.6,20.7,412.2,395.4,53.1,-144.0,160.5,0.6,-7.2,-6.0,63.3,69.3,-0.9,69.9,26.7,46.5,0,4524,0,103,0, 
2.5167,205.5,32.4,132.9,200.4,212.1,-29.4,51.0,78.6,-1630.2,25.8,421.8,407.7,56.7,-140.4,172.2,-6.0,-6.9,-6.0,71.7,74.4,-0.3,75.3,27.9,50.4,0,4530,0,104,0, 
2.5200,199.2,32.7,135.0,204.9,214.2,-24.6,51.0,81.3,-8447.4,31.2,429.3,411.6,59.7,-139.8,153.3,-14.7,-7.2,-5.7,76.8,80.1,-0.9,79.2,18.3,48.0,0,4536,0,105,0, 
2.5233,216.9,29.7,132.0,205.5,217.8,-30.6,51.6,79.2,-6298.5,24.0,427.2,411.0,54.9,-138.9,160.5,-2.7,-7.2,-5.7,74.4,85.5,-0.9,74.1,26.4,59.1,0,4542,0,106,0, 
2.5267,225.6,16.5,119.4,197.1,208.8,-34.2,45.9,72.6,2519.4,17.7,412.8,399.9,45.9,-142.8,153.0,-10.5,-7.2,-5.7,59.7,75.3,-0.6,65.4,17.7,48.9,0,4548,0,107,0, 
2.5300,215.1,8.7,118.2,193.8,203.4,-37.5,47.7,69.3,5705.7,18.0,411.9,400.5,43.5,-144.3,157.8,2.7,-6.9,-6.0,60.0,69.9,-0.3,69.0,19.5,48.6,0,4554,0,108,0, 
2.5333,197.7,12.3,123.6,196.2,205.8,-31.8,53.7,67.2,-1259.7,25.2,419.7,411.3,43.8,-142.2,159.3,4.8,-6.9,-6.3,70.2,80.7,-0.6,73.5,24.6,52.2,0,4560,0,109,0, 
2.5367,192.6,13.5,117.9,194.4,204.6,-34.2,50.4,62.7,-8669.7,24.6,420.0,410.4,43.5,-139.2,166.8,-2.7,-7.2,-6.3,64.2,75.9,-0.6,74.4,18.6,47.1,0,4566,0,110,0, 
2.5400,205.5,2.7,108.9,183.6,193.5,-42.3,45.6,54.9,-6372.6,11.4,404.7,396.3,35.1,-144.9,154.8,-9.3,-6.9,-5.7,54.0,67.8,-0.6,61.2,15.9,38.7,0,4572,0,111,0, 
2.5433,214.5,-4.8,93.3,168.6,185.1,-50.7,42.6,47.4,2074.8,2.7,392.4,383.4,28.8,-146.1,153.6,-3.0,-6.9,-6.0,40.8,55.2,-0.9,57.3,14.4,27.6,0,4578,0,112,0, 
2.5467,202.5,-10.2,87.6,162.6,183.0,-49.5,42.6,44.1,5187.0,0.3,387.0,374.1,21.3,-151.8,153.9,-2.4,-6.6,-5.7,33.3,47.4,-0.3,44.1,17.1,26.1,0,4584,0,113,0, 
2.5500,185.4,-10.5,82.5,157.5,171.0,-63.6,39.9,44.1,-1185.6,-0.6,387.9,371.1,17.4,-153.6,156.3,4.2,-6.9,-6.0,33.9,39.6,-0.9,53.4,17.7,20.4,0,4590,0,114,0, 
2.5533,186.6,-4.8,84.3,156.6,173.1,-63.3,38.4,44.4,-8743.8,0.6,387.3,373.8,22.5,-149.7,162.0,7.5,-7.2,-5.7,32.1,45.9,-0.6,51.6,10.8,25.5,0,4596,0,115,0, 
2.5567,204.9,-6.6,86.7,159.3,174.6,-60.9,34.5,44.4,-6298.5,-5.1,384.3,369.6,24.9,-145.2,156.3,-23.4,-6.6,-5.7,28.8,42.0,-0.9,47.7,-0.6,7.8,0,4602,0,116,0, 
2.5600,210.9,-9.0,89.1,162.3,174.0,-63.0,29.1,39.3,2297.1,-2.1,389.7,372.0,30.6,-149.1,155.4,-19.2,-7.2,-6.0,35.7,44.4,-0.6,45.6,-7.5,15.9,0,4608,0,117,0, 
