Time,P3,C3,F3,Fz,F4,C4,P4,Cz,CM,A1,Fp1,Fp2,T3,T5,O1,O2,X3,X2,F7,F8,X1,A2,T6,T4,Trigger,Time_Offset,ADC_Status,ADC_Sequence,Event,Comments
0.0033,-375.6,2600.7,103.5,-15.6,492.6,-1625.1,1659.6,-551.1,-3112.2,99.9,1833.0,754.2,-1737.0,-9827.4,7258.8,-189.3,-7.2,-5.7,188.7,659.4,-1.2,216.9,-411.6,-2029.5,0,6,805306368,231,0, 
0.0067,-375.3,2589.9,102.9,-15.6,493.8,-1616.1,1665.0,-546.0,-8521.5,94.2,1835.1,751.5,-1713.3,-9827.4,-3069.3,-185.4,-7.2,-6.0,190.2,666.0,-0.6,211.8,-346.5,-2010.9,0,12,805306368,232,0, 
0.0100,-375.6,2595.6,79.8,-38.4,460.5,-1578.3,1665.6,-532.8,13412.1,56.7,1805.1,722.4,-1723.2,-9827.4,4970.7,-174.9,-6.9,-5.7,160.2,637.5,-0.9,195.6,179.1,-1936.5,0,18,805306368,233,0, 
0.0133,-384.0,2541.9,55.8,-57.9,446.7,-1566.9,1657.2,-543.0,32604.0,51.3,1787.4,707.1,-1730.4,-9827.4,9830.1,-171.3,-6.6,-5.4,146.7,637.8,-0.6,164.1,421.2,-1915.2,0,24,805306368,234,0, 
0.0167,-381.6,2573.1,72.3,-46.5,466.2,-1597.8,1655.4,-550.8,22452.3,71.1,1806.6,729.6,-1738.2,-9827.4,9830.1,-178.8,-6.6,-5.7,166.5,650.4,-0.6,195.9,57.0,-1961.1,0,30,805306368,235,0, 
0.0200,-375.9,2592.9,87.9,-20.7,495.6,-1623.0,1661.7,-556.8,-2889.9,97.2,1833.6,754.8,-1723.2,-9827.4,7300.5,-186.9,-6.9,-5.7,193.5,670.8,-0.3,220.2,-426.0,-2026.5,0,36,805306368,236,0, 
0.0233,-376.5,2595.6,83.7,-21.6,490.2,-1616.4,1668.3,-548.7,-8299.2,94.2,1830.9,751.2,-1708.5,-9827.4,-2890.8,-181.8,-6.9,-5.7,185.7,668.7,-0.6,219.9,-350.7,-2011.8,0,42,805306368,237,0, 
0.0267,-377.1,2572.5,56.4,-45.0,461.1,-1580.4,1665.6,-538.8,13634.4,62.1,1803.9,718.2,-1709.1,-9827.4,5100.6,-168.9,-6.6,-5.7,165.3,641.7,-0.3,176.4,158.4,-1940.7,0,48,805306368,238,0, 
0.0300,-373.2,2554.5,40.8,-54.9,450.9,-1566.9,1661.4,-535.5,32826.3,52.5,1793.1,714.6,-1721.1,-9827.4,9830.1,-161.4,-6.9,-5.7,160.5,640.2,-0.3,173.1,407.7,-1910.4,0,54,805306368,239,0, 
0.0333,-378.3,2568.6,48.0,-44.1,465.6,-1599.9,1657.2,-552.9,22600.5,64.2,1806.0,725.1,-1722.6,-9827.4,9830.1,-173.1,-6.6,-6.0,168.0,651.6,-0.6,188.7,49.8,-1966.5,0,60,805306368,240,0, 
0.0367,-375.6,2589.9,74.4,-20.7,484.5,-1629.9,1658.7,-553.8,-2593.5,87.6,1833.0,750.6,-1706.1,-9827.4,7434.0,-189.0,-6.9,-6.0,192.3,657.0,-0.3,211.8,-425.1,-2031.0,0,66,805306368,241,0, 
0.0400,-373.5,2598.9,64.8,-19.8,486.3,-1620.9,1664.4,-549.6,-8151.0,81.6,1821.0,745.5,-1700.4,-9827.4,-2756.4,-187.2,-6.9,-6.0,178.2,657.9,-1.2,207.6,-357.9,-2022.6,0,72,805306368,242,0, 
0.0433,-373.2,2566.5,42.9,-34.2,469.5,-1568.7,1668.0,-535.5,13930.8,64.8,1802.1,725.7,-1709.1,-9827.4,5208.3,-174.0,-6.6,-5.7,167.4,650.7,-0.9,188.1,163.8,-1936.2,0,78,805306368,243,0, 
0.0467,-381.6,2550.3,24.6,-58.8,444.3,-1559.4,1663.5,-543.6,32974.5,45.9,1782.3,703.8,-1725.6,-9827.4,9830.1,-166.8,-6.9,-5.7,146.1,630.3,-0.9,172.5,411.3,-1906.5,0,84,805306368,244,0, 
0.0500,-377.1,2571.6,37.8,-42.9,465.6,-1596.9,1658.1,-553.8,22674.6,73.5,1808.4,729.0,-1748.7,-9827.4,9830.1,-182.7,-6.6,-5.7,157.8,647.7,-0.6,189.6,54.6,-1966.8,0,90,805306368,245,0, 
0.0533,-371.1,2601.3,66.3,-19.5,490.2,-1624.8,1662.0,-557.7,-2371.2,95.1,1831.8,747.6,-1720.8,-9827.4,7546.8,-187.2,-6.6,-6.0,188.4,666.9,-0.9,221.7,-414.9,-2028.6,0,96,805306368,246,0, 
0.0567,-375.3,2586.9,57.0,-19.2,493.5,-1610.1,1666.2,-552.3,-7854.6,86.7,1825.8,745.8,-1703.7,-9827.4,-2472.9,-186.0,-6.6,-5.7,185.4,663.6,-0.6,211.8,-336.9,-2012.7,0,102,805306368,247,0, 
0.0600,-376.8,2566.5,30.3,-43.8,459.9,-1581.9,1665.0,-545.7,14227.2,62.1,1808.1,718.5,-1713.0,-9827.4,5416.5,-175.8,-6.6,-5.4,164.4,641.7,-0.9,185.1,180.0,-1936.2,0,108,805306368,248,0, 
0.0633,-377.7,2548.8,12.9,-61.5,445.5,-1577.1,1658.1,-549.9,33493.2,57.3,1791.6,708.0,-1729.8,-9827.4,9830.1,-165.6,-6.9,-6.0,148.5,638.4,-0.9,163.5,428.1,-1907.1,0,114,805306368,249,0, 
0.0667,-378.3,2562.3,32.4,-43.2,464.4,-1595.4,1657.8,-559.8,23415.6,64.2,1810.5,731.1,-1730.4,-9827.4,9830.1,-173.1,-6.6,-5.7,172.8,646.8,-0.6,198.3,65.4,-1959.9,0,120,805306368,250,0, 
0.0700,-371.4,2594.7,54.9,-18.0,497.7,-1630.2,1659.3,-563.7,-1778.4,87.6,1827.9,756.9,-1728.9,-9827.4,7806.9,-191.1,-6.9,-6.3,188.1,672.9,-0.9,219.0,-426.9,-2026.5,0,126,805306368,251,0, 
0.0733,-371.4,2596.5,53.7,-20.1,485.4,-1624.8,1665.6,-557.1,-7187.7,79.2,1824.3,750.3,-1708.5,-9827.4,-1875.6,-186.0,-6.9,-6.0,185.1,651.3,-0.6,214.2,-357.3,-2009.7,0,132,805306368,252,0, 
0.0767,-381.6,2560.8,22.8,-45.0,460.2,-1587.0,1667.7,-544.2,14820.0,60.6,1796.7,716.4,-1708.2,-9827.4,5817.3,-170.4,-7.2,-6.6,163.8,633.3,-1.2,178.5,168.6,-1945.8,0,138,805306368,253,0, 
0.0800,-383.1,2542.5,20.4,-54.0,450.3,-1572.0,1657.5,-545.7,34086.0,40.2,1794.3,705.3,-1736.4,-9827.4,9830.1,-170.4,-6.9,-5.4,157.8,631.2,-0.3,180.3,432.9,-1905.9,0,144,805306368,254,0, 
0.0833,-378.0,2565.9,22.2,-40.5,469.2,-1599.6,1653.9,-558.0,23934.3,62.7,1800.9,720.9,-1747.5,-9827.4,9830.1,-185.4,-6.9,-6.3,157.2,641.7,-0.9,195.6,71.4,-1963.5,0,150,805306368,255,0, 
0.0867,-379.8,2584.8,37.8,-25.2,487.5,-1633.5,1661.1,-564.6,-1482.0,79.5,1797.6,735.6,-1730.7,-9827.4,7997.7,-195.9,-6.9,-6.3,153.9,651.9,-0.6,202.5,-407.7,-2031.6,0,156,805306368,0,0, 
0.0900,-375.9,2587.2,39.9,-24.6,489.9,-1616.7,1666.2,-557.4,-7039.5,81.0,1799.7,729.6,-1710.3,-9827.4,-1601.4,-189.3,-6.6,-6.0,157.5,653.7,-0.3,203.1,-325.5,-2024.1,0,162,805306368,1,0, 
0.0933,-376.5,2563.8,31.2,-42.6,457.2,-1576.5,1660.5,-552.9,14968.2,65.1,1824.0,720.9,-1705.8,-9827.4,5933.1,-179.7,-6.9,-5.4,189.0,627.9,-0.9,186.3,181.5,-1946.4,0,168,805306368,2,0, 
0.0967,-375.0,2554.8,21.0,-51.3,450.0,-1579.5,1657.2,-550.2,34011.9,60.6,1821.3,716.7,-1713.9,-9827.4,9830.1,-171.6,-6.6,-5.7,182.1,634.8,-0.3,179.1,440.4,-1911.3,0,174,805306368,3,0, 
0.1000,-376.5,2564.1,32.1,-41.1,465.9,-1609.2,1660.8,-559.8,23934.3,81.0,1818.0,722.7,-1728.6,-9827.4,9830.1,-181.2,-6.9,-6.3,175.8,633.6,-0.9,198.6,72.6,-1960.8,0,180,805306368,4,0, 
0.1033,-375.3,2590.5,56.4,-13.5,499.2,-1633.8,1665.9,-563.1,-1482.0,94.8,1833.0,754.2,-1709.4,-9827.4,7990.5,-192.6,-6.6,-5.4,185.7,661.2,-0.9,214.5,-417.3,-2024.4,0,186,805306368,5,0, 
0.1067,-378.0,2583.3,51.0,-17.4,490.8,-1627.8,1669.5,-561.6,-6965.4,87.9,1824.0,747.3,-1702.2,-9827.4,-1674.3,-191.1,-6.9,-6.0,178.8,660.9,-0.6,213.9,-343.5,-2010.6,0,192,805306368,6,0, 
0.1100,-376.2,2573.1,26.1,-39.6,467.4,-1589.7,1668.9,-548.1,14745.9,63.6,1797.6,718.5,-1709.7,-9827.4,5853.3,-174.6,-6.3,-6.0,150.0,643.5,-0.6,178.8,185.1,-1937.7,0,198,805306368,7,0, 
0.1133,-379.2,2541.3,9.3,-57.3,442.5,-1584.0,1663.8,-556.8,33863.7,52.2,1788.9,702.3,-1722.9,-9827.4,9830.1,-170.1,-7.2,-6.0,143.7,614.7,-0.9,172.8,429.0,-1909.5,0,204,805306368,8,0, 
0.1167,-380.4,2556.9,30.0,-42.9,466.2,-1604.4,1658.7,-564.3,23415.6,62.4,1803.6,722.7,-1727.4,-9827.4,9830.1,-185.4,-6.9,-6.0,156.9,634.8,-0.3,183.0,50.1,-1968.9,0,210,805306368,9,0, 
0.1200,-375.0,2581.5,53.4,-15.0,494.7,-1636.2,1667.7,-567.9,-2000.7,102.3,1833.3,751.2,-1710.3,-9827.4,7779.3,-191.4,-6.9,-5.4,180.9,660.3,-0.9,220.8,-437.1,-2027.7,0,216,805306368,10,0, 
0.1233,-367.2,2594.1,60.9,-13.2,497.4,-1618.5,1674.0,-556.8,-8002.8,97.2,1833.6,748.8,-1697.1,-9827.4,-2306.7,-183.3,-6.6,-5.7,184.5,663.0,-0.6,213.9,-341.1,-2004.9,0,222,805306368,11,0, 
0.1267,-376.8,2565.6,32.4,-38.7,460.2,-1589.4,1672.2,-547.2,13930.8,66.9,1803.0,714.9,-1714.5,-9827.4,5370.9,-169.8,-6.6,-5.7,162.6,629.1,-1.2,187.2,164.1,-1936.5,0,228,805306368,12,0, 
0.1300,-378.9,2540.7,12.9,-57.9,444.6,-1571.4,1666.2,-555.9,32604.0,53.4,1784.4,701.1,-1717.5,-9827.4,9830.1,-165.6,-6.6,-6.0,147.3,615.3,-0.6,169.2,421.2,-1902.3,0,234,805306368,13,0, 
0.1333,-384.9,2553.9,30.3,-43.5,465.0,-1609.5,1660.2,-570.3,22674.6,67.2,1799.4,722.4,-1733.7,-9827.4,9830.1,-181.2,-6.6,-5.7,153.9,636.0,-0.9,183.9,30.0,-1966.2,0,240,805306368,14,0, 
0.1367,-375.9,2585.4,52.5,-23.7,483.6,-1644.3,1661.1,-578.1,-2964.0,93.9,1825.8,749.1,-1703.1,-9827.4,7362.9,-194.7,-6.6,-5.7,182.4,645.0,-0.6,212.1,-464.1,-2033.7,0,246,805306368,15,0, 
0.1400,-376.8,2580.0,54.6,-21.9,484.2,-1624.2,1674.6,-563.4,-8966.1,94.5,1828.8,740.7,-1675.2,-9827.4,-3062.4,-180.0,-6.6,-5.4,186.9,641.1,-0.6,213.3,-363.0,-1998.6,0,252,805306368,16,0, 
0.1433,-378.0,2561.7,35.1,-44.1,460.8,-1587.3,1668.9,-551.4,12671.1,64.8,1797.3,714.3,-1689.3,-9827.4,4718.4,-170.7,-6.9,-6.0,161.4,616.5,-0.6,183.9,163.8,-1937.1,0,258,805306368,17,0, 
0.1467,-384.6,2539.5,13.8,-61.8,443.4,-1576.5,1660.8,-555.0,31863.0,47.7,1781.4,698.7,-1718.7,-9827.4,9830.1,-164.1,-6.9,-5.7,141.9,618.0,-0.6,170.1,398.7,-1914.0,0,264,805306368,18,0, 
0.1500,-382.2,2554.2,28.2,-46.5,461.7,-1600.2,1662.0,-563.7,21489.0,72.0,1799.7,718.5,-1718.1,-9827.4,9830.1,-169.8,-7.2,-6.0,163.2,623.4,-0.6,186.0,42.0,-1966.8,0,270,805306368,19,0, 
0.1533,-379.5,2583.3,63.9,-13.8,494.4,-1644.6,1664.4,-566.7,-3927.3,100.8,1837.8,758.7,-1701.6,-9827.4,6810.9,-182.7,-6.6,-5.4,197.1,660.9,-0.9,217.5,-465.6,-2023.2,0,276,805306368,20,0, 
0.1567,-374.4,2588.4,60.3,-15.3,492.9,-1626.9,1674.9,-555.9,-10077.6,100.2,1833.9,753.3,-1682.4,-9827.4,-4113.9,-175.5,-7.2,-6.3,194.7,655.5,-0.9,221.7,-371.4,-2005.8,0,282,805306368,21,0, 
0.1600,-372.6,2561.4,39.6,-36.0,466.8,-1586.4,1677.6,-545.7,11781.9,70.5,1804.2,720.6,-1691.7,-9827.4,3957.6,-163.2,-7.2,-5.7,172.2,635.4,-0.6,189.9,157.5,-1934.4,0,288,805306368,22,0, 
0.1633,-373.8,2553.9,22.2,-50.4,450.6,-1577.1,1666.5,-544.5,30899.7,63.6,1797.0,711.9,-1706.1,-9827.4,9830.1,-153.9,-6.9,-6.0,162.0,614.4,-0.6,176.4,395.7,-1910.7,0,294,805306368,23,0, 
0.1667,-372.9,2559.3,38.7,-36.0,470.1,-1605.6,1663.2,-557.7,20451.6,78.6,1817.7,731.7,-1715.7,-9827.4,9830.1,-167.4,-6.6,-5.4,173.4,636.3,-0.9,203.4,26.1,-1966.5,0,300,805306368,24,0, 
0.1700,-372.6,2591.4,64.2,-9.3,498.9,-1634.4,1670.7,-561.0,-5112.9,105.6,1836.9,753.3,-1701.3,-9827.4,6192.0,-177.0,-6.9,-5.7,182.4,654.9,-0.6,220.8,-467.7,-2024.7,0,306,805306368,25,0, 
0.1733,-371.1,2581.8,70.2,-8.7,493.2,-1631.1,1680.6,-555.6,-10892.7,111.6,1834.2,758.1,-1673.7,-9827.4,-5028.0,-171.3,-6.9,-5.1,185.1,645.9,-0.6,223.2,-397.5,-2013.0,0,312,805306368,26,0, 
0.1767,-372.9,2564.7,36.3,-36.3,464.1,-1589.7,1683.3,-546.9,11040.9,66.0,1799.4,718.8,-1687.5,-9827.4,3327.3,-154.5,-6.9,-6.0,150.3,627.6,-0.6,175.8,126.3,-1941.3,0,318,805306368,27,0, 
0.1800,-375.3,2545.5,20.7,-50.7,450.0,-1576.2,1679.4,-545.4,30084.6,58.5,1794.9,709.2,-1706.4,-9827.4,9830.1,-148.2,-6.6,-5.7,148.2,618.3,-0.6,183.9,380.1,-1901.4,0,324,805306368,28,0, 
0.1833,-375.3,2557.2,41.1,-34.8,467.4,-1608.9,1676.1,-555.6,19784.7,73.5,1813.8,726.6,-1700.7,-9827.4,9830.1,-154.5,-6.9,-6.0,154.2,630.0,-0.6,202.2,8.4,-1962.0,0,330,805306368,29,0, 
0.1867,-370.8,2589.0,64.5,-17.1,492.0,-1635.6,1682.7,-561.9,-5779.8,107.7,1828.8,751.5,-1686.3,-9827.4,5548.5,-165.6,-6.9,-5.4,167.1,641.4,-0.9,218.4,-462.3,-2022.3,0,336,805306368,30,0, 
0.1900,-366.9,2588.1,70.8,-13.5,493.8,-1626.0,1690.8,-552.0,-11856.0,112.2,1833.3,751.8,-1670.7,-9827.4,-5917.2,-158.1,-6.9,-5.7,173.7,642.9,-0.6,220.5,-385.2,-2013.0,0,342,805306368,31,0, 
0.1933,-371.7,2572.8,43.8,-35.4,469.2,-1582.5,1691.7,-538.2,10003.5,74.4,1806.6,725.1,-1685.1,-9827.4,2590.5,-150.9,-6.9,-5.4,141.0,620.4,-0.6,187.5,138.3,-1934.4,0,348,805306368,32,0, 
0.1967,-378.0,2531.1,28.2,-51.0,451.5,-1573.8,1685.4,-547.8,29121.3,64.2,1796.7,710.4,-1699.5,-9827.4,9830.1,-142.5,-6.9,-5.7,137.7,618.0,-0.9,178.8,387.3,-1905.6,0,354,805306368,33,0, 
0.2000,-378.6,2558.7,46.2,-35.1,476.7,-1590.0,1681.8,-555.3,18525.0,75.3,1806.9,727.8,-1705.2,-9827.4,9830.1,-157.5,-6.9,-5.7,147.0,637.5,-0.6,195.0,30.0,-1962.0,0,360,805306368,34,0, 
0.2033,-375.0,2582.4,72.6,-10.8,495.9,-1638.3,1681.2,-558.3,-6891.3,107.7,1832.1,753.6,-1691.1,-9827.4,4848.9,-165.3,-6.9,-6.3,162.6,643.2,-0.6,225.3,-433.2,-2026.5,0,366,805306368,35,0, 
0.2067,-378.0,2580.9,66.6,-12.9,497.4,-1624.2,1687.8,-553.2,-12671.1,91.2,1829.1,749.4,-1682.7,-9827.4,-6796.2,-159.0,-7.2,-6.0,160.8,640.2,-0.9,212.4,-368.1,-2004.9,0,372,805306368,36,0, 
0.2100,-379.5,2555.4,49.2,-38.7,464.4,-1593.0,1683.6,-542.4,9262.5,78.3,1814.4,729.6,-1687.5,-9827.4,1892.7,-144.6,-6.9,-6.0,145.5,619.8,-0.9,184.8,133.2,-1936.8,0,378,805306368,37,0, 
0.2133,-383.1,2539.8,25.5,-54.6,451.2,-1584.0,1671.6,-546.9,28380.3,53.4,1789.2,707.1,-1712.4,-9827.4,9830.1,-145.5,-6.9,-5.7,126.3,612.3,-1.2,176.4,368.7,-1913.7,0,384,805306368,38,0, 
0.2167,-381.0,2558.4,47.1,-38.1,470.1,-1594.5,1671.3,-553.5,17784.0,84.0,1804.2,723.9,-1704.6,-9827.4,9830.1,-152.1,-7.2,-6.0,143.1,632.7,0.0,195.9,30.6,-1960.2,0,390,805306368,39,0, 
0.2200,-374.7,2578.2,69.0,-12.0,492.0,-1638.6,1678.5,-561.9,-7484.1,103.8,1836.3,754.8,-1686.0,-9827.4,4285.8,-160.8,-6.9,-5.7,171.3,641.4,-0.9,222.0,-453.6,-2022.9,0,396,805306368,40,0, 
0.2233,-369.3,2589.6,83.1,-1.8,499.5,-1620.9,1686.6,-546.3,-13189.8,108.3,1832.7,758.4,-1669.8,-9827.4,-7452.0,-154.8,-7.2,-6.0,172.2,653.4,-0.6,231.0,-385.5,-2004.9,0,402,805306368,41,0, 
0.2267,-378.3,2554.5,45.0,-36.0,463.5,-1588.8,1683.0,-546.0,8669.7,74.7,1803.6,721.2,-1687.5,-9827.4,1314.0,-145.5,-7.5,-6.0,149.4,625.5,-0.6,194.4,114.6,-1942.5,0,408,805306368,42,0, 
0.2300,-382.8,2537.7,31.5,-57.3,441.3,-1587.3,1670.4,-546.9,27639.3,51.0,1777.2,702.6,-1710.9,-9827.4,9830.1,-140.7,-6.9,-5.7,130.8,604.8,-0.3,173.7,364.2,-1916.1,0,414,805306368,43,0, 
0.2333,-383.4,2553.3,48.3,-44.4,462.0,-1607.4,1666.5,-557.1,17339.4,61.8,1796.1,719.1,-1718.1,-9827.4,9830.1,-152.7,-6.9,-5.4,141.3,620.1,-0.9,188.4,-4.8,-1976.4,0,420,805306368,44,0, 
0.2367,-378.9,2582.7,76.5,-15.9,488.7,-1637.7,1670.7,-559.5,-8151.0,94.2,1824.9,746.7,-1702.2,-9827.4,3846.9,-164.4,-6.9,-6.0,174.0,628.5,-0.3,212.4,-470.1,-2040.3,0,426,805306368,45,0, 
0.2400,-381.0,2576.4,69.0,-14.1,492.3,-1629.6,1674.3,-556.5,-13856.7,89.4,1820.4,746.4,-1679.7,-9827.4,-7954.5,-162.0,-6.9,-5.4,164.7,640.2,-0.6,214.5,-400.8,-2022.6,0,432,805306368,46,0, 
0.2433,-385.2,2549.7,47.1,-41.4,455.7,-1595.1,1671.0,-546.3,7780.5,61.2,1796.4,720.3,-1697.7,-9827.4,714.9,-149.4,-6.6,-6.0,141.3,623.4,-0.9,184.2,122.7,-1951.2,0,438,805306368,47,0, 
0.2467,-388.5,2532.6,30.9,-54.0,441.9,-1584.3,1665.3,-546.6,27046.5,55.5,1784.4,700.8,-1727.1,-9827.4,9804.0,-147.9,-6.6,-5.7,132.9,607.8,-0.9,172.8,366.3,-1924.2,0,444,805306368,48,0, 
0.2500,-385.5,2546.7,58.2,-37.5,463.5,-1603.8,1663.2,-554.4,16524.3,72.3,1803.6,722.1,-1719.0,-9827.4,9830.1,-162.0,-6.6,-6.0,146.7,615.9,-0.6,195.3,7.2,-1970.7,0,450,805306368,49,0, 
0.2533,-377.4,2579.1,80.1,-13.5,492.9,-1632.3,1673.7,-553.5,-8743.8,101.4,1824.9,753.0,-1695.6,-9827.4,3261.0,-168.6,-6.9,-6.0,170.4,646.8,-0.6,220.5,-455.4,-2025.6,0,456,805306368,50,0, 
0.2567,-379.5,2576.1,78.3,-13.5,493.2,-1626.6,1680.3,-549.9,-14449.5,93.6,1830.0,751.5,-1684.5,-9827.4,-8533.8,-163.8,-6.9,-6.0,170.7,648.3,-0.6,225.0,-380.4,-2014.8,0,462,805306368,51,0, 
0.2600,-378.3,2558.7,56.1,-39.9,460.5,-1579.5,1677.3,-535.2,7187.7,65.4,1799.4,719.1,-1692.9,-9827.4,145.5,-150.6,-6.9,-6.0,146.7,615.3,-0.9,190.8,128.7,-1947.3,0,468,805306368,52,0, 
0.2633,-388.5,2532.0,39.9,-57.0,446.7,-1567.5,1669.5,-538.2,26453.7,55.8,1784.7,703.8,-1715.4,-9827.4,9711.6,-151.2,-6.6,-5.7,141.0,604.2,-0.6,171.9,375.9,-1915.5,0,474,805306368,53,0, 
0.2667,-383.1,2553.9,48.3,-48.3,460.2,-1604.7,1661.1,-553.8,16227.9,63.3,1796.1,717.9,-1724.4,-9827.4,9830.1,-158.1,-6.9,-6.0,144.3,611.4,-0.6,182.7,-4.2,-1980.9,0,480,805306368,54,0, 
0.2700,-383.4,2562.0,73.8,-23.1,491.1,-1646.4,1668.0,-557.4,-9188.4,93.3,1818.3,747.0,-1704.3,-9827.4,2924.4,-167.4,-6.9,-5.7,171.6,646.2,-0.9,216.0,-472.8,-2029.5,0,486,805306368,55,0, 
0.2733,-378.3,2570.4,75.6,-19.8,484.5,-1632.3,1672.2,-546.6,-15042.3,93.3,1820.4,742.8,-1685.1,-9827.4,-8928.3,-163.5,-6.9,-6.0,172.8,623.4,-0.9,215.7,-399.9,-2022.6,0,492,805306368,56,0, 
0.2767,-379.8,2545.8,50.7,-40.2,465.3,-1593.0,1673.7,-535.8,6817.2,63.0,1800.0,723.9,-1692.6,-9827.4,-252.0,-144.6,-7.2,-5.7,148.8,618.0,-0.9,183.0,122.4,-1938.0,0,498,805306368,57,0, 
0.2800,-387.6,2530.8,31.8,-59.1,442.8,-1583.1,1660.5,-539.4,26305.5,45.0,1786.5,701.4,-1721.7,-9827.4,9649.8,-151.2,-6.6,-5.7,129.6,596.4,-0.6,168.3,340.2,-1922.4,0,504,805306368,58,0, 
0.2833,-386.7,2541.6,45.6,-46.5,463.5,-1608.3,1661.4,-545.7,16005.6,71.4,1801.2,720.0,-1719.9,-9827.4,9830.1,-159.3,-6.9,-5.4,143.4,614.4,-1.2,185.7,-18.9,-1972.8,0,510,805306368,59,0, 
0.2867,-382.8,2573.4,79.2,-15.9,495.9,-1642.5,1667.7,-551.1,-9633.0,95.7,1830.9,751.2,-1694.7,-9827.4,2640.0,-170.4,-6.6,-5.7,168.0,644.7,-0.9,218.7,-494.7,-2038.2,0,516,805306368,60,0, 
0.2900,-379.8,2574.3,78.3,-15.9,495.9,-1616.1,1678.2,-538.2,-15190.5,93.9,1830.0,751.5,-1686.3,-9827.4,-9218.1,-162.0,-6.9,-6.0,164.4,637.8,-0.9,215.1,-406.8,-2012.7,0,522,805306368,61,0, 
0.2933,-382.8,2542.8,49.2,-46.8,458.4,-1591.5,1671.0,-532.8,6520.8,65.7,1795.2,716.1,-1694.1,-9827.4,-518.4,-157.5,-6.9,-5.4,133.8,616.2,-0.6,183.0,103.2,-1947.6,0,528,0,62,0, 
0.2967,-387.9,2526.3,32.1,-64.8,438.0,-1585.2,1665.3,-534.9,25712.7,56.7,1783.8,700.5,-1721.1,-9827.4,9585.6,-153.9,-7.2,-5.7,126.3,597.0,-0.6,173.7,360.6,-1921.8,0,534,0,63,0, 
0.3000,-384.9,2562.3,55.5,-51.3,454.8,-1613.7,1656.3,-543.3,15486.9,67.8,1805.7,720.3,-1723.5,-9827.4,9830.1,-171.0,-6.9,-5.7,132.0,609.6,-0.9,193.2,-26.1,-1979.7,0,540,0,64,0, 
0.3033,-384.0,2562.0,72.6,-26.7,481.5,-1639.2,1661.1,-551.1,-10003.5,94.8,1832.1,746.1,-1703.1,-9827.4,2263.8,-178.5,-6.6,-5.7,159.9,635.1,-0.9,216.3,-484.8,-2041.5,0,546,268435456,65,0, 
0.3067,-378.9,2573.1,75.6,-26.1,480.9,-1630.2,1668.9,-538.5,-15709.2,92.1,1825.5,740.7,-1680.9,-9827.4,-9556.2,-169.8,-6.9,-5.7,150.9,628.8,-0.6,216.9,-402.9,-2022.3,0,552,268435456,66,0, 
0.3100,-372.9,2555.7,57.6,-39.9,459.9,-1588.2,1667.7,-525.9,6224.4,74.4,1801.2,719.7,-1677.9,-9827.4,-900.6,-159.3,-6.9,-5.7,147.3,615.0,-0.3,191.1,131.7,-1947.0,0,558,268435456,67,0, 
0.3133,-381.3,2534.4,38.7,-63.0,437.7,-1577.4,1658.1,-532.8,25268.1,47.1,1781.7,700.8,-1701.3,-9827.4,9515.1,-162.0,-6.9,-6.0,130.2,593.4,-0.6,169.8,367.2,-1920.0,0,564,268435456,68,0, 
0.3167,-388.5,2543.1,56.7,-46.5,463.2,-1601.7,1656.6,-542.7,15264.6,68.1,1800.9,725.7,-1711.5,-9827.4,9830.1,-179.1,-6.6,-5.4,143.4,609.3,-0.6,182.4,-21.0,-1983.9,0,570,268435456,69,0, 
0.3200,-382.8,2574.6,72.6,-26.4,484.5,-1641.9,1658.4,-549.0,-10299.9,93.3,1821.3,741.3,-1699.8,-9827.4,2011.5,-186.9,-6.9,-5.4,156.9,627.0,-0.9,208.2,-491.1,-2042.1,0,576,268435456,70,0, 
0.3233,-384.6,2567.1,78.0,-20.1,491.7,-1631.4,1670.7,-541.2,-15931.5,92.4,1821.3,747.6,-1672.8,-9827.4,-9830.1,-176.7,-6.9,-6.0,161.4,638.7,-0.9,210.9,-396.0,-2016.6,0,582,268435456,71,0, 
0.3267,-385.8,2543.4,51.0,-44.7,457.2,-1590.0,1666.8,-531.0,6150.3,60.9,1800.3,716.4,-1688.7,-9827.4,-1020.3,-162.9,-6.6,-5.7,137.1,600.9,-0.6,188.4,127.2,-1949.1,0,588,805306368,72,0, 
0.3300,-390.0,2522.1,38.1,-58.2,442.5,-1575.3,1659.9,-533.1,25564.5,48.6,1792.2,704.7,-1723.5,-9827.4,9499.8,-161.1,-7.2,-5.7,131.1,593.7,-0.6,174.6,377.1,-1926.6,0,594,805306368,73,0, 
0.3333,-385.8,2550.9,46.8,-48.0,458.1,-1617.0,1653.6,-541.5,14894.1,59.1,1798.8,720.3,-1728.9,-9827.4,9830.1,-168.3,-6.9,-6.3,130.8,603.0,-0.6,185.7,-1.5,-1986.0,0,600,805306368,74,0, 
0.3367,-384.6,2561.7,82.2,-20.7,491.7,-1639.8,1662.9,-545.1,-11040.9,90.0,1822.8,750.6,-1703.7,-9827.4,1599.3,-177.9,-6.9,-5.7,152.4,621.3,-0.9,214.5,-472.2,-2044.2,0,606,805306368,75,0, 
0.3400,-384.6,2567.7,77.7,-16.2,493.2,-1629.0,1667.1,-534.6,-16450.2,90.9,1824.9,749.4,-1689.9,-9827.4,-9830.1,-169.5,-6.9,-6.0,157.8,625.2,-0.6,207.9,-390.3,-2022.9,0,612,805306368,76,0, 
0.3433,-387.3,2538.6,47.7,-47.4,456.3,-1586.7,1665.6,-531.0,6372.6,55.8,1794.9,717.0,-1690.5,-9827.4,-1153.8,-155.4,-7.2,-6.0,129.9,600.3,-0.3,180.3,140.4,-1953.0,0,618,805306368,77,0, 
0.3467,-385.2,2527.8,33.3,-56.7,447.0,-1573.5,1659.9,-530.7,25712.7,47.4,1782.9,706.2,-1707.3,-9827.4,9503.4,-154.8,-6.9,-6.0,115.5,599.4,-0.9,163.5,384.6,-1924.2,0,624,805306368,78,0, 
0.3500,-385.5,2540.7,57.9,-37.8,466.2,-1604.1,1656.9,-537.9,14968.2,69.0,1808.1,730.8,-1710.9,-9827.4,9830.1,-164.4,-6.9,-6.0,143.7,610.8,-0.6,192.9,7.8,-1975.5,0,630,805306368,79,0, 
0.3533,-380.7,2571.0,89.7,-8.1,507.0,-1627.2,1665.9,-540.0,-11559.6,97.8,1836.9,762.9,-1691.4,-9827.4,1240.5,-174.6,-6.6,-6.0,167.7,649.2,-0.3,218.1,-457.2,-2028.3,0,636,805306368,80,0, 
0.3567,-376.8,2574.6,90.9,-11.4,495.3,-1619.4,1669.5,-531.6,-17043.0,97.8,1828.5,755.7,-1670.7,-9827.4,-9830.1,-171.9,-6.9,-5.4,159.6,634.8,-0.6,222.6,-392.7,-2011.5,0,642,805306368,81,0, 
0.3600,-383.7,2542.2,57.3,-39.0,465.0,-1581.9,1664.4,-527.7,6076.2,65.7,1796.1,726.3,-1690.5,-9827.4,-1522.2,-157.5,-6.9,-5.7,132.6,616.8,-0.6,190.5,153.3,-1937.4,0,648,805306368,82,0, 
0.3633,-385.5,2524.2,42.9,-59.7,443.1,-1567.2,1658.1,-531.3,26453.7,39.6,1775.1,701.7,-1723.8,-9827.4,9479.1,-158.4,-7.5,-5.7,114.6,588.0,-0.3,159.0,389.4,-1917.0,0,654,805306368,83,0, 
0.3667,-385.8,2539.2,54.0,-44.7,461.1,-1597.8,1659.3,-547.2,15042.3,54.6,1792.5,717.9,-1713.9,-9827.4,9830.1,-169.5,-6.9,-5.7,127.2,609.6,-0.3,184.5,13.2,-1982.4,0,660,805306368,84,0, 
0.3700,-384.0,2561.1,81.3,-22.2,490.2,-1639.5,1659.0,-552.9,-12597.0,96.3,1818.6,752.4,-1693.8,-9827.4,795.3,-180.0,-7.2,-5.7,154.8,633.9,-0.6,218.1,-496.2,-2042.4,0,666,805306368,85,0, 
0.3733,-383.4,2565.6,83.1,-19.5,488.4,-1610.4,1670.4,-541.8,-19117.8,93.6,1818.0,747.9,-1683.9,-9827.4,-9830.1,-173.1,-6.9,-5.7,156.9,620.4,-0.6,205.5,-424.8,-2026.2,0,672,805306368,86,0, 
0.3767,-382.2,2538.9,61.8,-43.2,463.8,-1578.9,1664.7,-528.9,5928.0,63.0,1796.4,721.8,-1689.6,-9827.4,-2196.9,-160.2,-6.9,-5.7,138.9,614.1,-0.6,173.7,163.2,-1936.5,0,678,805306368,87,0, 
0.3800,-385.2,2529.9,34.2,-62.4,441.3,-1578.3,1654.5,-532.8,27565.2,43.5,1777.5,698.4,-1716.9,-9827.4,9501.9,-162.3,-6.6,-5.7,116.1,588.9,-0.6,165.6,432.6,-1908.0,0,684,805306368,88,0, 
0.3833,-386.7,2537.7,60.9,-41.1,465.3,-1604.1,1658.7,-545.7,15264.6,75.6,1803.9,726.9,-1712.1,-9827.4,9830.1,-169.2,-7.2,-5.4,136.2,615.9,-0.6,202.5,10.5,-1965.9,0,690,805306368,89,0, 
0.3867,-384.6,2565.9,85.2,-14.7,499.8,-1631.4,1662.0,-554.4,-13782.6,97.8,1829.1,754.2,-1699.8,-9827.4,369.3,-183.6,-6.6,-5.7,159.0,630.6,-0.6,213.0,-534.0,-2039.4,0,696,805306368,90,0, 
0.3900,-381.9,2564.1,84.9,-19.5,486.3,-1629.0,1672.2,-543.6,-19414.2,94.5,1816.8,747.6,-1693.8,-9827.4,-9830.1,-176.1,-7.2,-6.0,156.0,628.8,-0.9,219.0,-431.7,-2011.2,0,702,805306368,91,0, 
0.3933,-385.2,2534.4,49.5,-45.9,462.6,-1583.4,1666.8,-532.8,6150.3,59.1,1787.7,716.1,-1701.9,-9827.4,-2301.6,-164.4,-6.6,-6.3,127.8,609.6,-0.6,180.3,171.9,-1932.6,0,708,805306368,92,0, 
0.3967,-384.9,2515.2,33.9,-68.7,435.0,-1576.5,1664.1,-534.9,27565.2,46.5,1776.3,696.0,-1709.7,-9827.4,9527.7,-155.1,-7.2,-6.0,116.4,582.0,-0.3,162.6,441.0,-1905.3,0,714,805306368,93,0, 
0.4000,-384.9,2539.2,54.0,-47.7,464.4,-1608.9,1655.1,-548.7,15264.6,62.1,1801.8,723.6,-1734.6,-9827.4,9830.1,-178.5,-6.6,-6.0,132.0,608.7,-0.6,186.6,-8.1,-1974.0,0,720,805306368,94,0, 
0.4033,-384.3,2560.5,83.1,-20.7,492.0,-1640.4,1664.4,-553.2,-13634.4,93.6,1822.5,752.7,-1709.1,-9827.4,453.9,-186.3,-6.3,-6.0,148.5,630.0,-0.3,216.0,-537.3,-2041.8,0,726,805306368,95,0, 
0.4067,-387.0,2559.9,80.4,-20.4,485.1,-1629.6,1666.2,-544.2,-19340.1,88.2,1809.6,741.0,-1690.8,-9827.4,-9830.1,-177.6,-6.9,-5.7,143.1,624.3,-0.6,210.6,-432.6,-2021.1,0,732,805306368,96,0, 
0.4100,-381.9,2547.3,50.4,-49.5,447.0,-1587.0,1665.0,-531.3,6224.4,51.6,1784.7,705.9,-1702.8,-9827.4,-2170.5,-165.3,-6.9,-6.0,128.1,595.2,-0.6,177.9,165.0,-1940.7,0,738,805306368,97,0, 
0.4133,-394.8,2503.5,32.4,-66.3,431.4,-1575.0,1652.7,-540.0,27787.5,39.9,1776.0,693.0,-1719.0,-9827.4,9540.9,-162.9,-6.9,-5.7,120.0,585.9,-0.9,168.3,424.8,-1914.9,0,744,805306368,98,0, 
0.4167,-393.0,2529.9,46.5,-47.7,456.9,-1606.8,1654.8,-552.6,15264.6,62.4,1792.5,717.0,-1734.0,-9827.4,9830.1,-172.8,-6.9,-5.7,133.2,603.3,-0.6,176.4,-9.9,-1975.5,0,750,805306368,99,0, 
0.4200,-387.0,2559.6,86.4,-15.0,486.9,-1638.0,1660.2,-554.7,-13930.8,95.4,1821.3,747.9,-1714.2,-9827.4,306.9,-181.5,-6.6,-5.7,158.7,626.4,-0.9,212.4,-512.1,-2042.1,0,756,805306368,100,0, 
0.4233,-390.0,2552.4,78.3,-19.5,486.3,-1615.2,1666.2,-546.3,-19562.4,89.1,1818.9,739.8,-1704.6,-9827.4,-9830.1,-177.0,-6.6,-6.3,155.4,618.9,-1.2,218.7,-434.1,-2019.9,0,762,805306368,101,0, 
0.4267,-390.9,2532.9,52.8,-49.5,453.3,-1582.5,1661.1,-532.8,6150.3,57.3,1790.7,708.0,-1704.3,-9827.4,-2264.7,-162.6,-6.9,-6.0,123.0,604.2,-0.9,178.2,175.8,-1928.7,0,768,805306368,102,0, 
0.4300,-397.5,2511.0,36.9,-63.3,436.5,-1564.8,1656.0,-537.9,27935.7,36.0,1775.7,696.3,-1744.5,-9827.4,9540.9,-163.5,-6.9,-5.1,112.5,584.4,-0.6,170.1,432.3,-1908.6,0,774,805306368,103,0, 
0.4333,-396.9,2529.9,57.0,-45.9,461.1,-1613.4,1648.2,-551.7,15338.7,63.6,1795.2,718.5,-1741.8,-9827.4,9830.1,-171.6,-6.9,-5.7,129.0,613.5,-0.6,188.7,-14.1,-1978.8,0,780,805306368,104,0, 
0.4367,-393.9,2554.8,74.1,-23.7,488.1,-1644.6,1657.5,-553.2,-13708.5,94.2,1812.0,743.4,-1727.1,-9827.4,413.7,-184.8,-6.6,-6.3,153.3,614.1,-0.3,216.6,-540.3,-2051.1,0,786,805306368,105,0, 
0.4400,-392.1,2557.5,82.8,-16.8,490.5,-1628.1,1659.6,-543.3,-19636.5,87.0,1810.8,743.1,-1700.4,-9827.4,-9830.1,-177.3,-6.6,-5.7,147.0,633.0,-0.6,210.9,-439.2,-2021.7,0,792,805306368,106,0, 
0.4433,-390.9,2533.5,52.8,-45.6,449.7,-1585.8,1659.3,-528.6,6224.4,51.3,1792.5,708.9,-1706.4,-9827.4,-2238.3,-163.8,-6.9,-5.7,126.3,589.5,-0.9,179.1,165.6,-1943.7,0,798,805306368,107,0, 
0.4467,-396.3,2515.2,45.6,-58.8,441.6,-1566.0,1655.4,-531.9,27787.5,43.8,1783.2,696.6,-1725.0,-9827.4,9531.9,-166.5,-7.2,-6.0,116.4,584.7,-0.6,158.4,437.7,-1912.8,0,804,805306368,108,0, 
0.4500,-396.9,2529.6,52.2,-47.1,457.8,-1600.8,1652.4,-545.4,15264.6,67.2,1796.4,713.7,-1733.4,-9827.4,9830.1,-183.3,-6.9,-6.0,133.5,595.2,-0.9,187.5,-7.8,-1979.4,0,810,805306368,109,0, 
0.4533,-391.2,2559.9,87.6,-14.1,491.4,-1633.8,1659.9,-547.5,-14153.1,101.1,1827.3,750.6,-1715.4,-9827.4,317.7,-185.7,-6.9,-5.7,157.5,624.3,-0.3,216.3,-526.8,-2038.8,0,816,805306368,110,0, 
0.4567,-393.0,2562.0,85.5,-21.6,484.5,-1621.5,1665.6,-536.7,-19784.7,91.8,1813.5,741.9,-1704.3,-9827.4,-9830.1,-180.3,-6.9,-5.4,150.3,614.1,-0.9,202.2,-405.3,-2022.9,0,822,805306368,111,0, 
0.4600,-394.8,2523.0,54.3,-45.9,455.1,-1569.9,1666.2,-524.1,6076.2,56.7,1787.7,709.8,-1712.4,-9827.4,-2354.7,-163.8,-6.9,-6.0,127.8,594.3,-0.9,181.8,195.3,-1933.5,0,828,805306368,112,0, 
0.4633,-396.3,2511.6,38.7,-65.7,431.7,-1562.7,1654.2,-534.3,27639.3,38.1,1767.9,691.5,-1735.2,-9827.4,9523.5,-160.2,-6.9,-6.0,111.0,572.7,-0.9,159.3,441.3,-1917.3,0,834,805306368,113,0, 
0.4667,-396.9,2522.7,61.2,-45.9,458.7,-1603.8,1655.7,-546.6,15042.3,60.9,1796.7,717.9,-1740.9,-9827.4,9830.1,-175.5,-7.2,-5.7,138.6,599.4,-0.6,189.9,10.5,-1971.0,0,840,805306368,114,0, 
0.4700,-390.6,2555.4,85.5,-16.2,490.5,-1628.7,1662.6,-555.0,-13930.8,94.5,1821.9,751.2,-1715.1,-9827.4,296.7,-182.7,-6.9,-5.7,156.0,614.1,-0.3,212.1,-531.9,-2041.8,0,846,805306368,115,0, 
0.4733,-391.2,2558.1,88.8,-18.9,483.0,-1621.5,1670.4,-540.6,-19636.5,84.9,1810.5,741.3,-1703.7,-9827.4,-9830.1,-180.6,-6.9,-5.7,155.1,601.2,-0.6,211.8,-424.5,-2018.4,0,852,805306368,116,0, 
0.4767,-394.8,2529.9,52.8,-43.2,459.0,-1578.3,1663.8,-529.8,6150.3,54.9,1783.8,715.8,-1721.1,-9827.4,-2314.5,-168.0,-6.9,-6.0,129.3,603.9,-0.9,189.3,180.0,-1931.4,0,858,805306368,117,0, 
0.4800,-402.3,2502.6,39.3,-61.5,435.6,-1569.3,1654.8,-535.5,27787.5,42.3,1779.6,695.7,-1741.8,-9827.4,9540.0,-165.0,-6.9,-5.7,119.4,575.1,-0.9,164.1,440.4,-1911.6,0,864,805306368,118,0, 
0.4833,-396.0,2536.8,59.4,-44.4,460.2,-1610.7,1650.3,-546.0,15264.6,64.2,1793.1,720.0,-1750.2,-9827.4,9830.1,-181.2,-6.6,-6.0,127.8,594.0,-0.9,184.5,-5.1,-1980.9,0,870,805306368,119,0, 
0.4867,-396.3,2553.3,88.5,-18.0,487.2,-1629.0,1659.3,-547.8,-13930.8,89.4,1815.0,746.7,-1725.9,-9827.4,406.5,-193.8,-6.9,-6.0,153.3,612.6,-0.6,215.1,-550.2,-2051.4,0,876,805306368,120,0, 
0.4900,-390.6,2559.0,88.2,-18.9,481.5,-1634.4,1668.6,-542.1,-19562.4,88.2,1814.7,748.8,-1701.0,-9827.4,-9830.1,-183.3,-7.2,-5.7,144.9,621.0,-0.9,205.5,-429.3,-2027.4,0,882,805306368,121,0, 
0.4933,-389.7,2527.8,62.7,-41.1,461.1,-1574.1,1668.3,-520.8,6150.3,56.7,1795.5,717.6,-1707.9,-9827.4,-2220.6,-168.6,-6.6,-6.0,126.3,599.1,-0.6,184.8,166.5,-1933.8,0,888,805306368,122,0, 
0.4967,-387.9,2510.4,41.7,-60.3,443.7,-1571.1,1657.2,-528.3,27787.5,40.2,1784.1,703.5,-1730.1,-9827.4,9543.0,-168.9,-6.6,-5.7,112.2,589.5,-0.6,162.9,434.4,-1910.7,0,894,805306368,123,0, 
0.5000,-391.8,2529.0,61.8,-48.0,454.8,-1597.2,1655.7,-542.1,15264.6,69.0,1790.7,716.1,-1737.6,-9827.4,9830.1,-178.5,-6.9,-5.7,112.2,583.5,-0.6,191.1,3.9,-1971.9,0,900,805306368,124,0, 
0.5033,-388.2,2552.4,93.6,-12.0,491.1,-1632.6,1664.1,-548.7,-14004.9,98.7,1826.1,756.0,-1708.8,-9827.4,354.6,-180.0,-7.2,-6.3,156.0,624.3,-0.6,216.6,-524.4,-2052.0,0,906,805306368,125,0, 
0.5067,-387.9,2551.8,84.9,-21.6,483.6,-1631.7,1666.5,-543.0,-19636.5,87.3,1819.2,741.9,-1698.9,-9827.4,-9830.1,-176.7,-7.5,-6.0,146.7,612.6,-0.6,210.9,-414.0,-2016.9,0,912,805306368,126,0, 
0.5100,-385.2,2533.2,64.8,-40.8,459.6,-1577.7,1666.8,-528.6,6372.6,66.6,1800.0,719.7,-1692.9,-9827.4,-2215.8,-168.0,-6.9,-6.3,134.4,595.2,-0.6,186.3,177.9,-1928.4,0,918,805306368,127,0, 
0.5133,-389.1,2509.8,50.4,-58.8,438.3,-1559.4,1661.4,-529.5,27787.5,50.1,1783.8,701.7,-1715.1,-9827.4,9563.7,-155.7,-6.6,-5.7,116.4,582.0,-0.9,175.2,468.3,-1888.8,0,924,805306368,128,0, 
0.5167,-385.8,2531.4,67.8,-40.8,468.6,-1588.5,1661.1,-540.9,15264.6,73.8,1802.1,726.9,-1721.7,-9827.4,9830.1,-168.9,-6.6,-6.3,131.4,603.0,-0.9,198.9,47.7,-1966.2,0,930,805306368,129,0, 
0.5200,-384.3,2555.1,90.9,-15.6,493.8,-1627.8,1662.0,-550.8,-14004.9,101.7,1818.6,749.7,-1701.6,-9827.4,388.2,-184.5,-6.9,-5.7,142.2,623.7,-0.9,220.5,-496.8,-2036.1,0,936,805306368,130,0, 
0.5233,-381.3,2558.4,93.3,-11.7,492.6,-1619.1,1668.6,-537.6,-19488.3,98.1,1824.6,753.3,-1679.1,-9827.4,-9830.1,-173.1,-6.9,-5.7,147.0,618.3,-0.6,219.0,-391.2,-2007.6,0,942,805306368,131,0, 
0.5267,-385.2,2523.9,59.4,-47.7,451.8,-1583.4,1666.2,-527.1,6446.7,62.7,1793.1,710.7,-1685.4,-9827.4,-2163.0,-160.5,-6.9,-6.0,114.9,586.8,-0.6,183.0,205.8,-1934.7,0,948,805306368,132,0, 
0.5300,-386.1,2508.0,40.8,-62.7,442.2,-1564.8,1656.0,-528.9,28158.0,41.7,1774.8,697.5,-1711.5,-9827.4,9587.7,-156.6,-6.9,-5.7,99.3,573.6,-0.6,159.0,469.8,-1902.6,0,954,805306368,133,0, 
0.5333,-390.3,2519.1,62.4,-46.8,453.3,-1595.1,1652.7,-542.7,15561.0,62.4,1789.5,716.4,-1730.4,-9827.4,9830.1,-174.9,-6.9,-5.7,111.0,591.0,-0.6,183.3,33.9,-1965.3,0,960,805306368,134,0, 
0.5367,-386.4,2551.5,87.9,-21.0,483.3,-1641.6,1657.2,-549.3,-13560.3,97.8,1818.3,744.9,-1711.5,-9827.4,592.8,-186.9,-7.5,-5.7,140.4,604.8,-1.2,215.1,-503.7,-2040.0,0,966,805306368,135,0, 
0.5400,-386.1,2547.6,88.5,-21.6,480.0,-1623.9,1662.6,-544.5,-19488.3,85.5,1813.2,743.1,-1688.7,-9827.4,-9830.1,-180.9,-7.2,-5.4,133.2,601.2,-0.9,199.5,-404.7,-2016.6,0,972,805306368,136,0, 
0.5433,-395.1,2518.8,53.4,-51.3,442.8,-1583.1,1657.2,-536.4,6446.7,57.0,1777.2,703.8,-1711.5,-9827.4,-2100.3,-165.0,-6.9,-5.4,108.0,572.7,-0.9,172.2,205.2,-1935.0,0,978,805306368,137,0, 
0.5467,-393.3,2493.6,33.6,-67.5,427.5,-1572.3,1645.8,-542.1,27861.6,34.5,1767.9,688.8,-1733.1,-9827.4,9577.5,-164.7,-6.9,-5.7,97.8,566.7,-0.9,148.8,474.6,-1912.8,0,984,805306368,138,0, 
0.5500,-395.7,2511.6,51.0,-51.9,451.2,-1608.9,1644.6,-554.7,15709.2,57.6,1790.1,715.8,-1730.7,-9827.4,9830.1,-179.4,-7.2,-6.0,116.1,580.2,-0.9,179.4,41.7,-1973.7,0,990,805306368,139,0, 
0.5533,-389.4,2547.6,80.7,-23.4,482.1,-1642.8,1649.1,-558.6,-13634.4,84.9,1812.3,747.3,-1705.2,-9827.4,624.0,-189.9,-6.6,-6.0,142.2,611.1,-0.6,210.9,-502.2,-2046.9,0,996,805306368,140,0, 
0.5567,-391.8,2535.3,86.4,-18.6,484.5,-1621.8,1653.9,-547.5,-19117.8,86.4,1811.1,749.7,-1690.8,-9827.4,-9830.1,-181.2,-6.9,-6.0,143.7,618.9,-0.3,217.2,-408.9,-2022.3,0,1002,805306368,141,0, 
0.5600,-387.0,2518.2,55.5,-48.9,446.1,-1590.3,1648.8,-537.9,6520.8,44.4,1773.0,712.5,-1695.9,-9827.4,-1949.7,-168.3,-6.6,-6.3,107.7,575.7,-0.3,170.4,186.3,-1943.1,0,1008,805306368,142,0, 
0.5633,-395.4,2491.5,32.1,-72.3,424.2,-1572.3,1638.9,-548.4,28158.0,36.3,1764.3,693.3,-1731.3,-9827.4,9567.6,-169.2,-7.2,-6.0,97.2,565.5,-0.6,160.2,455.7,-1908.6,0,1014,805306368,143,0, 
0.5667,-389.7,2517.6,53.4,-54.6,451.5,-1607.7,1635.3,-555.6,15412.8,55.8,1786.5,714.0,-1727.1,-9827.4,9830.1,-174.0,-6.6,-6.0,114.6,578.7,-0.9,173.7,10.2,-1978.2,0,1020,805306368,144,0, 
0.5700,-392.1,2541.3,87.6,-19.8,485.1,-1636.5,1645.8,-561.6,-13930.8,92.7,1812.3,750.3,-1698.9,-9827.4,412.8,-189.0,-6.9,-5.1,143.1,613.8,-0.9,211.2,-526.8,-2039.1,0,1026,805306368,145,0, 
0.5733,-385.5,2543.7,83.4,-21.9,475.5,-1633.8,1650.0,-550.5,-19932.9,92.7,1812.9,745.2,-1688.1,-9827.4,-9830.1,-175.2,-6.6,-5.7,148.8,604.5,-0.6,203.1,-402.6,-2020.8,0,1032,805306368,146,0, 
0.5767,-390.6,2517.3,58.5,-47.7,450.3,-1585.8,1647.9,-538.5,6002.1,63.9,1783.5,718.2,-1699.5,-9827.4,-2407.2,-164.1,-6.9,-6.0,123.6,586.2,-0.6,178.2,204.6,-1931.7,0,1038,805306368,147,0, 
0.5800,-388.5,2503.5,40.2,-67.8,434.7,-1579.5,1639.2,-544.8,27565.2,39.6,1765.5,696.6,-1715.7,-9827.4,9508.5,-162.6,-6.9,-5.4,101.4,569.4,-0.6,159.9,471.0,-1910.7,0,1044,805306368,148,0, 
0.5833,-395.4,2510.4,57.3,-51.6,450.0,-1613.7,1636.8,-562.2,15190.5,60.0,1790.7,716.7,-1725.0,-9827.4,9830.1,-180.9,-6.9,-5.4,123.9,588.3,-0.6,187.5,6.9,-1974.3,0,1050,805306368,149,0, 
0.5867,-395.4,2540.1,89.4,-23.1,483.0,-1645.5,1643.7,-564.0,-14153.1,94.5,1819.8,751.8,-1706.1,-9827.4,227.7,-189.6,-6.9,-5.7,144.6,609.0,-0.3,216.0,-526.2,-2041.2,0,1056,805306368,150,0, 
0.5900,-389.1,2545.5,90.0,-20.7,480.6,-1636.2,1653.6,-555.0,-19932.9,85.8,1816.5,747.6,-1687.5,-9827.4,-9830.1,-182.4,-6.6,-5.7,139.5,608.1,-0.6,221.1,-420.9,-2018.7,0,1062,805306368,151,0, 
0.5933,-393.6,2509.8,58.5,-49.5,452.4,-1575.0,1652.7,-541.2,5779.8,54.9,1776.9,713.4,-1693.5,-9827.4,-2532.6,-172.2,-6.9,-6.0,111.9,580.8,-0.9,178.8,188.1,-1940.1,0,1068,805306368,152,0, 
0.5967,-396.3,2506.2,42.0,-67.8,431.1,-1582.5,1636.5,-546.6,27417.0,32.1,1763.4,693.9,-1721.1,-9827.4,9430.8,-169.8,-7.2,-5.1,94.8,571.8,-0.6,157.8,451.5,-1918.8,0,1074,805306368,153,0, 
0.6000,-399.9,2507.7,60.9,-53.4,448.5,-1615.8,1634.7,-566.4,14745.9,59.4,1786.2,713.7,-1720.2,-9827.4,9830.1,-183.6,-7.2,-6.0,109.8,577.8,-0.6,180.0,14.7,-1980.0,0,1080,805306368,154,0, 
0.6033,-399.3,2532.0,87.3,-25.5,480.9,-1648.2,1637.7,-570.9,-14597.7,93.3,1812.0,746.7,-1708.8,-9827.4,-149.7,-200.1,-7.2,-5.7,138.9,606.3,-0.6,208.5,-527.7,-2054.1,0,1086,805306368,155,0, 
0.6067,-394.8,2537.1,86.1,-23.1,476.4,-1630.5,1647.0,-557.7,-20599.8,86.4,1812.6,742.5,-1681.2,-9827.4,-9830.1,-186.9,-6.9,-6.0,142.8,595.8,-0.6,203.4,-403.5,-2021.4,0,1092,805306368,156,0, 
0.6100,-401.7,2507.7,54.9,-54.6,442.2,-1591.2,1644.0,-549.9,5261.1,46.5,1780.2,704.1,-1693.5,-9827.4,-2965.5,-177.0,-7.2,-6.0,113.7,573.3,-0.9,170.7,204.9,-1937.4,0,1098,805306368,157,0, 
0.6133,-402.3,2486.7,34.5,-66.9,431.7,-1577.1,1635.6,-548.7,27046.5,40.5,1767.9,694.2,-1726.8,-9827.4,9324.0,-176.4,-6.9,-6.0,102.3,563.1,-0.9,167.4,454.5,-1908.0,0,1104,805306368,158,0, 
0.6167,-403.8,2511.9,55.2,-55.2,450.6,-1610.1,1629.3,-565.8,14227.2,52.5,1782.6,714.3,-1745.7,-9827.4,9830.1,-191.7,-6.9,-5.7,105.6,576.3,-0.6,180.9,9.9,-1983.9,0,1110,805306368,159,0, 
0.6200,-402.9,2530.8,87.9,-24.3,490.2,-1647.6,1639.8,-567.0,-15116.4,80.1,1812.3,745.8,-1716.3,-9827.4,-573.6,-197.7,-6.9,-6.0,128.1,611.7,-0.6,199.5,-519.0,-2037.6,0,1116,805306368,160,0, 
0.6233,-402.3,2534.1,86.1,-24.3,481.5,-1636.8,1643.4,-557.1,-20822.1,77.7,1811.1,736.8,-1695.9,-9827.4,-9830.1,-194.4,-6.9,-6.0,129.3,603.0,-0.6,197.7,-414.0,-2025.9,0,1122,805306368,161,0, 
0.6267,-399.0,2508.9,61.5,-50.1,455.7,-1591.8,1638.6,-544.2,4964.7,47.1,1780.8,706.2,-1701.6,-9827.4,-3208.2,-180.0,-7.2,-6.0,98.7,576.6,-0.9,174.6,185.7,-1944.9,0,1128,805306368,162,0, 
0.6300,-404.1,2489.1,43.2,-66.0,436.5,-1576.8,1630.5,-547.5,26527.8,32.1,1772.7,698.4,-1724.1,-9827.4,9265.2,-181.5,-6.9,-6.0,96.6,574.2,-0.6,150.6,455.4,-1916.1,0,1134,805306368,163,0, 
0.6333,-407.7,2503.5,59.1,-51.3,456.6,-1612.2,1626.9,-561.6,14301.3,46.2,1783.8,716.7,-1740.6,-9827.4,9830.1,-192.9,-6.9,-6.0,102.9,582.3,-0.9,175.5,-3.9,-1989.6,0,1140,805306368,164,0, 
0.6367,-404.4,2533.2,88.5,-24.3,489.0,-1645.5,1634.1,-564.6,-15264.6,76.8,1811.4,739.8,-1726.5,-9827.4,-727.5,-201.6,-6.9,-5.7,122.7,605.4,-0.9,206.4,-531.0,-2054.1,0,1146,805306368,165,0, 
0.6400,-403.8,2530.2,85.8,-27.3,473.1,-1632.3,1640.4,-558.0,-20970.3,67.2,1800.6,730.2,-1713.6,-9827.4,-9830.1,-200.7,-7.2,-5.7,116.7,590.7,-1.2,198.3,-432.9,-2029.5,0,1152,805306368,166,0, 
0.6433,-402.0,2506.2,57.6,-54.6,447.9,-1595.1,1638.3,-547.8,4816.5,31.5,1778.4,706.2,-1707.9,-9827.4,-3376.5,-185.4,-6.9,-5.7,96.0,574.8,-0.6,171.3,179.7,-1945.5,0,1158,805306368,167,0, 
0.6467,-407.1,2475.6,30.3,-74.1,430.2,-1579.2,1632.9,-553.2,26379.6,28.2,1761.6,690.6,-1721.4,-9827.4,9184.5,-180.6,-6.6,-5.7,80.4,559.5,-0.6,151.5,454.8,-1910.1,0,1164,805306368,168,0, 
0.6500,-404.7,2501.7,54.0,-53.1,453.6,-1611.6,1629.6,-565.8,13708.5,50.1,1784.1,713.7,-1734.3,-9827.4,9830.1,-191.7,-6.9,-6.0,98.1,576.3,-0.9,184.5,19.2,-1977.9,0,1170,805306368,169,0, 
0.6533,-401.7,2529.0,90.0,-19.5,491.1,-1644.0,1635.6,-565.2,-15709.2,90.6,1820.4,750.6,-1713.0,-9827.4,-1109.7,-200.1,-7.2,-6.3,132.0,606.6,-0.9,215.7,-532.8,-2050.8,0,1176,805306368,170,0, 
0.6567,-396.3,2534.7,89.7,-17.4,490.5,-1608.9,1645.5,-549.3,-21711.3,77.1,1815.0,746.1,-1692.0,-9827.4,-9830.1,-193.8,-6.9,-6.0,130.5,591.9,-0.6,213.6,-411.6,-2019.9,0,1182,805306368,171,0, 
0.6600,-401.7,2501.1,62.1,-45.6,454.2,-1593.3,1641.9,-549.0,4149.6,53.1,1785.3,715.8,-1703.7,-9827.4,-3857.4,-182.4,-6.9,-5.7,104.1,578.4,-0.3,180.0,217.5,-1936.8,0,1188,805306368,172,0, 
0.6633,-404.1,2491.5,45.6,-59.4,444.0,-1567.8,1629.3,-544.5,25860.9,39.9,1778.1,704.7,-1740.9,-9827.4,9052.2,-185.4,-6.9,-5.7,94.8,576.0,-0.9,149.7,456.3,-1910.4,0,1194,805306368,173,0, 
0.6667,-405.0,2497.5,60.9,-46.8,456.0,-1617.6,1629.3,-564.0,13486.2,64.5,1800.6,724.8,-1741.8,-9827.4,9830.1,-194.4,-6.9,-6.0,117.9,585.3,-0.3,178.2,4.2,-1976.4,0,1200,805306368,174,0, 
0.6700,-398.7,2536.8,97.5,-20.7,484.5,-1647.9,1631.4,-567.0,-15931.5,99.9,1817.1,750.6,-1714.5,-9827.4,-1397.1,-204.3,-7.2,-6.0,133.5,602.4,-0.3,197.7,-536.7,-2052.0,0,1206,805306368,175,0, 
0.6733,-397.5,2530.8,88.8,-26.1,482.4,-1637.4,1638.6,-561.9,-21711.3,87.6,1808.7,744.0,-1699.5,-9827.4,-9830.1,-193.2,-6.6,-5.7,130.5,600.0,-0.6,193.2,-433.8,-2028.6,0,1212,805306368,176,0, 
0.6767,-399.3,2499.3,61.2,-55.5,445.8,-1592.1,1634.1,-549.6,3853.2,59.1,1779.0,707.1,-1709.4,-9827.4,-4033.2,-179.1,-7.2,-6.0,105.6,566.1,-0.9,159.9,171.0,-1947.0,0,1218,805306368,177,0, 
0.6800,-403.8,2481.3,36.6,-74.4,420.9,-1582.8,1624.2,-555.3,25342.2,40.5,1758.0,684.6,-1729.5,-9827.4,8975.4,-177.3,-6.9,-6.0,83.4,549.0,-0.3,143.1,431.1,-1915.5,0,1224,805306368,178,0, 
0.6833,-406.2,2495.7,52.8,-55.5,447.9,-1612.8,1626.0,-570.3,12967.5,55.2,1774.8,711.3,-1741.2,-9827.4,9830.1,-189.6,-7.2,-5.7,97.5,572.4,-0.6,169.5,0.0,-1981.8,0,1230,805306368,179,0, 
0.6867,-397.8,2534.1,79.5,-29.7,475.8,-1651.5,1631.7,-573.9,-16524.3,83.4,1800.0,739.2,-1730.1,-9827.4,-1732.2,-196.5,-6.9,-6.3,114.9,592.5,-0.6,197.4,-534.3,-2055.0,0,1236,805306368,180,0, 
0.6900,-395.7,2534.7,91.2,-18.3,490.2,-1624.8,1642.5,-555.3,-22304.1,76.2,1811.7,744.3,-1710.9,-9827.4,-9830.1,-188.1,-7.2,-5.7,125.7,599.1,-0.9,201.0,-407.4,-2019.3,0,1242,805306368,181,0, 
0.6933,-401.4,2497.2,56.7,-48.0,452.4,-1580.7,1640.1,-548.1,3482.7,46.2,1788.0,713.4,-1708.5,-9827.4,-4341.9,-174.3,-6.9,-6.0,100.8,580.2,-0.9,180.6,190.2,-1929.9,0,1248,805306368,182,0, 
0.6967,-401.4,2488.8,47.4,-67.2,434.1,-1556.7,1627.8,-547.8,25119.9,31.5,1771.8,697.5,-1727.4,-9827.4,8866.2,-179.7,-7.2,-5.4,85.2,555.6,-0.9,159.3,450.9,-1905.3,0,1254,805306368,183,0, 
0.7000,-404.4,2504.1,64.8,-48.6,456.3,-1607.7,1622.4,-565.8,12671.1,56.7,1788.6,723.6,-1730.4,-9827.4,9830.1,-189.3,-6.6,-6.0,105.0,576.9,-0.6,181.8,6.9,-1974.0,0,1260,805306368,184,0, 
0.7033,-393.6,2540.7,91.8,-20.1,491.4,-1645.8,1629.6,-568.2,-16672.5,88.5,1819.2,757.5,-1720.2,-9827.4,-2048.7,-199.8,-6.9,-5.7,132.6,613.5,-0.6,211.2,-536.7,-2042.7,0,1266,805306368,185,0, 
0.7067,-396.0,2531.1,94.8,-19.5,483.9,-1632.0,1637.4,-564.9,-22526.4,89.7,1818.0,755.1,-1687.2,-9827.4,-9830.1,-194.4,-6.6,-6.3,139.8,601.8,-0.6,209.7,-432.0,-2023.5,0,1272,805306368,186,0, 
0.7100,-401.1,2504.7,70.2,-46.2,451.8,-1587.6,1636.2,-550.8,3186.3,53.1,1791.3,717.9,-1696.8,-9827.4,-4606.5,-177.6,-6.3,-5.7,114.0,570.6,-0.6,171.9,180.9,-1935.9,0,1278,805306368,187,0, 
0.7133,-402.9,2481.9,52.2,-61.8,438.9,-1567.2,1626.6,-552.0,25045.8,45.3,1779.0,710.1,-1721.1,-9827.4,8747.4,-182.1,-6.9,-5.7,99.0,564.3,-0.6,160.8,445.8,-1903.8,0,1284,805306368,188,0, 
0.7167,-401.7,2505.6,71.7,-42.6,465.9,-1598.1,1624.2,-563.7,12448.8,71.7,1797.9,728.4,-1739.1,-9827.4,9830.1,-188.1,-6.9,-6.0,117.9,576.3,-0.6,178.5,-11.4,-1971.6,0,1290,805306368,189,0, 
0.7200,-398.4,2532.3,97.5,-20.1,481.5,-1656.6,1628.7,-571.5,-17043.0,97.2,1819.8,754.2,-1711.2,-9827.4,-2381.7,-197.4,-6.9,-5.7,144.0,593.4,-1.2,213.6,-540.9,-2041.5,0,1296,805306368,190,0, 
0.7233,-392.7,2537.7,102.9,-16.5,486.6,-1635.3,1636.5,-559.2,-22971.0,93.6,1823.4,759.6,-1677.0,-9827.4,-9830.1,-190.5,-6.6,-6.0,142.2,603.0,-0.6,206.1,-441.0,-2027.7,0,1302,805306368,191,0, 
0.7267,-400.5,2499.9,60.6,-45.0,450.9,-1589.7,1632.3,-551.4,2889.9,53.7,1798.5,726.9,-1691.1,-9827.4,-4887.9,-178.5,-6.9,-5.7,102.3,577.5,-0.3,177.3,167.4,-1937.4,0,1308,805306368,192,0, 
0.7300,-400.5,2483.4,45.3,-65.4,428.7,-1579.8,1621.2,-555.0,24453.0,39.0,1776.3,698.7,-1719.3,-9827.4,8605.8,-174.6,-6.9,-5.7,91.8,555.6,-0.6,158.7,431.1,-1912.8,0,1314,805306368,193,0, 
0.7333,-401.4,2497.2,56.7,-52.5,447.6,-1617.3,1611.0,-572.4,11707.8,55.2,1788.0,718.8,-1719.0,-9827.4,9830.1,-191.7,-6.9,-5.7,109.2,576.0,-0.3,181.2,-16.5,-1978.2,0,1320,805306368,194,0, 
0.7367,-396.3,2532.9,93.3,-17.7,489.9,-1644.6,1620.0,-576.9,-17709.9,95.7,1823.1,756.3,-1695.0,-9827.4,-2863.2,-206.4,-6.3,-6.0,131.7,599.1,-1.2,208.5,-563.7,-2045.1,0,1326,805306368,195,0, 
0.7400,-397.8,2525.7,88.5,-20.1,484.5,-1633.5,1626.6,-568.8,-23712.0,80.4,1816.8,748.2,-1671.9,-9827.4,-9830.1,-198.0,-6.9,-6.0,122.1,594.9,-0.9,202.8,-447.9,-2029.2,0,1332,805306368,196,0, 
0.7433,-395.7,2503.2,59.7,-51.0,447.9,-1582.8,1631.7,-556.8,1926.6,50.4,1788.9,714.6,-1699.2,-9827.4,-5490.3,-176.1,-6.6,-6.0,94.5,580.8,-0.6,166.8,176.4,-1936.8,0,1338,805306368,197,0, 
0.7467,-399.0,2475.9,40.2,-69.6,429.3,-1572.6,1622.4,-558.6,23415.6,38.1,1779.0,696.3,-1725.0,-9827.4,8316.6,-166.5,-7.2,-6.0,80.1,550.8,-0.9,162.3,440.4,-1908.3,0,1344,805306368,198,0, 
0.7500,-399.0,2498.4,58.5,-52.8,450.6,-1613.7,1618.8,-571.2,10892.7,48.9,1795.8,724.8,-1734.3,-9827.4,9795.6,-181.8,-6.9,-6.0,90.9,573.9,-0.3,179.1,-2.1,-1979.7,0,1350,805306368,199,0, 
0.7533,-396.9,2532.0,91.5,-22.2,486.6,-1637.4,1627.5,-569.7,-18302.7,81.0,1815.0,752.4,-1729.2,-9827.4,-3502.5,-193.5,-6.9,-5.7,113.1,598.8,-0.9,205.5,-543.9,-2046.6,0,1356,805306368,200,0, 
0.7567,-395.4,2520.3,83.4,-24.9,479.4,-1622.7,1631.1,-562.8,-24304.8,82.2,1812.0,742.2,-1702.5,-9827.4,-9830.1,-185.1,-6.9,-5.7,108.9,593.1,-0.3,204.3,-447.6,-2029.5,0,1362,805306368,201,0, 
0.7600,-400.2,2485.2,50.4,-59.1,440.1,-1590.0,1626.3,-552.3,1333.8,44.1,1783.5,708.6,-1712.4,-9827.4,-5851.5,-168.3,-7.2,-5.7,87.9,562.5,-0.6,159.9,153.6,-1941.3,0,1368,805306368,202,0, 
0.7633,-401.4,2470.5,37.5,-70.8,430.2,-1571.4,1622.1,-550.2,23119.2,28.8,1773.0,701.4,-1731.6,-9827.4,8135.4,-164.1,-6.9,-5.7,75.9,553.5,-0.3,152.1,431.1,-1914.9,0,1374,805306368,203,0, 
0.7667,-402.9,2489.7,51.3,-57.0,449.1,-1610.1,1621.2,-568.5,10596.3,50.7,1790.4,720.6,-1732.5,-9827.4,9704.1,-181.5,-6.9,-5.7,87.0,567.3,-0.9,183.3,-10.5,-1971.3,0,1380,805306368,204,0, 
0.7700,-402.3,2514.6,81.0,-29.7,481.2,-1653.3,1623.3,-574.8,-18895.5,87.0,1815.0,748.8,-1710.3,-9827.4,-3924.0,-188.4,-6.3,-6.0,113.7,594.3,-0.6,213.9,-548.1,-2052.6,0,1386,805306368,205,0, 
0.7733,-399.3,2522.4,82.5,-30.0,477.3,-1624.5,1629.9,-564.6,-24897.6,84.9,1813.8,743.1,-1694.1,-9827.4,-9830.1,-181.5,-6.9,-5.7,116.4,585.0,-0.6,209.4,-459.9,-2025.3,0,1392,805306368,206,0, 
0.7767,-400.2,2498.4,61.8,-46.5,455.1,-1587.3,1632.9,-549.0,815.1,64.8,1793.7,719.4,-1693.8,-9827.4,-6266.1,-171.6,-6.9,-5.7,104.7,571.8,-0.6,189.0,128.4,-1937.4,0,1398,805306368,207,0, 
0.7800,-402.9,2482.8,48.0,-58.8,441.6,-1571.4,1623.0,-554.4,22081.8,45.0,1776.9,709.8,-1724.1,-9827.4,7901.4,-167.4,-6.6,-5.7,92.4,567.9,-0.6,173.7,403.5,-1907.1,0,1404,805306368,208,0, 
0.7833,-399.9,2507.1,72.9,-40.2,464.7,-1597.5,1628.4,-561.3,9336.6,74.1,1798.5,729.6,-1720.2,-9827.4,9449.4,-182.1,-6.6,-5.7,115.8,578.4,-0.9,200.7,-31.8,-1972.8,0,1410,805306368,209,0, 
0.7867,-390.3,2535.9,105.6,-11.1,493.8,-1647.3,1626.6,-570.0,-20155.2,103.8,1830.9,761.7,-1701.9,-9827.4,-4801.8,-186.9,-6.9,-6.0,136.8,609.3,-0.3,220.5,-567.9,-2044.5,0,1416,805306368,210,0, 
0.7900,-394.8,2527.5,96.3,-13.5,490.8,-1629.0,1630.2,-560.7,-26231.4,98.7,1820.7,756.0,-1684.8,-9827.4,-9830.1,-181.8,-7.2,-5.4,122.4,594.6,-0.9,213.9,-472.2,-2027.4,0,1422,805306368,211,0, 
0.7933,-399.3,2499.3,64.8,-42.9,453.3,-1587.3,1624.8,-549.9,-741.0,53.4,1788.0,720.9,-1709.1,-9827.4,-7274.7,-169.5,-6.6,-5.7,101.1,570.6,-0.9,173.7,127.5,-1946.7,0,1428,805306368,212,0, 
0.7967,-402.3,2477.4,50.1,-55.2,442.8,-1568.1,1620.0,-550.2,20377.5,44.7,1777.5,711.3,-1729.5,-9827.4,7172.7,-170.7,-6.6,-5.4,95.4,562.8,-0.9,161.4,399.3,-1916.1,0,1434,805306368,213,0, 
0.8000,-396.0,2500.8,64.5,-42.3,462.9,-1607.7,1615.8,-563.1,7706.4,64.5,1797.0,731.4,-1743.3,-9827.4,8837.4,-179.4,-6.6,-6.0,104.1,573.6,-0.3,188.1,-48.6,-1982.4,0,1440,805306368,214,0, 
0.8033,-395.4,2528.4,98.4,-12.6,493.2,-1642.2,1627.8,-567.3,-22230.0,95.4,1826.1,767.4,-1716.9,-9827.4,-6159.0,-184.8,-6.3,-5.7,128.7,600.9,-0.9,215.4,-579.6,-2057.4,0,1446,805306368,215,0, 
0.8067,-397.8,2523.3,93.9,-14.7,482.1,-1622.7,1632.0,-561.9,-28454.4,89.4,1818.3,750.0,-1700.7,-9827.4,-9830.1,-177.9,-6.9,-5.7,122.1,588.3,-0.9,216.0,-473.7,-2020.8,0,1452,805306368,216,0, 
0.8100,-401.1,2493.6,63.0,-40.5,455.7,-1581.0,1628.7,-552.0,-3408.6,61.8,1796.7,719.1,-1709.4,-9827.4,-8567.4,-166.8,-6.9,-6.3,106.2,573.9,-0.6,186.0,127.2,-1945.2,0,1458,805306368,217,0, 
0.8133,-405.3,2478.0,43.2,-62.1,436.5,-1578.9,1625.7,-558.3,17784.0,41.7,1775.1,705.3,-1747.5,-9827.4,5537.1,-163.2,-6.6,-5.4,83.4,555.3,-0.9,168.3,397.5,-1906.8,0,1464,805306368,218,0, 
0.8167,-406.8,2486.7,61.2,-48.0,455.4,-1609.2,1620.6,-571.8,4742.4,64.2,1790.1,726.6,-1749.9,-9827.4,7026.3,-179.4,-6.6,-6.0,101.1,567.6,-0.6,186.9,-50.7,-1987.5,0,1470,805306368,219,0, 
0.8200,-401.4,2511.9,90.0,-20.4,482.4,-1642.5,1628.1,-575.1,-24749.4,84.0,1811.4,745.2,-1726.2,-9827.4,-7803.0,-188.1,-6.9,-5.7,120.3,572.1,-0.6,208.5,-602.7,-2058.0,0,1476,805306368,220,0, 
0.8233,-396.3,2520.9,90.9,-22.5,481.2,-1650.6,1628.7,-566.7,-30973.8,92.4,1806.3,744.9,-1704.6,-9827.4,-9826.2,-183.0,-6.9,-5.4,116.4,579.9,-0.3,204.9,-527.7,-2039.7,0,1482,805306368,221,0, 
0.8267,-407.7,2486.1,64.5,-45.3,455.4,-1593.0,1628.4,-552.0,-5779.8,54.9,1785.0,715.5,-1701.6,-9827.4,-9493.8,-170.4,-6.6,-5.7,99.3,565.5,-0.6,173.4,87.9,-1950.0,0,1488,805306368,222,0, 
0.8300,-406.2,2472.0,43.8,-63.9,431.7,-1584.0,1618.5,-559.5,15635.1,43.5,1769.4,698.7,-1719.0,-9827.4,3402.6,-172.5,-6.6,-6.0,87.0,549.9,-0.6,156.0,350.7,-1920.0,0,1494,805306368,223,0, 
0.8333,-408.3,2485.8,62.4,-46.5,462.6,-1614.3,1618.8,-572.4,2593.5,62.1,1786.5,723.0,-1733.1,-9827.4,5005.8,-182.1,-6.6,-6.0,97.8,560.4,-0.9,177.9,-84.6,-1987.5,0,1500,805306368,224,0, 
0.8367,-399.3,2521.2,90.6,-16.5,489.6,-1657.5,1624.8,-579.0,-26898.3,99.3,1812.3,756.6,-1702.2,-9827.4,-8770.5,-193.2,-6.9,-6.0,122.4,594.6,-0.6,214.2,-627.0,-2057.4,0,1506,805306368,225,0, 
0.8400,-403.2,2518.8,96.3,-20.1,483.6,-1638.6,1636.5,-563.4,-33048.6,84.9,1812.9,745.8,-1678.8,-9827.4,-9569.4,-182.1,-6.9,-5.7,122.7,579.0,-0.9,211.8,-512.7,-2027.1,0,1512,805306368,226,0, 
0.8433,-399.3,2491.8,66.6,-45.9,453.6,-1589.7,1635.9,-553.2,-7780.5,57.3,1784.4,710.7,-1682.1,-9827.4,-9830.1,-163.5,-6.6,-6.0,97.5,558.6,-0.6,187.8,82.5,-1940.1,0,1518,805306368,227,0, 
0.8467,-405.0,2474.1,50.7,-65.4,437.4,-1576.8,1626.9,-554.7,13263.9,39.0,1771.8,695.4,-1704.9,-9827.4,1395.0,-167.4,-6.6,-6.0,83.4,547.8,-0.6,174.0,372.9,-1914.3,0,1524,805306368,228,0, 
0.8500,-405.3,2489.7,67.2,-46.2,458.7,-1613.7,1617.6,-568.8,518.7,60.6,1788.6,717.3,-1709.4,-9827.4,2957.4,-181.5,-6.9,-5.7,99.3,563.7,-0.6,184.2,-76.5,-1986.3,0,1530,805306368,229,0, 
0.8533,-396.6,2519.4,89.7,-21.9,486.9,-1642.8,1628.7,-573.9,-29047.2,97.5,1809.9,745.8,-1693.5,-9827.4,-9515.4,-186.6,-6.6,-6.0,114.9,576.9,-0.6,219.0,-633.6,-2058.9,0,1536,805306368,230,0, 
0.8567,-395.1,2514.6,93.3,-16.8,488.7,-1631.1,1635.3,-564.9,-35197.5,80.4,1806.0,741.6,-1677.0,-9827.4,-9377.7,-181.2,-7.2,-5.7,116.4,584.4,-0.6,216.3,-519.6,-2028.9,0,1542,805306368,231,0, 
0.8600,-396.6,2490.3,67.8,-45.9,452.4,-1597.8,1624.8,-551.7,-9633.0,51.9,1784.7,711.6,-1685.7,-9827.4,-9830.1,-168.9,-6.9,-5.4,99.3,556.8,-0.6,182.1,61.2,-1948.2,0,1548,805306368,232,0, 
0.8633,-399.6,2470.8,47.1,-62.7,437.1,-1575.3,1623.0,-556.2,11633.7,43.8,1766.1,694.5,-1714.8,-9827.4,-160.8,-168.0,-6.6,-6.0,82.5,547.5,-0.6,171.9,333.6,-1917.3,0,1554,805306368,233,0, 
0.8667,-399.0,2484.6,71.4,-41.1,461.1,-1614.3,1616.4,-570.3,-1111.5,71.7,1788.9,724.2,-1723.5,-9827.4,1405.5,-171.6,-6.9,-5.7,100.2,569.4,-1.2,188.7,-101.7,-1986.3,0,1560,805306368,234,0, 
0.8700,-397.2,2517.3,97.8,-14.4,487.8,-1647.9,1620.6,-572.1,-30603.3,93.6,1815.0,752.4,-1701.9,-9827.4,-9830.1,-185.1,-6.6,-5.7,122.4,585.0,-0.6,219.0,-633.3,-2054.7,0,1566,805306368,235,0, 
0.8733,-393.3,2520.9,92.7,-15.9,485.4,-1633.8,1627.8,-563.7,-36679.5,91.8,1807.5,747.9,-1676.7,-9827.4,-9270.6,-177.9,-6.9,-6.0,114.9,581.4,-0.6,212.1,-525.3,-2041.2,0,1572,805306368,236,0, 
0.8767,-394.5,2487.9,65.1,-42.9,454.5,-1576.2,1628.1,-547.2,-11189.1,57.6,1781.1,708.0,-1686.0,-9827.4,-9830.1,-163.5,-6.9,-6.0,87.6,549.0,-0.9,173.4,71.7,-1949.1,0,1578,805306368,237,0, 
0.8800,-400.8,2475.9,52.2,-60.0,438.0,-1583.4,1616.7,-551.1,10374.0,44.4,1770.9,699.3,-1720.2,-9827.4,-1396.5,-165.0,-6.9,-5.7,75.9,545.7,-0.9,164.7,330.3,-1920.3,0,1584,805306368,238,0, 
0.8833,-398.1,2492.1,63.0,-47.4,459.3,-1610.4,1617.6,-569.7,-2445.3,61.5,1783.5,715.5,-1718.4,-9827.4,211.8,-175.2,-6.9,-5.4,85.8,555.9,-0.9,177.0,-93.6,-1995.6,0,1590,805306368,239,0, 
0.8867,-390.6,2508.0,97.2,-17.7,489.3,-1649.1,1626.9,-571.8,-31937.1,107.7,1819.8,750.0,-1696.5,-9827.4,-9830.1,-183.3,-6.3,-6.0,122.1,579.9,-0.9,222.3,-641.1,-2052.9,0,1596,805306368,240,0, 
0.8900,-390.3,2521.5,100.2,-18.0,481.2,-1642.8,1631.7,-561.0,-38235.6,95.4,1814.1,744.3,-1683.0,-9827.4,-9219.6,-175.2,-6.6,-6.0,110.1,582.3,-0.6,209.7,-535.2,-2039.1,0,1602,805306368,241,0, 
0.8933,-392.7,2486.4,63.3,-47.4,453.6,-1595.1,1629.3,-551.4,-12819.3,67.2,1785.0,712.5,-1697.7,-9827.4,-9830.1,-166.2,-6.6,-6.0,89.7,551.7,-0.9,180.9,64.5,-1951.8,0,1608,805306368,242,0, 
0.8967,-392.7,2476.2,58.2,-58.2,443.1,-1572.3,1626.3,-548.4,8447.4,51.9,1776.3,700.5,-1725.9,-9827.4,-2805.3,-163.8,-6.6,-6.0,84.9,552.6,-0.9,170.7,349.8,-1915.2,0,1614,805306368,243,0, 
0.9000,-394.2,2493.3,73.2,-45.6,454.5,-1614.0,1620.3,-565.5,-4149.6,74.4,1791.3,720.9,-1721.4,-9827.4,-1353.6,-175.8,-7.2,-5.7,96.6,558.9,-0.6,186.6,-98.1,-1984.8,0,1620,805306368,244,0, 
0.9033,-390.9,2520.0,106.5,-13.2,487.8,-1647.3,1628.7,-571.8,-33493.2,111.3,1830.0,754.2,-1700.4,-9827.4,-9830.1,-187.5,-6.6,-5.4,120.6,582.3,-0.3,227.4,-633.6,-2054.4,0,1626,805306368,245,0, 
0.9067,-385.2,2526.3,104.4,-17.4,481.8,-1638.9,1638.6,-561.0,-39495.3,92.4,1813.2,749.7,-1683.3,-9827.4,-9195.0,-183.0,-7.2,-6.0,112.2,578.4,-0.9,215.7,-528.3,-2028.9,0,1632,805306368,246,0, 
0.9100,-395.1,2483.4,67.8,-46.8,447.9,-1590.3,1632.3,-551.4,-13930.8,67.8,1779.3,713.7,-1690.2,-9827.4,-9830.1,-169.5,-6.6,-6.0,82.2,546.0,-0.6,174.6,66.3,-1944.9,0,1638,805306368,247,0, 
0.9133,-395.1,2470.8,53.1,-62.4,438.9,-1580.1,1627.5,-549.9,7706.4,47.4,1770.6,694.8,-1705.5,-9827.4,-3691.8,-165.3,-6.9,-6.0,73.8,541.8,-0.3,157.8,339.0,-1916.4,0,1644,805306368,248,0, 
0.9167,-394.2,2485.8,80.1,-43.2,457.8,-1616.1,1628.1,-562.5,-4890.6,78.0,1796.4,718.8,-1710.9,-9827.4,-2118.6,-176.4,-6.3,-5.7,102.9,554.4,-0.9,188.4,-96.9,-1978.5,0,1650,805306368,249,0, 
0.9200,-390.6,2523.6,105.3,-14.1,489.0,-1650.6,1632.6,-565.8,-34011.9,105.0,1817.4,751.5,-1698.3,-9827.4,-9830.1,-190.2,-6.9,-6.0,121.2,576.6,-0.6,223.2,-637.8,-2048.1,0,1656,805306368,250,0, 
0.9233,-390.3,2523.0,108.3,-13.5,486.9,-1636.2,1641.9,-554.7,-39865.8,104.1,1813.2,744.9,-1683.0,-9827.4,-9171.9,-182.4,-6.6,-6.0,117.9,580.5,-0.9,216.6,-531.0,-2027.1,0,1662,805306368,251,0, 
0.9267,-393.9,2487.6,73.5,-42.3,456.9,-1583.7,1638.0,-542.7,-13782.6,68.4,1782.3,714.0,-1686.3,-9827.4,-9830.1,-168.9,-6.9,-5.7,87.9,551.4,-0.6,181.2,69.6,-1942.8,0,1668,805306368,252,0, 
0.9300,-401.1,2466.3,51.6,-63.6,444.3,-1577.7,1626.6,-549.3,8076.9,51.6,1764.6,702.6,-1714.8,-9827.4,-3532.5,-168.0,-6.9,-6.0,75.0,545.4,-0.9,166.5,326.1,-1911.9,0,1674,805306368,253,0, 
0.9333,-398.4,2487.6,78.9,-44.7,461.4,-1622.1,1628.1,-567.0,-4446.0,66.9,1787.7,728.1,-1710.6,-9827.4,-1906.8,-176.4,-6.9,-5.7,91.5,555.9,-0.9,197.7,-93.3,-1977.9,0,1680,805306368,254,0, 
0.9367,-388.5,2523.6,106.2,-16.5,486.6,-1652.1,1634.1,-567.3,-33789.6,102.9,1815.6,759.9,-1690.5,-9827.4,-9830.1,-182.1,-6.6,-6.0,115.5,581.1,-0.9,232.5,-629.1,-2046.6,0,1686,805306368,255,0, 
0.9400,-388.2,2517.9,103.5,-15.3,491.1,-1628.1,1641.9,-555.9,-40088.1,102.0,1813.2,752.1,-1672.8,-9827.4,-9177.6,-179.4,-6.6,-5.7,112.8,577.2,-0.6,221.1,-502.2,-2018.7,0,1692,805306368,0,0, 
0.9433,-396.6,2484.3,69.3,-48.6,450.3,-1595.7,1635.6,-547.8,-14597.7,67.2,1778.1,719.4,-1690.5,-9827.4,-9830.1,-162.6,-6.9,-6.0,80.4,543.9,-0.9,175.5,86.7,-1944.0,0,1698,805306368,1,0, 
0.9467,-398.1,2472.9,57.6,-62.1,438.6,-1576.2,1629.3,-546.6,6817.2,57.6,1771.8,706.5,-1716.9,-9827.4,-4271.4,-162.6,-6.9,-6.0,68.4,536.7,-0.9,172.5,340.8,-1914.3,0,1704,805306368,2,0, 
0.9500,-396.0,2486.7,78.3,-44.7,459.9,-1621.2,1625.7,-559.8,-6076.2,68.7,1786.8,727.5,-1712.1,-9827.4,-3048.3,-172.8,-6.9,-6.0,87.0,558.0,-0.6,180.9,-108.3,-1983.3,0,1710,805306368,3,0, 
0.9533,-393.9,2518.8,108.6,-19.8,486.6,-1648.5,1633.8,-566.7,-35864.4,98.1,1812.9,755.7,-1701.6,-9827.4,-9830.1,-180.3,-6.9,-5.7,110.7,573.9,-0.9,213.9,-648.0,-2053.8,0,1716,805306368,4,0, 
0.9567,-389.7,2520.6,103.8,-11.1,491.1,-1635.6,1639.8,-549.3,-42237.0,100.2,1809.0,768.9,-1681.8,-9827.4,-9244.5,-169.5,-7.2,-5.7,117.9,590.1,-0.9,218.7,-544.5,-2021.7,0,1722,805306368,5,0, 
0.9600,-395.7,2486.7,74.1,-44.4,451.5,-1606.2,1634.7,-544.8,-17117.1,66.3,1780.8,725.1,-1693.8,-9827.4,-9830.1,-156.0,-7.2,-5.7,87.9,556.5,-0.9,186.0,47.7,-1945.2,0,1728,805306368,6,0, 
0.9633,-398.4,2469.3,57.9,-66.3,440.4,-1582.2,1627.8,-541.8,3853.2,38.7,1764.6,706.8,-1725.9,-9827.4,-6090.0,-151.5,-6.9,-6.0,71.7,542.4,-0.6,158.7,333.9,-1913.7,0,1734,805306368,7,0, 
0.9667,-398.1,2482.5,75.6,-46.8,459.9,-1611.9,1628.1,-552.9,-8595.6,77.7,1791.9,738.3,-1729.5,-9827.4,-5172.6,-165.0,-7.2,-5.7,92.1,558.6,-0.9,195.6,-104.4,-1981.2,0,1740,805306368,8,0, 
0.9700,-391.8,2516.7,112.5,-12.6,494.1,-1647.3,1635.3,-553.8,-38013.3,113.1,1823.4,770.4,-1697.1,-9827.4,-9830.1,-173.7,-6.9,-6.0,123.3,585.9,-0.9,231.0,-633.3,-2039.4,0,1746,805306368,9,0, 
0.9733,-390.0,2514.6,106.2,-12.6,491.7,-1636.5,1643.7,-543.9,-44163.6,98.1,1815.3,764.4,-1684.2,-9827.4,-9323.7,-164.7,-6.9,-6.0,113.7,586.2,-0.6,227.7,-542.1,-2021.1,0,1752,805306368,10,0, 
0.9767,-393.0,2486.7,70.5,-47.7,450.9,-1595.4,1637.7,-534.3,-18376.8,61.8,1773.3,722.7,-1695.3,-9827.4,-9830.1,-160.8,-6.9,-5.7,79.8,549.3,-0.9,182.4,61.8,-1937.1,0,1758,805306368,11,0, 
0.9800,-398.1,2463.6,56.7,-63.6,441.6,-1577.7,1632.6,-536.7,3038.1,39.6,1759.2,712.5,-1731.6,-9827.4,-6866.4,-158.1,-6.3,-6.0,59.7,549.3,-0.9,165.9,329.7,-1902.6,0,1764,805306368,12,0, 
0.9833,-400.5,2477.4,63.0,-53.1,455.7,-1614.0,1628.4,-551.1,-8892.0,68.1,1781.7,732.9,-1725.6,-9827.4,-5790.0,-171.9,-6.6,-5.7,80.1,546.9,-0.9,195.6,-106.5,-1977.3,0,1770,805306368,13,0, 
0.9867,-398.4,2504.4,94.5,-21.3,494.1,-1637.1,1638.0,-554.7,-37939.2,93.3,1803.6,755.7,-1704.0,-9827.4,-9830.1,-188.1,-6.6,-5.4,95.1,575.4,-0.9,211.8,-649.2,-2046.6,0,1776,805306368,14,0, 
0.9900,-396.9,2505.3,95.1,-27.0,471.6,-1644.9,1641.0,-546.9,-43719.0,94.8,1803.9,751.2,-1683.3,-9827.4,-9327.6,-182.4,-7.5,-5.7,92.1,562.5,-0.6,217.5,-534.0,-2022.6,0,1782,805306368,15,0, 
0.9933,-397.8,2480.4,69.9,-52.8,448.8,-1598.7,1637.4,-532.8,-17932.2,51.0,1770.0,717.9,-1690.8,-9827.4,-9830.1,-162.3,-6.9,-5.7,64.8,542.7,-0.9,181.2,75.6,-1939.2,0,1788,805306368,16,0, 
0.9967,-403.8,2459.1,46.5,-67.8,429.9,-1578.0,1635.6,-532.2,3630.9,39.3,1764.9,704.4,-1718.7,-9827.4,-6637.8,-159.0,-6.9,-6.3,56.4,527.7,-0.3,168.9,363.9,-1905.6,0,1794,805306368,17,0, 
1.0000,-402.3,2477.1,63.0,-54.0,450.6,-1608.0,1630.8,-545.4,-8299.2,53.1,1775.1,718.8,-1728.0,-9827.4,-5435.7,-168.6,-6.9,-5.7,65.4,543.6,-0.6,184.2,-72.6,-1978.2,0,1800,805306368,18,0, 
1.0033,-397.5,2507.1,96.6,-21.9,483.3,-1651.2,1637.7,-551.4,-37124.1,92.4,1806.3,754.5,-1697.1,-9827.4,-9830.1,-178.5,-7.5,-5.7,103.8,568.5,-1.2,219.3,-606.6,-2047.8,0,1806,805306368,19,0, 
1.0067,-395.4,2503.5,93.6,-23.7,479.1,-1632.6,1645.5,-545.4,-42681.6,86.4,1793.1,745.8,-1674.6,-9827.4,-9287.7,-167.1,-6.9,-5.7,86.4,567.3,-0.3,211.5,-508.2,-2019.9,0,1812,805306368,20,0, 
1.0100,-399.3,2484.6,54.3,-60.3,438.6,-1587.0,1636.5,-531.3,-16746.6,42.6,1737.3,698.1,-1700.7,-9827.4,-9830.1,-156.9,-7.2,-6.3,33.0,528.3,-0.9,176.4,98.1,-1939.8,0,1818,805306368,21,0, 
1.0133,-403.8,2451.6,45.0,-72.9,427.5,-1581.0,1629.0,-537.6,5261.1,41.1,1740.3,694.2,-1705.5,-9827.4,-5826.9,-153.3,-6.6,-6.0,40.5,525.6,-1.2,162.3,377.1,-1911.0,0,1824,805306368,22,0, 
1.0167,-401.1,2480.7,81.0,-40.5,456.0,-1604.4,1626.9,-546.3,-6817.2,76.5,1797.0,741.9,-1704.6,-9827.4,-4266.9,-166.8,-6.9,-5.7,100.8,553.2,-0.3,195.6,-49.8,-1969.8,0,1830,805306368,23,0, 
1.0200,-395.1,2518.5,111.9,-11.1,488.7,-1651.2,1627.8,-550.2,-35197.5,114.6,1826.4,775.5,-1692.0,-9827.4,-9830.1,-179.1,-6.9,-5.7,126.3,580.2,-0.6,223.5,-599.1,-2049.0,0,1836,805306368,24,0, 
1.0233,-396.9,2511.9,105.0,-14.7,483.3,-1631.4,1636.5,-539.4,-40829.1,100.2,1820.1,763.5,-1682.1,-9827.4,-9218.4,-169.2,-6.9,-6.3,118.2,568.8,-1.2,211.5,-485.7,-2019.3,0,1842,805306368,25,0, 
1.0267,-399.6,2485.8,75.3,-44.4,451.2,-1592.7,1632.6,-526.2,-14820.0,62.1,1784.4,729.9,-1690.2,-9827.4,-9830.1,-159.3,-6.6,-6.0,84.0,547.2,-0.6,178.5,117.3,-1942.2,0,1848,805306368,26,0, 
1.0300,-402.9,2464.2,59.7,-65.1,437.1,-1576.8,1622.4,-529.8,7261.8,45.3,1774.8,718.2,-1703.1,-9827.4,-4432.2,-156.9,-6.9,-6.0,71.7,535.2,-0.3,169.5,382.5,-1904.7,0,1854,805306368,27,0, 
1.0333,-399.9,2481.9,77.7,-50.4,448.8,-1612.2,1616.1,-542.7,-4594.2,66.0,1786.8,729.0,-1720.8,-9827.4,-2405.1,-168.0,-6.9,-5.7,84.3,543.0,-0.6,185.4,-45.3,-1972.5,0,1860,805306368,28,0, 
1.0367,-391.8,2511.3,111.3,-12.3,496.2,-1640.1,1633.8,-537.9,-33345.0,108.6,1821.6,770.7,-1706.7,-9827.4,-9830.1,-176.4,-6.6,-5.7,114.0,574.2,-1.2,228.6,-545.4,-2028.3,0,1866,805306368,29,0, 
1.0400,-393.0,2513.4,105.0,-18.3,484.2,-1623.0,1637.4,-529.2,-38532.0,96.6,1809.6,761.1,-1687.8,-9827.4,-9173.4,-171.0,-6.3,-5.7,100.2,570.6,-0.9,209.4,-437.4,-2013.9,0,1872,805306368,30,0, 
1.0433,-390.9,2486.4,84.3,-39.9,459.0,-1578.3,1636.5,-514.8,-12448.8,68.4,1784.4,737.7,-1680.6,-9827.4,-9830.1,-152.7,-7.2,-6.0,79.8,553.8,-0.6,195.9,168.9,-1924.5,0,1878,805306368,31,0, 
1.0467,-396.0,2469.6,63.0,-63.3,437.1,-1551.0,1630.8,-518.4,9633.0,52.5,1765.8,717.3,-1719.9,-9827.4,-2718.3,-155.1,-6.9,-6.3,48.6,525.9,-0.9,158.7,427.2,-1896.3,0,1884,805306368,32,0, 
1.0500,-396.6,2477.4,76.2,-52.2,458.1,-1607.4,1627.2,-535.5,-2297.1,66.3,1788.9,738.9,-1722.3,-9827.4,-358.5,-161.7,-6.9,-5.7,66.3,546.3,-0.9,191.7,7.8,-1958.7,0,1890,805306368,33,0, 
1.0533,-392.7,2513.7,111.6,-20.7,487.8,-1638.6,1629.9,-537.3,-30751.5,105.6,1820.4,767.7,-1699.2,-9827.4,-9830.1,-168.3,-6.9,-6.0,99.0,568.8,-0.9,222.3,-543.6,-2033.4,0,1896,805306368,34,0, 
1.0567,-393.0,2510.7,117.6,-15.9,493.2,-1612.2,1636.5,-525.3,-36234.9,98.7,1818.0,762.9,-1678.5,-9827.4,-9196.5,-164.4,-6.9,-5.7,102.9,569.7,-0.6,218.7,-436.8,-2008.8,0,1902,805306368,35,0, 
1.0600,-393.6,2483.4,75.0,-48.3,456.0,-1584.6,1631.7,-520.5,-10225.8,72.0,1789.8,733.5,-1694.7,-9827.4,-9830.1,-147.0,-6.9,-6.0,71.4,546.3,-0.6,178.2,160.5,-1925.7,0,1908,805306368,36,0, 
1.0633,-394.5,2465.4,62.4,-63.6,433.5,-1571.4,1623.3,-522.9,11707.8,54.6,1777.5,717.0,-1709.1,-9827.4,-903.6,-149.4,-7.2,-6.0,63.6,524.4,-0.3,171.6,429.3,-1896.0,0,1914,805306368,37,0, 
1.0667,-399.0,2482.8,78.9,-51.0,456.6,-1602.6,1618.2,-533.1,-370.5,77.1,1794.6,735.0,-1726.5,-9827.4,1474.8,-159.9,-6.6,-6.0,83.1,543.9,-0.9,186.6,-3.0,-1958.7,0,1920,805306368,38,0, 
1.0700,-397.2,2511.9,102.6,-24.6,483.6,-1635.3,1627.5,-540.3,-29269.5,94.5,1812.9,765.0,-1703.4,-9827.4,-9830.1,-171.9,-6.9,-5.4,102.6,574.2,-0.9,217.5,-535.5,-2028.0,0,1926,805306368,39,0, 
1.0733,-393.9,2505.0,96.0,-27.0,479.4,-1627.2,1629.6,-531.6,-34678.8,90.6,1810.8,762.0,-1685.4,-9827.4,-9289.5,-164.4,-6.9,-6.0,98.1,569.4,-0.9,215.1,-422.7,-2002.8,0,1932,805306368,40,0, 
1.0767,-399.0,2481.9,66.9,-53.1,449.7,-1581.9,1629.3,-518.7,-8817.9,51.9,1780.2,732.3,-1691.7,-9827.4,-9830.1,-150.3,-6.9,-6.0,63.0,548.1,-0.9,183.6,177.3,-1923.9,0,1938,805306368,41,0, 
1.0800,-403.8,2460.9,54.0,-69.6,429.6,-1562.4,1623.3,-523.5,13041.6,37.8,1768.5,711.0,-1714.2,-9827.4,261.6,-149.4,-6.6,-6.0,46.5,524.1,-0.3,161.7,443.7,-1895.7,0,1944,805306368,42,0, 
1.0833,-405.9,2476.2,68.1,-53.7,451.5,-1600.5,1621.2,-536.7,889.2,55.5,1781.4,732.3,-1725.9,-9827.4,2682.0,-165.3,-7.2,-6.3,59.4,543.6,-0.9,187.2,28.2,-1957.5,0,1950,805306368,43,0, 
1.0867,-404.7,2496.6,98.1,-27.3,476.7,-1644.3,1627.2,-546.3,-27787.5,90.9,1803.0,759.0,-1703.1,-9827.4,-9550.2,-173.1,-6.9,-5.7,79.5,554.7,-0.6,217.8,-522.0,-2030.7,0,1956,805306368,44,0, 
1.0900,-402.6,2506.5,94.8,-25.8,479.4,-1626.6,1631.1,-530.7,-33493.2,81.0,1802.4,755.1,-1687.5,-9827.4,-9404.1,-164.7,-7.2,-6.0,77.4,558.0,-1.2,212.1,-417.9,-2004.9,0,1962,805306368,45,0, 
1.0933,-407.4,2467.8,64.2,-54.6,447.3,-1584.6,1626.6,-527.4,-7558.2,49.5,1778.4,720.9,-1693.8,-9827.4,-9830.1,-152.7,-7.2,-6.0,48.9,531.3,-0.9,166.8,174.3,-1931.4,0,1968,805306368,46,0, 
1.0967,-409.5,2451.9,45.9,-74.7,422.4,-1572.3,1624.8,-529.5,14301.3,32.1,1762.2,705.0,-1722.9,-9827.4,1417.8,-148.2,-6.6,-5.7,36.6,513.0,-1.2,157.2,458.7,-1890.9,0,1974,805306368,47,0, 
1.1000,-413.7,2462.7,60.9,-57.9,446.7,-1612.8,1621.5,-544.5,2297.1,52.2,1780.8,727.5,-1727.7,-9827.4,3952.8,-157.8,-6.9,-5.7,51.3,539.7,-0.9,181.2,11.4,-1962.6,0,1980,805306368,48,0, 
1.1033,-405.3,2490.9,92.1,-30.6,477.3,-1631.1,1627.5,-545.7,-26676.0,88.5,1804.5,759.9,-1709.1,-9827.4,-9115.5,-172.2,-6.9,-6.0,69.9,558.6,-0.9,211.8,-488.1,-2022.6,0,1986,805306368,49,0, 
1.1067,-403.5,2505.3,98.4,-30.3,473.7,-1631.7,1632.3,-533.7,-32085.3,76.5,1799.7,754.5,-1692.6,-9827.4,-9537.6,-167.1,-6.3,-6.3,68.1,552.6,-0.6,210.3,-392.7,-2007.6,0,1992,805306368,50,0, 
1.1100,-404.4,2465.7,65.7,-58.8,442.5,-1588.2,1630.2,-529.5,-6076.2,54.9,1776.0,724.8,-1691.1,-9827.4,-9810.6,-151.5,-7.2,-5.7,54.6,538.8,-0.9,184.8,207.9,-1917.0,0,1998,805306368,51,0, 
1.1133,-409.2,2445.9,51.3,-74.1,430.5,-1568.7,1625.1,-533.4,15931.5,36.9,1764.0,711.3,-1704.0,-9827.4,2855.7,-149.7,-6.9,-5.4,38.7,524.4,-0.9,168.9,453.9,-1892.7,0,2004,805306368,52,0, 
1.1167,-404.7,2467.2,76.2,-55.8,455.7,-1602.6,1624.2,-545.7,4223.7,61.2,1787.7,733.8,-1695.3,-9827.4,5574.9,-160.5,-6.9,-5.7,56.1,534.6,-1.2,192.3,22.5,-1951.2,0,2010,805306368,53,0, 
1.1200,-399.9,2501.7,100.8,-27.0,484.2,-1633.5,1629.3,-546.9,-24453.0,95.7,1810.5,763.5,-1677.9,-9827.4,-8338.2,-173.4,-7.2,-5.7,77.7,559.2,-0.6,221.7,-501.9,-2025.9,0,2016,805306368,54,0, 
1.1233,-391.8,2506.5,106.2,-24.6,485.1,-1618.8,1639.8,-534.6,-30232.8,103.8,1809.0,762.9,-1655.7,-9827.4,-9762.0,-159.3,-6.9,-5.4,81.0,555.9,-0.6,220.8,-402.0,-2001.6,0,2022,805306368,55,0, 
1.1267,-395.4,2474.7,77.4,-50.4,452.7,-1575.3,1637.4,-523.5,-4446.0,60.9,1777.8,726.6,-1662.3,-9827.4,-9262.8,-147.0,-6.3,-5.4,52.5,538.2,-0.9,184.8,235.2,-1913.4,0,2028,805306368,56,0, 
1.1300,-402.9,2451.0,50.4,-72.0,430.2,-1566.0,1627.2,-528.0,17709.9,52.8,1766.4,706.5,-1692.0,-9827.4,4439.7,-147.0,-6.9,-5.7,44.7,522.6,-0.9,163.5,485.1,-1885.5,0,2034,805306368,57,0, 
1.1333,-399.3,2475.3,73.8,-51.9,456.6,-1599.3,1624.8,-543.3,5853.9,74.1,1788.6,731.1,-1707.9,-9827.4,7132.2,-159.9,-6.6,-5.7,60.3,530.4,-0.3,191.1,54.0,-1954.2,0,2040,805306368,58,0, 
1.1367,-400.5,2498.4,99.6,-28.2,481.5,-1639.5,1626.3,-552.6,-22674.6,99.0,1798.8,757.8,-1682.4,-9827.4,-7372.8,-171.3,-6.9,-5.4,68.4,560.4,-0.6,209.1,-506.1,-2031.6,0,2046,805306368,59,0, 
1.1400,-400.8,2500.5,96.3,-32.1,466.2,-1632.6,1634.4,-546.6,-28232.1,98.4,1806.0,748.5,-1664.4,-9827.4,-9830.1,-158.1,-6.6,-5.7,78.3,546.0,-0.6,210.9,-384.6,-2005.8,0,2052,805306368,60,0, 
1.1433,-403.2,2469.9,66.0,-54.9,448.2,-1578.9,1635.3,-532.5,-2371.2,54.0,1778.1,720.3,-1678.8,-9827.4,-8436.6,-146.4,-6.6,-5.7,51.0,526.2,-0.9,169.8,215.7,-1919.4,0,2058,805306368,61,0, 
1.1467,-399.9,2457.9,46.5,-76.8,423.9,-1571.1,1623.6,-535.8,19562.4,37.8,1764.6,702.0,-1702.8,-9827.4,6010.8,-144.6,-6.6,-5.7,33.9,513.9,-0.6,157.2,480.9,-1896.9,0,2064,805306368,62,0, 
1.1500,-406.2,2463.9,67.5,-57.0,451.5,-1591.5,1622.7,-546.6,7558.2,67.8,1782.6,730.2,-1706.7,-9827.4,8635.5,-158.7,-6.6,-5.7,47.7,531.3,-0.6,187.8,41.4,-1959.9,0,2070,805306368,63,0, 
1.1533,-405.0,2499.9,99.3,-24.9,481.8,-1626.0,1629.0,-548.7,-21192.6,95.4,1817.7,762.3,-1699.5,-9827.4,-6357.6,-171.9,-6.9,-6.0,73.2,555.9,-0.9,213.6,-487.5,-2028.0,0,2076,805306368,64,0, 
1.1567,-404.1,2495.1,96.0,-27.3,476.7,-1639.5,1629.9,-547.8,-26824.2,90.9,1811.4,756.6,-1677.3,-9827.4,-9830.1,-163.5,-6.9,-5.7,67.5,552.3,-0.3,209.4,-391.2,-2005.5,0,2082,805306368,65,0, 
1.1600,-407.4,2466.0,62.4,-57.6,441.9,-1583.7,1628.7,-539.4,-1111.5,57.9,1773.0,721.8,-1683.0,-9827.4,-7681.2,-148.5,-7.2,-5.7,39.9,523.2,-0.9,174.0,213.6,-1923.0,0,2088,805306368,66,0, 
1.1633,-408.9,2446.2,44.1,-73.5,426.0,-1574.1,1619.1,-542.1,20822.1,36.6,1764.3,705.6,-1708.2,-9827.4,6877.2,-145.8,-6.6,-5.7,26.7,512.7,-0.6,162.9,465.9,-1895.4,0,2094,805306368,67,0, 
1.1667,-408.3,2457.3,61.8,-54.6,447.3,-1603.5,1623.6,-549.0,8595.6,68.4,1784.7,732.9,-1707.0,-9827.4,9120.3,-158.1,-6.9,-6.0,51.0,527.4,-0.9,184.8,51.0,-1953.9,0,2100,805306368,68,0, 
1.1700,-398.7,2496.0,99.6,-17.7,486.6,-1632.3,1630.8,-550.5,-20451.6,94.8,1817.7,771.0,-1695.9,-9827.4,-5539.5,-173.7,-6.9,-5.7,82.8,558.6,-0.9,223.2,-472.5,-2019.9,0,2106,805306368,69,0, 
1.1733,-398.4,2492.4,93.6,-23.4,474.9,-1633.2,1635.6,-544.5,-25786.8,82.8,1806.3,758.4,-1670.7,-9827.4,-9830.1,-168.0,-6.6,-6.0,77.1,546.6,-1.2,205.5,-381.6,-2004.6,0,2112,805306368,70,0, 
1.1767,-403.2,2454.6,60.0,-49.2,442.8,-1584.6,1633.5,-535.8,-74.1,48.3,1774.8,725.4,-1675.8,-9827.4,-7035.3,-152.1,-7.2,-5.7,48.9,516.6,-0.6,176.7,200.1,-1918.8,0,2118,805306368,71,0, 
1.1800,-406.5,2444.4,45.3,-71.1,429.0,-1571.7,1624.5,-536.7,21785.4,41.7,1769.1,710.1,-1698.0,-9827.4,7417.5,-156.6,-7.2,-6.0,44.7,504.6,-0.9,176.7,472.2,-1891.8,0,2124,805306368,72,0, 
1.1833,-405.6,2468.4,65.7,-48.3,455.7,-1602.3,1620.3,-546.3,9633.0,62.4,1794.3,734.1,-1703.1,-9827.4,9428.1,-166.8,-6.9,-5.4,60.0,521.7,-1.2,192.6,37.8,-1947.3,0,2130,805306368,73,0, 
1.1867,-405.6,2488.2,96.3,-26.1,480.3,-1637.1,1626.6,-552.0,-19562.4,88.2,1817.1,763.2,-1681.8,-9827.4,-4790.7,-177.6,-6.6,-6.0,88.5,548.4,-0.6,215.4,-474.3,-2017.5,0,2136,805306368,74,0, 
1.1900,-402.0,2490.0,95.1,-22.5,480.0,-1613.4,1634.7,-538.5,-25045.8,87.9,1808.7,760.2,-1665.3,-9827.4,-9830.1,-172.5,-7.2,-5.7,80.1,553.5,-0.6,195.0,-383.4,-1996.8,0,2142,805306368,75,0, 
1.1933,-400.8,2467.8,62.1,-49.8,441.6,-1590.0,1630.2,-532.2,666.9,51.0,1788.0,724.2,-1678.5,-9827.4,-6560.4,-158.1,-6.9,-5.7,58.2,520.8,-0.6,175.5,214.8,-1916.1,0,2148,805306368,76,0, 
1.1967,-409.2,2437.8,44.7,-65.4,430.2,-1574.1,1623.9,-538.8,22452.3,42.9,1777.2,718.2,-1706.4,-9827.4,7764.0,-152.1,-6.9,-6.0,52.8,510.3,-0.6,167.4,473.7,-1893.9,0,2154,805306368,77,0, 
1.2000,-404.4,2481.0,74.4,-48.0,453.0,-1601.1,1622.1,-543.9,10374.0,62.7,1787.7,735.3,-1728.0,-9827.4,9668.1,-168.6,-6.6,-6.0,55.8,528.6,-0.9,185.4,46.8,-1955.1,0,2160,805306368,78,0, 
1.2033,-402.9,2478.3,85.5,-25.8,484.5,-1627.5,1629.0,-553.2,-18450.9,101.7,1811.7,762.9,-1707.6,-9827.4,-3961.2,-174.0,-6.9,-5.7,81.3,549.6,-0.3,221.1,-481.8,-2022.6,0,2166,805306368,79,0, 
1.2067,-397.5,2490.6,88.2,-29.4,472.5,-1638.9,1632.9,-546.0,-24082.5,89.4,1813.5,758.4,-1684.2,-9827.4,-9830.1,-168.9,-6.3,-5.7,73.2,540.6,-0.6,207.6,-386.4,-2004.0,0,2172,805306368,80,0, 
1.2100,-407.7,2454.0,52.2,-55.8,442.8,-1586.7,1628.7,-535.5,1926.6,50.1,1775.7,722.4,-1695.6,-9827.4,-5734.2,-161.4,-6.9,-5.7,31.2,508.5,-0.9,177.3,204.9,-1920.0,0,2178,805306368,81,0, 
1.2133,-408.3,2442.3,42.0,-70.5,429.3,-1573.5,1619.4,-536.4,23786.1,37.8,1766.4,710.1,-1717.2,-9827.4,8278.5,-157.2,-6.6,-5.7,28.5,505.2,-0.6,161.1,472.8,-1894.2,0,2184,805306368,82,0, 
1.2167,-408.0,2452.2,61.2,-53.1,449.1,-1607.1,1615.5,-552.0,11930.1,61.5,1784.1,729.3,-1725.0,-9827.4,9830.1,-171.9,-6.9,-5.7,53.4,512.4,-0.6,186.9,41.4,-1956.9,0,2190,805306368,83,0, 
1.2200,-408.6,2478.9,84.3,-25.2,478.2,-1643.4,1622.1,-555.3,-16968.9,96.6,1817.4,763.5,-1701.3,-9827.4,-2734.2,-183.6,-6.9,-5.7,80.4,539.7,-0.9,216.9,-477.3,-2024.4,0,2196,805306368,84,0, 
1.2233,-403.8,2485.8,81.3,-30.6,473.1,-1640.7,1623.6,-546.6,-22304.1,82.8,1799.1,750.9,-1683.0,-9827.4,-9830.1,-180.3,-6.9,-5.7,61.5,536.7,-0.9,202.5,-379.5,-2014.5,0,2202,805306368,85,0, 
1.2267,-411.0,2445.9,42.6,-62.4,437.1,-1596.3,1619.1,-540.9,3482.7,48.3,1767.0,717.9,-1695.6,-9827.4,-4652.7,-165.0,-6.6,-6.0,34.2,512.7,-0.6,167.4,216.9,-1929.0,0,2208,805306368,86,0, 
1.2300,-411.3,2431.2,26.1,-85.5,415.5,-1578.9,1611.6,-543.6,25564.5,28.5,1749.3,692.7,-1727.7,-9827.4,8915.1,-163.2,-6.6,-5.7,8.1,482.1,-0.3,141.0,492.6,-1899.0,0,2214,805306368,87,0, 
1.2333,-410.4,2449.2,44.1,-63.3,441.0,-1615.5,1610.4,-558.3,13708.5,65.1,1773.3,726.3,-1733.4,-9827.4,9830.1,-175.5,-6.3,-6.0,32.1,510.6,-0.9,180.9,64.8,-1965.3,0,2220,805306368,88,0, 
1.2367,-408.9,2473.8,76.5,-35.4,473.4,-1641.0,1616.7,-559.2,-14820.0,83.4,1794.6,753.6,-1710.9,-9827.4,-920.4,-189.0,-6.9,-5.7,53.7,540.0,-0.6,206.7,-458.1,-2033.7,0,2226,805306368,89,0, 
1.2400,-408.6,2480.1,69.0,-42.9,457.2,-1644.0,1619.4,-553.8,-20081.1,79.2,1788.3,742.2,-1699.8,-9827.4,-9830.1,-180.3,-6.6,-6.0,51.9,514.2,-0.9,199.8,-363.0,-2018.4,0,2232,805306368,90,0, 
1.2433,-409.5,2443.8,38.1,-71.7,434.7,-1588.5,1618.5,-541.2,5853.9,46.5,1764.3,715.2,-1701.9,-9827.4,-2928.3,-164.7,-6.9,-5.7,32.1,505.2,-1.2,156.6,274.2,-1924.5,0,2238,805306368,91,0, 
1.2467,-411.0,2428.2,28.2,-84.3,421.8,-1572.6,1608.0,-545.7,28528.5,42.0,1754.1,705.0,-1717.8,-9827.4,9666.3,-165.3,-6.6,-5.7,20.7,494.1,-0.9,145.8,524.1,-1894.2,0,2244,805306368,92,0, 
1.2500,-413.1,2451.0,46.5,-69.9,439.5,-1616.1,1602.9,-561.9,17043.0,62.4,1776.0,723.3,-1721.7,-9827.4,9830.1,-177.6,-6.6,-5.7,37.8,513.0,-0.6,177.6,91.2,-1955.4,0,2250,805306368,93,0, 
1.2533,-408.0,2472.6,81.6,-35.1,470.7,-1635.3,1614.3,-563.4,-11189.1,94.2,1797.9,756.3,-1690.2,-9827.4,2116.2,-185.4,-6.6,-5.7,64.2,528.6,-0.6,209.1,-424.5,-2025.9,0,2256,805306368,94,0, 
1.2567,-405.0,2479.2,77.1,-35.1,471.6,-1626.0,1616.4,-553.5,-16227.9,94.2,1796.7,748.2,-1669.2,-9827.4,-9830.1,-179.7,-6.9,-5.7,62.7,535.8,-0.6,200.1,-319.5,-1997.1,0,2262,805306368,95,0, 
1.2600,-411.0,2450.4,45.3,-70.8,430.8,-1596.3,1615.5,-546.3,9114.3,58.2,1767.0,710.4,-1678.8,-9827.4,126.3,-162.3,-6.6,-6.0,26.4,501.0,-0.9,165.9,265.2,-1924.5,0,2268,805306368,96,0, 
1.2633,-415.5,2428.8,32.1,-82.2,420.9,-1576.8,1605.9,-550.5,30381.0,36.6,1758.3,698.7,-1698.6,-9827.4,9830.1,-157.5,-6.9,-5.7,20.1,493.5,-0.6,152.7,523.8,-1898.4,0,2274,805306368,97,0, 
1.2667,-419.4,2439.6,44.1,-69.0,434.1,-1615.2,1601.7,-566.1,17932.2,59.7,1771.8,720.3,-1708.8,-9827.4,9830.1,-168.9,-6.6,-5.7,32.7,501.9,-0.6,182.1,71.4,-1970.1,0,2280,805306368,98,0, 
1.2700,-408.3,2479.5,75.9,-40.5,469.2,-1650.6,1606.2,-569.7,-11263.2,88.2,1803.3,753.3,-1686.9,-9827.4,2598.0,-181.8,-6.9,-6.3,57.6,533.1,-0.9,208.5,-472.8,-2046.3,0,2286,805306368,99,0, 
1.2733,-405.6,2468.4,72.6,-42.6,463.5,-1639.2,1614.9,-563.1,-16968.9,80.7,1793.4,746.7,-1673.4,-9827.4,-9830.1,-177.0,-6.6,-5.7,48.3,516.6,-0.6,210.9,-368.7,-2016.6,0,2292,805306368,100,0, 
1.2767,-407.1,2445.6,46.8,-69.0,434.1,-1597.5,1611.6,-549.0,9040.2,55.8,1768.2,714.6,-1676.4,-9827.4,28.5,-159.9,-7.2,-6.0,32.7,497.7,-0.9,163.8,234.9,-1934.7,0,2298,805306368,101,0, 
1.2800,-412.2,2421.3,15.3,-91.5,412.2,-1583.4,1602.9,-554.1,31047.9,40.8,1753.8,695.7,-1698.9,-9827.4,9830.1,-162.6,-6.9,-5.4,8.7,487.5,-0.3,156.9,504.6,-1905.3,0,2304,805306368,102,0, 
1.2833,-405.6,2446.8,37.8,-67.5,437.1,-1618.2,1600.8,-564.9,19266.0,68.7,1781.4,719.1,-1703.4,-9827.4,9830.1,-173.1,-6.9,-6.0,41.1,502.2,-0.9,177.6,94.8,-1964.1,0,2310,805306368,103,0, 
1.2867,-404.7,2472.6,63.0,-37.8,468.3,-1653.9,1606.8,-573.3,-9262.5,94.5,1812.3,759.3,-1674.6,-9827.4,3943.8,-183.6,-6.6,-6.0,60.0,537.0,-0.9,211.5,-443.1,-2033.7,0,2316,805306368,104,0, 
1.2900,-404.4,2470.5,66.3,-39.6,467.1,-1638.0,1612.8,-563.1,-14671.8,87.6,1798.2,751.2,-1658.4,-9827.4,-8693.1,-179.1,-7.2,-5.7,51.3,530.1,-0.6,204.0,-328.8,-2013.3,0,2322,805306368,105,0, 
1.2933,-409.2,2444.7,28.8,-74.1,425.4,-1602.0,1611.0,-559.8,11559.6,44.7,1765.8,712.2,-1677.0,-9827.4,1928.7,-167.4,-7.2,-6.0,22.5,489.9,-0.6,162.9,259.5,-1937.1,0,2328,805306368,106,0, 
1.2967,-411.6,2417.7,12.3,-92.1,410.1,-1578.0,1608.9,-563.7,33419.1,39.3,1758.6,695.1,-1702.8,-9827.4,9830.1,-161.4,-6.9,-5.7,15.9,482.4,-0.6,155.1,559.8,-1897.8,0,2334,805306368,107,0, 
1.3000,-403.5,2439.6,34.8,-68.4,438.3,-1610.4,1608.9,-571.5,21563.1,60.3,1784.7,723.9,-1711.5,-9827.4,9830.1,-172.5,-6.9,-6.0,36.6,504.9,-0.6,180.6,145.8,-1955.7,0,2340,805306368,108,0, 
1.3033,-402.9,2472.3,68.1,-38.1,463.5,-1656.0,1611.9,-576.0,-7039.5,88.8,1803.0,753.0,-1690.8,-9827.4,5544.6,-185.4,-7.2,-5.7,50.4,525.3,-0.9,218.4,-409.2,-2030.7,0,2346,805306368,109,0, 
1.3067,-404.1,2469.9,69.9,-42.6,462.3,-1640.4,1614.6,-567.9,-12226.5,79.5,1795.8,750.0,-1677.6,-9827.4,-6516.9,-186.0,-6.6,-5.7,41.4,525.9,-0.6,203.7,-310.8,-2016.9,0,2352,805306368,110,0, 
1.3100,-404.4,2440.2,39.3,-67.8,432.0,-1587.9,1615.2,-554.4,14153.1,51.3,1778.4,719.4,-1682.1,-9827.4,3803.7,-168.9,-7.2,-5.7,24.3,500.1,-0.9,169.8,281.1,-1931.1,0,2358,805306368,111,0, 
1.3133,-405.0,2423.4,27.9,-82.5,416.1,-1586.1,1608.3,-556.5,36457.2,37.2,1759.2,703.8,-1702.8,-9827.4,9830.1,-168.0,-6.6,-5.4,11.4,490.2,-0.9,149.7,554.7,-1899.3,0,2364,805306368,112,0, 
1.3167,-404.7,2441.4,41.4,-65.1,436.8,-1620.6,1607.7,-570.0,24749.4,59.1,1775.7,729.9,-1722.9,-9827.4,9814.2,-181.8,-6.9,-6.0,23.1,505.2,-0.9,177.9,132.0,-1963.8,0,2370,805306368,113,0, 
1.3200,-403.5,2467.5,70.2,-36.0,469.8,-1657.5,1614.6,-577.2,-3927.3,85.5,1801.2,756.6,-1702.5,-9827.4,7305.0,-187.2,-6.9,-5.7,46.5,532.8,-0.9,204.9,-426.0,-2032.2,0,2376,805306368,114,0, 
1.3233,-404.1,2465.7,66.0,-39.6,464.7,-1645.8,1614.6,-566.4,-9188.4,74.7,1796.4,749.4,-1689.9,-9827.4,-3562.5,-186.9,-6.9,-6.0,32.7,519.3,-0.9,193.8,-312.3,-2017.8,0,2382,805306368,115,0, 
1.3267,-410.4,2430.9,39.3,-63.9,436.2,-1605.0,1618.2,-559.2,16894.8,45.9,1765.8,717.0,-1695.0,-9827.4,5698.5,-174.9,-7.2,-6.0,8.4,502.2,-0.6,153.6,295.8,-1941.0,0,2388,805306368,116,0, 
1.3300,-411.3,2427.6,27.9,-81.9,415.8,-1580.1,1605.3,-558.9,39124.8,24.0,1755.9,698.4,-1744.2,-9827.4,9830.1,-177.3,-6.6,-5.7,-5.1,487.8,-0.9,151.2,561.0,-1895.1,0,2394,805306368,117,0, 
1.3333,-413.7,2422.8,34.2,-67.5,438.0,-1630.8,1598.7,-579.6,27194.7,53.1,1774.2,727.8,-1734.6,-9827.4,9744.9,-186.9,-6.9,-5.7,8.1,501.9,-0.9,173.7,124.5,-1974.9,0,2400,805306368,118,0, 
1.3367,-410.4,2455.2,72.3,-33.6,471.3,-1653.9,1609.5,-581.1,-1556.1,79.5,1798.5,762.0,-1725.3,-9827.4,8382.0,-197.4,-6.9,-6.0,28.8,541.8,-0.3,198.3,-427.5,-2037.9,0,2406,805306368,119,0, 
1.3400,-409.5,2454.3,54.9,-51.9,448.8,-1656.9,1610.4,-577.5,-6743.1,60.0,1768.5,723.3,-1719.3,-9827.4,-1040.1,-191.7,-6.6,-5.7,-1.2,496.2,-0.3,186.9,-321.6,-2026.2,0,2412,805306368,120,0, 
1.3433,-413.1,2415.9,13.8,-93.9,402.0,-1612.5,1609.5,-567.3,19266.0,15.3,1701.0,663.0,-1727.1,-9827.4,6993.9,-179.1,-6.6,-5.4,-62.7,453.0,-0.6,132.3,285.9,-1947.9,0,2418,805306368,121,0, 
1.3467,-421.8,2391.6,-7.5,-108.0,397.5,-1590.6,1600.2,-573.0,41570.1,7.8,1695.9,660.6,-1747.2,-9827.4,9830.1,-174.6,-6.9,-5.7,-66.9,462.9,-0.9,118.8,567.9,-1911.6,0,2424,805306368,122,0, 
1.3500,-415.5,2429.1,43.5,-66.0,441.6,-1618.2,1600.5,-581.7,29640.0,57.6,1794.9,741.3,-1743.6,-9827.4,9709.5,-183.6,-6.9,-6.0,21.9,520.8,-0.3,173.4,153.3,-1965.3,0,2430,805306368,123,0, 
1.3533,-409.8,2456.7,71.4,-31.8,475.2,-1639.2,1611.9,-581.4,889.2,91.5,1824.0,770.1,-1713.0,-9827.4,9127.5,-189.6,-6.9,-5.7,65.4,546.0,-0.6,210.9,-372.3,-2026.2,0,2436,805306368,124,0, 
1.3567,-411.0,2454.0,60.9,-46.8,449.7,-1653.3,1614.0,-574.5,-4075.5,75.9,1788.3,731.4,-1684.8,-9827.4,1611.0,-187.5,-6.9,-5.7,35.1,512.1,-0.9,195.9,-283.5,-2013.6,0,2442,805306368,125,0, 
1.3600,-408.9,2426.4,24.6,-77.4,421.8,-1598.1,1612.8,-564.3,22230.0,38.7,1747.5,693.6,-1694.7,-9827.4,8191.5,-173.1,-6.6,-5.4,-5.4,484.5,-0.9,162.0,314.7,-1927.8,0,2448,805306368,126,0, 
1.3633,-415.5,2402.7,10.2,-93.9,402.3,-1584.9,1605.6,-569.1,44534.1,31.5,1733.1,677.1,-1701.3,-9827.4,9830.1,-168.0,-6.9,-6.0,-17.4,467.1,-0.6,150.0,597.3,-1901.4,0,2454,805306368,127,0, 
1.3667,-417.6,2421.9,29.7,-77.7,429.9,-1605.0,1603.8,-583.5,33048.6,51.0,1751.4,696.3,-1718.1,-9827.4,9743.7,-186.9,-6.6,-5.7,2.7,489.3,-0.6,174.0,174.0,-1961.1,0,2460,0,128,0, 
1.3700,-409.8,2451.6,61.2,-49.8,456.0,-1664.7,1608.6,-589.5,4742.4,93.0,1783.8,729.6,-1692.9,-9827.4,9742.8,-196.5,-7.2,-6.0,27.6,518.7,-0.9,222.6,-364.2,-2028.3,0,2466,0,129,0, 
1.3733,-409.5,2453.4,59.4,-48.0,459.0,-1626.6,1617.9,-576.6,-370.5,89.1,1773.9,723.6,-1674.6,-9827.4,5415.0,-188.7,-6.6,-5.7,18.3,511.8,-0.9,205.5,-280.5,-2005.8,0,2472,0,130,0, 
1.3767,-413.4,2424.0,31.2,-78.9,424.8,-1589.7,1616.1,-568.5,26527.8,52.2,1746.3,689.4,-1694.4,-9827.1,9396.3,-172.8,-6.9,-5.7,0.3,494.1,-0.9,185.7,326.4,-1918.5,0,2478,0,131,0, 
1.3800,-416.7,2413.2,10.8,-94.8,412.5,-1574.1,1609.5,-568.8,49202.4,40.8,1725.0,675.9,-1707.9,-9827.4,9766.2,-173.7,-6.6,-5.4,-26.7,489.3,-0.6,177.0,626.4,-1873.8,0,2484,0,132,0, 
1.3833,-417.9,2418.9,27.6,-83.4,424.2,-1611.6,1603.2,-582.9,37865.1,61.2,1735.5,685.8,-1735.2,-9827.1,9830.1,-179.1,-6.9,-5.7,-19.8,492.3,-0.9,189.0,190.2,-1954.2,0,2490,0,133,0, 
1.3867,-415.8,2451.0,51.9,-59.4,453.0,-1653.9,1603.8,-593.4,9929.4,91.5,1750.5,708.3,-1720.5,-9827.4,9743.4,-191.7,-6.9,-5.7,11.1,511.5,-0.9,212.1,-360.9,-2022.0,0,2496,268435456,134,0, 
1.3900,-412.8,2451.0,53.4,-61.8,445.2,-1639.8,1610.7,-584.4,5038.8,88.8,1752.0,704.4,-1690.8,-9827.4,9522.0,-187.5,-6.6,-5.7,12.0,500.4,-0.6,202.8,-249.9,-2004.0,0,2502,268435456,135,0, 
1.3933,-417.0,2424.0,28.5,-84.6,423.3,-1587.9,1608.9,-573.0,31788.9,54.0,1733.7,684.0,-1698.9,-9825.6,9779.7,-175.8,-6.9,-5.7,-13.2,482.1,-0.9,171.3,355.5,-1917.0,0,2508,268435456,136,0, 
1.3967,-423.9,2400.6,6.3,-109.5,399.3,-1578.9,1593.6,-578.7,54537.6,42.0,1717.8,663.9,-1714.8,-9827.4,9830.1,-171.0,-6.9,-6.0,-28.5,467.1,-0.6,142.2,654.6,-1881.6,0,2514,268435456,137,0, 
1.4000,-414.6,2425.2,25.8,-89.4,420.0,-1611.0,1591.8,-590.1,43496.7,70.2,1736.1,686.7,-1714.8,-9821.1,9830.1,-180.0,-6.9,-5.4,-16.2,489.9,-0.9,172.5,223.2,-1950.6,0,2520,268435456,138,0, 
1.4033,-411.9,2452.5,57.3,-56.1,455.4,-1642.5,1596.6,-598.5,15264.6,94.5,1767.3,718.8,-1703.1,-9827.4,9812.4,-190.8,-7.2,-5.7,22.2,521.1,-0.9,195.9,-311.1,-2017.2,0,2526,268435456,139,0, 
1.4067,-412.2,2452.8,48.3,-62.1,443.7,-1634.7,1603.2,-588.6,10596.3,96.3,1756.8,714.6,-1701.6,-9818.1,9830.1,-183.0,-6.9,-6.3,16.8,499.2,-0.9,192.0,-209.4,-2005.5,0,2532,268435456,140,0, 
1.4100,-415.2,2412.0,11.4,-94.2,412.8,-1595.4,1593.9,-584.1,37346.4,57.3,1725.9,675.3,-1712.4,-9820.2,9823.8,-166.8,-6.9,-5.7,-3.9,484.8,-0.6,153.9,393.9,-1922.4,0,2538,268435456,141,0, 
1.4133,-414.9,2402.4,0.6,-111.6,389.1,-1580.4,1591.8,-577.8,59872.8,45.9,1714.8,654.9,-1733.4,-9523.8,9830.1,-160.8,-6.9,-6.3,-20.1,452.7,-1.2,153.0,690.9,-1890.9,0,2544,268435456,142,0, 
1.4167,-420.3,2410.2,11.1,-99.0,409.8,-1609.5,1588.2,-599.1,48535.5,48.6,1724.4,675.6,-1744.8,-9698.4,9830.1,-179.1,-6.9,-6.0,-15.6,475.5,-0.9,174.6,259.8,-1954.2,0,2550,268435456,143,0, 
1.4200,-418.2,2443.5,47.4,-65.4,446.4,-1657.8,1596.3,-598.5,20229.3,83.1,1760.4,717.0,-1722.3,-9827.4,9830.1,-188.7,-6.9,-5.7,12.9,504.3,-0.9,208.8,-276.0,-2025.9,0,2556,268435456,144,0, 
1.4233,-414.9,2437.2,48.9,-59.4,445.5,-1623.0,1607.4,-587.7,15635.1,72.3,1760.1,715.8,-1699.5,-9732.9,9830.1,-183.0,-6.9,-5.7,8.4,509.4,-0.6,207.0,-189.0,-2001.6,0,2562,268435456,145,0, 
1.4267,-420.6,2402.1,22.5,-90.0,420.6,-1595.4,1603.8,-574.2,42088.8,41.7,1738.8,680.1,-1710.6,-9275.1,9830.1,-168.9,-6.9,-6.0,-19.5,486.3,-1.2,173.7,458.4,-1907.1,0,2568,268435456,146,0, 
1.4300,-418.2,2400.3,-2.7,-114.3,389.7,-1574.4,1596.9,-579.6,64985.7,25.8,1706.1,654.6,-1740.6,-9075.9,9830.1,-167.7,-6.9,-6.3,-48.6,460.5,-0.9,142.5,737.4,-1884.3,0,2574,268435456,147,0, 
1.4333,-418.8,2415.6,21.6,-91.8,417.3,-1616.4,1591.5,-589.2,54018.9,49.8,1734.0,687.6,-1749.9,-9240.3,9830.1,-188.1,-6.9,-5.7,-21.3,485.1,-0.9,177.9,288.9,-1955.1,0,2580,268435456,148,0, 
1.4367,-420.3,2426.4,48.3,-61.8,449.4,-1645.2,1601.1,-595.8,26157.3,90.0,1768.2,721.5,-1715.1,-9419.1,9830.1,-191.7,-6.9,-6.0,9.6,513.6,-0.6,208.5,-249.9,-2015.1,0,2586,268435456,149,0, 
1.4400,-420.0,2434.5,42.3,-65.4,440.1,-1639.2,1602.6,-588.0,20970.3,70.2,1748.1,707.7,-1694.4,-9260.7,9830.1,-190.5,-6.6,-6.0,-7.8,500.1,-0.6,186.3,-163.8,-2007.6,0,2592,268435456,150,0, 
1.4433,-421.8,2406.0,9.3,-94.5,408.3,-1592.4,1596.9,-579.9,46460.7,43.5,1723.2,676.2,-1707.0,-8850.9,9830.1,-172.5,-6.9,-6.0,-36.6,480.6,-0.6,167.1,425.4,-1920.0,0,2598,268435456,151,0, 
1.4467,-424.8,2391.3,-8.1,-119.1,384.9,-1588.5,1590.3,-585.3,68023.8,18.0,1702.5,649.5,-1735.5,-8636.4,9830.1,-167.1,-6.9,-5.7,-54.3,458.4,-0.6,141.3,720.9,-1891.8,0,2604,268435456,152,0, 
1.4500,-422.1,2403.9,15.3,-98.1,408.3,-1606.5,1596.3,-597.3,55500.9,52.5,1728.6,679.2,-1735.2,-8814.9,9830.1,-182.1,-6.3,-5.7,-32.4,470.4,-0.6,173.7,254.7,-1958.1,0,2610,268435456,153,0, 
1.4533,-417.0,2439.6,48.9,-66.3,448.2,-1646.7,1601.1,-599.1,25638.6,79.8,1756.8,711.9,-1713.3,-9007.2,9830.1,-195.0,-6.9,-6.0,-7.5,495.9,-0.9,206.1,-318.3,-2028.6,0,2616,268435456,154,0, 
1.4567,-416.1,2439.3,48.0,-65.7,444.9,-1647.9,1604.1,-594.3,18895.5,74.7,1752.0,705.6,-1702.2,-8880.6,9830.1,-190.2,-6.6,-5.7,-13.8,505.8,-0.6,199.8,-252.9,-2015.4,0,2622,268435456,155,0, 
1.4600,-417.6,2409.3,17.7,-97.8,405.3,-1600.8,1603.2,-581.7,43496.7,42.9,1721.1,668.1,-1700.1,-8494.2,9830.1,-177.3,-6.9,-5.7,-36.9,460.5,-0.9,166.5,339.6,-1937.4,0,2628,268435456,156,0, 
1.4633,-419.1,2394.6,-1.2,-113.1,396.3,-1586.7,1592.7,-584.1,64096.5,29.1,1707.0,652.5,-1733.7,-8339.7,9830.1,-180.3,-6.9,-5.7,-48.6,465.0,-0.9,143.1,583.2,-1912.2,0,2634,268435456,157,0, 
1.4667,-420.3,2412.6,16.8,-98.4,408.0,-1633.8,1586.7,-597.9,50758.5,51.6,1724.7,675.6,-1732.2,-8541.3,9830.1,-191.7,-6.9,-6.0,-33.3,469.2,-0.6,171.3,129.0,-1977.9,0,2640,268435456,158,0, 
1.4700,-411.3,2451.9,56.4,-58.2,450.0,-1659.3,1599.3,-597.3,20303.4,89.1,1763.7,712.8,-1713.6,-8775.3,9830.1,-197.1,-6.9,-5.7,4.8,512.4,-0.3,216.0,-417.0,-2044.8,0,2646,268435456,159,0, 
1.4733,-412.8,2445.9,59.4,-59.7,448.5,-1648.5,1601.1,-589.5,14004.9,92.7,1759.5,706.5,-1681.5,-8673.0,9830.1,-191.4,-6.6,-5.7,3.0,497.1,-0.6,196.5,-344.4,-2025.9,0,2652,268435456,160,0, 
1.4767,-417.0,2419.5,26.4,-92.4,413.1,-1610.4,1599.6,-579.3,39124.8,50.7,1722.6,672.3,-1692.6,-8343.9,9830.1,-176.7,-6.9,-5.4,-28.5,476.7,-0.3,164.7,263.7,-1952.1,0,2658,268435456,161,0, 
1.4800,-420.3,2393.4,8.1,-110.4,397.2,-1582.8,1595.4,-578.7,60391.5,36.3,1710.0,654.0,-1724.4,-8205.0,9830.1,-171.0,-6.9,-5.7,-42.9,460.8,-0.6,159.6,532.8,-1912.5,0,2664,268435456,162,0, 
1.4833,-415.5,2418.6,33.0,-94.2,416.1,-1629.9,1595.7,-593.1,47053.5,59.4,1728.0,678.3,-1722.6,-8433.6,9830.1,-185.7,-6.9,-6.0,-25.2,477.6,-0.9,170.4,68.4,-1980.6,0,2670,268435456,163,0, 
1.4867,-413.4,2444.4,65.1,-63.0,452.7,-1667.4,1603.8,-603.6,17265.3,85.2,1756.2,716.4,-1698.0,-8695.5,9830.1,-196.5,-6.9,-5.7,-2.4,512.7,-0.6,211.5,-493.8,-2048.7,0,2676,268435456,164,0, 
1.4900,-415.2,2440.2,53.4,-67.5,438.9,-1651.5,1609.8,-597.3,10966.8,79.8,1749.6,697.8,-1693.8,-8601.6,9830.1,-189.3,-6.6,-5.4,-11.1,500.7,-0.9,199.2,-380.1,-2030.1,0,2682,268435456,165,0, 
1.4933,-419.4,2408.7,20.7,-97.8,407.1,-1609.5,1605.3,-582.9,36531.3,48.9,1723.2,667.8,-1699.2,-8259.9,9830.1,-171.6,-6.9,-5.7,-32.1,468.6,-0.6,166.8,246.6,-1945.2,0,2688,268435456,166,0, 
1.4967,-420.6,2395.5,3.9,-114.9,389.4,-1593.9,1597.8,-585.3,58094.4,27.6,1701.3,650.7,-1722.3,-8148.6,9830.1,-171.9,-6.6,-5.4,-50.4,453.3,-0.3,147.9,511.2,-1913.7,0,2694,268435456,167,0, 
1.5000,-416.4,2413.2,28.2,-92.7,416.4,-1642.2,1594.5,-597.9,45349.2,54.9,1731.0,682.5,-1727.7,-8379.3,9830.1,-182.7,-7.2,-6.3,-26.4,478.2,-0.9,177.0,65.7,-1980.0,0,2700,268435456,168,0, 
1.5033,-417.3,2434.8,49.5,-68.4,441.9,-1670.4,1606.5,-605.7,15264.6,83.7,1749.0,705.3,-1696.5,-8632.2,9830.1,-189.0,-6.6,-5.7,-8.7,495.9,-0.6,201.6,-455.4,-2045.1,0,2706,268435456,169,0, 
1.5067,-420.6,2425.8,40.8,-75.9,437.7,-1658.1,1608.9,-594.3,9262.5,74.1,1719.0,683.7,-1687.8,-8571.6,9830.1,-185.4,-7.2,-5.7,-39.6,481.8,-0.9,196.2,-383.7,-2030.4,0,2712,268435456,170,0, 
1.5100,-422.7,2399.1,1.2,-111.0,396.3,-1611.6,1604.4,-585.9,34678.8,39.3,1667.4,631.8,-1697.1,-8247.3,9830.1,-170.7,-6.6,-5.1,-85.5,453.0,-0.3,156.6,221.7,-1947.0,0,2718,268435456,171,0, 
1.5133,-422.7,2385.3,5.1,-117.0,387.3,-1598.7,1598.1,-586.5,56093.7,30.0,1683.0,633.9,-1713.3,-8120.1,9830.1,-167.7,-7.2,-5.7,-61.2,445.8,-0.6,150.0,516.9,-1908.9,0,2724,268435456,172,0, 
1.5167,-428.4,2409.6,26.1,-94.5,411.0,-1640.7,1590.3,-602.4,43422.6,52.5,1745.7,687.6,-1718.1,-8379.9,9830.1,-184.5,-6.9,-5.4,-12.6,474.9,-0.9,180.3,68.1,-1977.9,0,2730,268435456,173,0, 
1.5200,-426.3,2430.6,58.8,-57.6,459.6,-1664.7,1595.7,-607.8,13634.4,87.9,1768.5,726.6,-1706.4,-8650.8,9830.1,-191.4,-6.9,-6.0,9.6,509.4,-0.9,204.3,-486.6,-2045.7,0,2736,268435456,174,0, 
1.5233,-426.3,2420.4,45.0,-69.0,437.1,-1660.2,1600.8,-603.3,7632.3,77.4,1753.5,711.0,-1685.1,-8584.2,9830.1,-182.7,-6.9,-6.0,0.9,491.7,-0.3,196.8,-404.7,-2027.7,0,2742,268435456,175,0, 
1.5267,-424.8,2403.9,26.1,-95.1,407.7,-1624.5,1599.9,-589.8,33196.8,48.3,1726.8,677.7,-1692.0,-8264.7,9830.1,-171.0,-6.9,-6.3,-25.5,473.7,-0.9,168.3,202.2,-1949.4,0,2748,268435456,176,0, 
1.5300,-427.5,2382.3,4.8,-115.2,391.2,-1605.9,1592.7,-594.9,54834.0,25.8,1716.0,667.5,-1722.3,-8154.0,9830.1,-163.8,-6.9,-6.0,-36.0,462.6,-0.6,150.6,483.6,-1918.5,0,2754,268435456,177,0, 
1.5333,-432.0,2398.5,21.9,-100.2,405.6,-1642.2,1589.4,-612.0,42014.7,47.7,1732.5,682.5,-1730.7,-8432.1,9830.1,-188.1,-6.9,-6.0,-26.4,462.6,-0.9,167.1,13.8,-1992.3,0,2760,268435456,178,0, 
1.5367,-428.4,2432.4,50.1,-69.0,438.6,-1689.9,1594.5,-617.7,12522.9,75.6,1761.6,719.1,-1707.9,-8698.8,9830.1,-196.2,-7.5,-6.0,3.6,496.5,-0.6,198.0,-535.2,-2060.7,0,2766,268435456,179,0, 
1.5400,-427.5,2416.5,46.2,-73.8,433.2,-1671.6,1600.8,-610.2,6520.8,77.4,1752.0,709.2,-1689.9,-8632.2,9830.1,-191.4,-6.9,-5.7,5.1,487.2,-0.9,196.5,-426.3,-2038.2,0,2772,268435456,180,0, 
1.5433,-426.3,2400.0,14.4,-108.3,398.1,-1635.3,1594.5,-599.4,31937.1,32.7,1710.9,667.2,-1700.4,-8308.8,9830.1,-180.6,-6.9,-6.0,-33.0,452.7,-0.9,150.3,183.0,-1956.6,0,2778,268435456,181,0, 
1.5467,-430.8,2374.2,-4.8,-123.0,382.8,-1612.2,1587.9,-599.4,53500.2,23.1,1695.3,651.3,-1720.2,-8187.3,9830.1,-175.8,-6.6,-6.3,-40.2,448.2,-1.2,135.0,472.8,-1923.6,0,2784,268435456,182,0, 
1.5500,-426.3,2397.3,18.6,-106.5,402.3,-1654.8,1585.5,-612.3,41051.4,42.3,1715.7,672.0,-1736.1,-8435.4,9830.1,-186.3,-6.9,-6.0,-30.3,465.9,-0.9,165.0,43.5,-1988.4,0,2790,268435456,183,0, 
1.5533,-423.3,2426.1,47.1,-77.1,439.5,-1678.8,1593.6,-612.0,11337.3,81.6,1737.0,702.6,-1712.1,-8714.7,9830.1,-197.4,-6.9,-6.0,-9.6,484.8,-0.6,203.7,-501.0,-2057.1,0,2796,268435456,184,0, 
1.5567,-426.9,2421.0,43.8,-82.5,427.8,-1676.1,1595.1,-605.4,5409.3,72.0,1732.8,699.0,-1704.0,-8652.0,9830.1,-196.2,-7.2,-5.4,-15.3,473.7,-0.6,187.2,-417.6,-2039.4,0,2802,268435456,185,0, 
1.5600,-428.1,2391.9,13.5,-111.0,395.4,-1624.8,1597.5,-597.9,31047.9,39.0,1708.5,658.5,-1713.3,-8331.6,9830.1,-184.2,-6.9,-6.0,-47.1,442.2,-0.3,158.1,184.8,-1953.6,0,2808,268435456,186,0, 
1.5633,-430.2,2371.5,-6.3,-129.0,376.8,-1618.2,1589.1,-601.8,52907.4,18.3,1696.5,648.3,-1731.9,-8207.1,9830.1,-181.2,-6.9,-5.7,-51.3,437.7,-0.6,138.3,483.9,-1921.8,0,2814,268435456,187,0, 
1.5667,-430.2,2391.3,15.0,-111.6,399.6,-1645.5,1588.8,-610.5,40310.4,44.7,1716.6,669.6,-1745.4,-8466.0,9830.1,-190.8,-6.9,-6.0,-38.4,448.5,-0.6,160.5,30.3,-1993.2,0,2820,268435456,188,0, 
1.5700,-425.4,2422.2,40.5,-83.7,424.8,-1685.1,1593.3,-617.7,10670.4,77.4,1738.2,702.0,-1727.1,-8736.3,9830.1,-199.8,-6.9,-5.7,-14.1,472.8,-0.3,199.5,-513.9,-2060.4,0,2826,268435456,189,0, 
1.5733,-428.4,2418.3,50.1,-76.2,440.4,-1662.3,1602.6,-603.9,4742.4,79.5,1746.9,705.0,-1690.2,-8663.7,9830.1,-187.5,-6.9,-5.7,-3.6,486.3,-0.3,196.5,-419.1,-2036.1,0,2832,268435456,190,0, 
1.5767,-425.4,2393.4,17.7,-108.9,398.1,-1629.0,1597.2,-591.9,30455.1,40.2,1713.3,666.6,-1702.8,-8350.5,9830.1,-176.4,-6.9,-6.0,-35.1,455.1,-0.9,153.6,182.4,-1959.9,0,2838,268435456,191,0, 
1.5800,-429.9,2371.2,-2.1,-125.1,378.6,-1612.8,1589.7,-600.3,52240.5,27.9,1702.5,649.2,-1719.3,-8229.0,9830.1,-176.4,-6.9,-5.7,-52.5,436.8,-0.9,145.2,471.6,-1918.5,0,2844,268435456,192,0, 
1.5833,-431.1,2391.9,18.0,-108.9,400.8,-1647.9,1584.0,-613.8,39569.4,46.5,1725.3,676.8,-1720.8,-8492.7,9823.2,-189.9,-6.9,-6.0,-37.2,457.8,-0.6,169.2,21.6,-1995.0,0,2850,268435456,193,0, 
1.5867,-425.7,2422.2,52.8,-78.3,440.7,-1659.9,1593.0,-613.5,9929.4,77.4,1754.4,708.6,-1702.2,-8762.4,9830.1,-195.3,-6.9,-6.0,-3.6,480.9,-0.6,200.1,-516.6,-2057.1,0,2856,268435456,194,0, 
1.5900,-426.0,2412.3,45.9,-82.2,429.3,-1676.1,1599.6,-609.3,4075.5,74.1,1749.6,708.0,-1679.4,-8700.9,9713.4,-187.5,-7.2,-5.7,-5.7,484.2,-0.9,199.5,-416.1,-2033.7,0,2862,268435456,195,0, 
1.5933,-425.1,2400.6,21.9,-105.3,402.9,-1622.1,1599.9,-592.2,29936.4,45.3,1722.6,679.2,-1701.6,-8385.9,9805.5,-173.1,-6.6,-5.7,-24.6,457.5,-0.6,168.3,189.3,-1951.2,0,2868,268435456,196,0, 
1.5967,-427.8,2373.9,3.9,-119.7,386.4,-1611.3,1591.5,-597.0,51499.5,27.9,1715.4,666.6,-1721.4,-8264.1,9830.1,-167.4,-7.2,-5.7,-37.8,447.0,-0.6,153.6,475.8,-1915.5,0,2874,268435456,197,0, 
1.6000,-427.2,2397.6,31.8,-99.3,413.4,-1633.8,1590.9,-603.6,38976.6,55.8,1735.2,693.3,-1710.0,-8529.9,9797.1,-176.7,-6.6,-5.7,-14.1,468.3,-0.3,183.0,36.0,-1977.6,0,2880,268435456,198,0, 
1.6033,-422.1,2423.1,45.3,-77.7,441.0,-1673.4,1597.5,-611.1,9410.7,90.3,1750.2,718.5,-1707.0,-8812.5,9830.1,-189.0,-6.6,-6.0,-0.3,491.7,-0.6,201.3,-534.6,-2054.4,0,2886,268435456,199,0, 
1.6067,-416.1,2430.0,55.2,-68.7,448.2,-1646.7,1605.3,-594.3,3556.8,88.8,1754.1,721.5,-1691.1,-8739.0,9388.2,-186.3,-6.9,-5.7,3.0,503.7,-0.6,200.4,-432.3,-2033.4,0,2892,268435456,200,0, 
1.6100,-423.6,2395.8,22.5,-101.4,405.0,-1623.6,1598.4,-590.1,29121.3,50.7,1727.7,684.6,-1709.1,-8431.5,9779.7,-169.5,-6.9,-5.7,-20.4,460.8,-0.6,167.4,175.2,-1946.4,0,2898,268435456,201,0, 
1.6133,-424.8,2378.4,3.3,-123.6,385.8,-1609.5,1591.8,-592.5,50832.6,33.0,1707.6,669.9,-1728.9,-8315.7,9830.1,-165.3,-7.2,-5.7,-39.0,444.9,-0.6,154.2,467.1,-1918.5,0,2904,268435456,202,0, 
1.6167,-425.7,2388.3,18.3,-107.7,402.9,-1646.4,1588.2,-611.4,38161.5,51.0,1723.2,684.6,-1736.4,-8580.3,9776.1,-178.8,-7.2,-6.0,-30.0,458.7,-0.6,170.4,3.6,-1992.3,0,2910,268435456,203,0, 
1.6200,-424.2,2422.2,50.4,-79.8,436.5,-1681.2,1595.4,-611.4,8743.8,82.2,1745.4,712.8,-1720.2,-8862.3,9830.1,-187.8,-6.9,-6.0,-10.8,487.8,-0.6,198.0,-564.0,-2060.1,0,2916,268435456,204,0, 
1.6233,-418.5,2421.9,56.1,-70.2,439.8,-1671.9,1602.6,-597.6,2741.7,71.4,1752.3,714.9,-1699.2,-8777.7,8949.9,-180.9,-6.9,-5.7,-5.7,483.0,-0.9,195.9,-462.3,-2037.9,0,2922,268435456,205,0, 
1.6267,-419.1,2390.4,23.1,-99.9,406.5,-1619.7,1601.7,-584.7,28528.5,46.8,1718.1,680.4,-1716.9,-8460.9,9732.6,-169.5,-6.6,-6.0,-39.9,460.8,-0.9,155.7,146.4,-1948.8,0,2928,268435456,206,0, 
1.6300,-422.1,2374.5,7.8,-117.3,384.6,-1613.7,1591.5,-586.5,50239.8,31.5,1710.6,666.9,-1731.9,-8352.9,9830.1,-166.2,-6.6,-5.7,-40.8,444.3,-0.3,148.5,442.2,-1920.0,0,2934,268435456,207,0, 
1.6333,-421.5,2394.9,30.3,-100.8,408.6,-1638.0,1592.1,-598.8,37494.6,59.4,1735.5,688.8,-1736.1,-8601.9,9755.7,-182.1,-6.9,-5.7,-28.2,464.1,-0.6,174.6,6.0,-1979.4,0,2940,268435456,208,0, 
1.6367,-420.3,2423.7,57.3,-71.7,438.9,-1670.7,1596.9,-604.5,7928.7,79.2,1761.0,714.9,-1715.1,-8892.0,9830.1,-189.6,-6.9,-6.3,-12.3,481.8,-0.6,188.4,-547.5,-2063.4,0,2946,268435456,209,0, 
1.6400,-417.3,2423.4,56.4,-68.7,440.4,-1664.4,1604.1,-591.9,2000.7,88.5,1760.7,720.6,-1685.7,-8811.0,8403.6,-183.0,-6.6,-5.7,9.0,496.8,-0.6,198.0,-440.1,-2025.6,0,2952,268435456,210,0, 
1.6433,-413.7,2412.9,37.5,-94.5,412.2,-1599.3,1605.6,-570.9,27565.2,45.6,1733.1,689.1,-1703.1,-8504.7,9664.5,-170.1,-6.6,-6.3,-24.9,462.3,-0.6,167.4,189.9,-1940.7,0,2958,268435456,211,0, 
1.6467,-421.8,2371.5,8.7,-120.0,388.5,-1606.5,1594.5,-586.5,49424.7,38.1,1716.3,666.6,-1726.8,-8391.0,9830.1,-168.6,-7.2,-5.4,-31.2,451.5,-0.9,149.1,471.0,-1905.6,0,2964,268435456,212,0, 
1.6500,-421.5,2392.5,28.5,-99.3,414.9,-1633.8,1596.6,-597.0,36827.7,58.2,1731.3,689.7,-1725.3,-8646.3,9745.5,-177.6,-6.9,-6.0,-17.1,469.2,-0.6,174.3,23.4,-1970.1,0,2970,268435456,213,0, 
1.6533,-413.7,2425.5,65.1,-66.6,448.5,-1666.8,1603.5,-597.3,7261.8,89.7,1767.0,732.0,-1711.8,-8920.5,9830.1,-186.3,-6.9,-6.0,15.3,505.5,-0.9,207.6,-521.4,-2048.4,0,2976,268435456,214,0, 
1.6567,-414.9,2427.3,62.7,-70.8,442.8,-1659.0,1605.3,-588.3,1333.8,85.5,1758.9,720.9,-1699.8,-8843.7,7892.4,-177.9,-6.9,-5.7,12.0,495.6,-0.3,198.3,-426.0,-2032.8,0,2982,268435456,215,0, 
1.6600,-414.3,2398.2,32.1,-97.8,408.0,-1614.3,1606.8,-576.9,27268.8,55.2,1736.1,694.8,-1704.0,-8548.5,9594.3,-162.9,-6.9,-5.7,-10.8,460.8,-0.6,190.2,184.8,-1943.1,0,2988,268435456,216,0, 
1.6633,-418.5,2376.6,9.9,-118.2,391.5,-1602.3,1595.1,-576.9,48906.0,37.5,1717.2,675.0,-1730.1,-8438.7,9830.1,-161.4,-6.3,-5.7,-35.4,453.0,-0.6,154.5,465.0,-1916.7,0,2994,268435456,217,0, 
1.6667,-417.9,2396.7,33.0,-101.7,419.4,-1632.6,1589.7,-596.7,36383.1,51.9,1733.4,692.1,-1742.1,-8689.8,9735.3,-175.5,-6.6,-6.0,-17.7,459.3,-0.6,168.3,27.6,-1984.8,0,3000,268435456,218,0, 
1.6700,-412.5,2419.8,58.5,-70.2,448.2,-1672.8,1599.9,-598.5,6743.1,94.5,1768.2,732.3,-1709.1,-8969.4,9830.1,-185.1,-6.6,-6.0,14.4,498.9,-0.6,210.3,-528.9,-2055.0,0,3006,268435456,219,0, 
1.6733,-407.1,2425.5,67.8,-65.1,448.5,-1658.4,1608.6,-585.6,666.9,88.5,1772.1,732.9,-1688.1,-8891.1,7390.8,-171.6,-6.6,-5.7,17.7,502.2,-0.6,212.7,-420.9,-2032.5,0,3012,268435456,220,0, 
1.6767,-410.1,2394.0,30.9,-98.1,411.9,-1615.8,1603.2,-574.8,26750.1,53.7,1740.3,696.3,-1710.6,-8598.6,9521.1,-161.1,-7.2,-5.7,-8.7,463.5,-0.3,163.8,166.5,-1953.6,0,3018,268435456,221,0, 
1.6800,-411.3,2380.5,17.7,-116.4,396.6,-1599.0,1595.7,-573.6,48461.4,42.3,1718.1,684.0,-1728.9,-8470.2,9830.1,-155.4,-7.2,-5.7,-25.2,454.5,-0.9,159.6,460.8,-1917.6,0,3024,268435456,222,0, 
1.6833,-411.3,2394.0,27.3,-101.4,412.2,-1646.4,1587.6,-591.3,35790.3,52.5,1736.4,698.7,-1739.7,-8736.0,9733.8,-169.5,-7.2,-5.7,-17.7,462.0,-0.9,176.4,15.3,-1989.9,0,3030,268435456,223,0, 
1.6867,-408.9,2418.9,62.4,-68.1,446.1,-1673.7,1597.5,-592.8,6150.3,79.8,1767.0,735.9,-1711.5,-9012.6,9830.1,-181.8,-6.6,-5.7,5.7,487.5,-1.2,210.6,-540.0,-2053.8,0,3036,268435456,224,0, 
1.6900,-408.9,2427.9,62.1,-69.3,443.7,-1661.4,1605.9,-579.3,370.5,83.1,1767.6,729.6,-1701.6,-8947.2,6971.7,-171.6,-6.6,-5.4,5.1,488.4,-0.3,204.3,-424.5,-2041.8,0,3042,268435456,225,0, 
1.6933,-411.9,2392.8,28.5,-98.1,412.2,-1617.3,1602.0,-568.2,26157.3,56.1,1731.3,695.7,-1709.4,-8630.7,9422.4,-166.8,-6.9,-6.0,-20.1,463.2,-0.6,175.8,158.4,-1951.8,0,3048,268435456,226,0, 
1.6967,-413.1,2376.3,9.9,-112.2,398.7,-1586.4,1598.1,-566.7,47868.6,32.4,1713.3,681.3,-1731.3,-8517.0,9830.1,-160.8,-6.6,-5.7,-42.9,448.2,-1.2,148.2,461.1,-1916.1,0,3054,268435456,227,0, 
1.7000,-411.0,2394.6,25.5,-99.0,410.1,-1648.2,1596.0,-578.4,34827.0,61.5,1730.4,703.5,-1736.1,-8764.2,9719.1,-168.3,-6.6,-5.7,-34.2,466.5,-0.6,181.8,23.1,-1976.7,0,3060,268435456,228,0, 
1.7033,-409.8,2421.0,56.4,-71.7,443.1,-1675.5,1602.9,-582.9,5557.5,86.7,1755.0,732.0,-1717.8,-9039.3,9830.1,-180.0,-7.2,-5.7,-10.5,488.4,-0.9,210.6,-509.4,-2050.8,0,3066,268435456,229,0, 
1.7067,-406.8,2430.9,70.5,-65.7,443.1,-1661.7,1608.9,-574.2,-222.3,95.1,1785.3,738.9,-1691.7,-8985.9,6357.9,-172.2,-6.6,-5.4,26.4,489.9,-0.9,209.4,-430.2,-2037.3,0,3072,268435456,230,0, 
1.7100,-410.1,2402.1,47.4,-84.0,421.5,-1603.8,1609.2,-558.0,25490.4,64.5,1764.3,712.5,-1699.2,-8675.7,9304.5,-163.2,-6.9,-5.7,7.2,478.8,-0.6,175.8,181.2,-1944.6,0,3078,268435456,231,0, 
1.7133,-409.8,2388.0,21.6,-111.0,393.0,-1596.9,1598.1,-565.8,47349.9,53.7,1739.1,690.0,-1725.0,-8557.2,9830.1,-159.9,-6.6,-6.0,-16.2,441.9,-0.6,164.4,453.3,-1916.7,0,3084,268435456,232,0, 
1.7167,-408.9,2402.1,42.6,-87.0,429.9,-1633.8,1598.7,-575.4,34604.7,76.8,1757.1,717.9,-1737.6,-8811.6,9717.0,-166.2,-6.9,-6.0,-5.4,479.7,-0.6,190.8,11.7,-1977.3,0,3090,268435456,233,0, 
1.7200,-408.6,2424.6,66.0,-65.1,448.8,-1665.6,1608.0,-579.9,5187.0,94.5,1773.3,743.7,-1725.6,-9104.1,9830.1,-180.6,-6.9,-5.7,9.0,495.6,-0.6,211.8,-534.6,-2046.9,0,3096,268435456,234,0, 
1.7233,-407.4,2423.4,66.6,-63.3,450.0,-1649.7,1611.6,-569.4,-815.1,90.3,1766.4,735.6,-1712.1,-9030.9,5906.4,-173.4,-6.9,-5.7,1.5,495.3,-0.9,218.1,-437.1,-2033.1,0,3102,268435456,235,0, 
1.7267,-415.2,2389.2,30.6,-100.2,408.9,-1616.1,1603.5,-561.3,25045.8,58.2,1740.0,699.6,-1720.8,-8722.2,9192.9,-160.5,-6.6,-6.0,-27.0,466.2,-1.2,175.8,165.3,-1950.9,0,3108,268435456,236,0, 
1.7300,-415.5,2379.0,13.5,-113.4,397.2,-1596.9,1599.3,-561.0,46757.1,36.0,1721.7,684.9,-1738.8,-8607.3,9830.1,-155.4,-6.9,-6.3,-37.8,452.7,-0.3,163.2,450.6,-1918.5,0,3114,268435456,237,0, 
1.7333,-416.7,2396.1,37.8,-92.4,425.1,-1631.7,1598.7,-574.8,34160.1,62.1,1744.2,718.8,-1740.6,-8868.9,9714.3,-166.5,-6.9,-5.1,-12.3,481.2,-0.9,192.6,14.1,-1975.5,0,3120,268435456,238,0, 
1.7367,-413.4,2420.1,61.5,-68.7,449.1,-1675.8,1604.4,-582.9,4742.4,99.0,1777.8,745.5,-1717.2,-9144.3,9830.1,-177.6,-6.9,-5.7,21.0,496.2,-0.9,221.7,-555.0,-2053.5,0,3126,268435456,239,0, 
1.7400,-414.0,2420.4,62.7,-64.5,445.5,-1656.9,1610.4,-570.0,-1111.5,92.7,1776.9,740.1,-1698.3,-9078.3,5476.2,-172.8,-6.6,-5.7,15.3,496.8,-0.9,216.6,-439.2,-2029.5,0,3132,268435456,240,0, 
1.7433,-411.3,2396.4,32.4,-91.5,413.4,-1613.7,1613.4,-561.0,24601.2,57.9,1741.2,710.4,-1699.8,-8758.8,9091.5,-153.9,-6.9,-5.7,-15.3,468.6,-0.6,182.7,170.1,-1946.4,0,3138,268435456,241,0, 
1.7467,-416.7,2373.6,20.1,-106.5,403.5,-1587.6,1608.6,-556.8,46090.2,49.2,1722.3,693.6,-1723.5,-8635.5,9830.1,-156.0,-7.2,-6.0,-32.4,468.9,-1.2,169.5,476.4,-1909.8,0,3144,268435456,242,0, 
1.7500,-412.5,2393.4,34.5,-92.4,420.0,-1619.7,1605.0,-567.3,33567.3,67.2,1745.7,718.5,-1731.3,-8898.3,9709.8,-167.1,-6.9,-6.0,-19.2,478.5,-0.6,181.8,18.6,-1983.9,0,3150,268435456,243,0, 
1.7533,-408.9,2421.9,73.2,-58.2,456.6,-1668.6,1613.7,-567.9,3927.3,101.1,1776.0,756.9,-1713.3,-9178.2,9772.5,-174.6,-6.0,-5.4,4.5,510.3,-0.6,225.0,-533.7,-2048.7,0,3156,268435456,244,0, 
1.7567,-405.9,2425.5,66.0,-61.2,453.6,-1643.4,1620.9,-557.4,-2074.8,98.4,1770.6,744.0,-1702.8,-9115.2,4776.3,-168.3,-7.2,-6.0,9.3,506.4,-0.3,214.8,-435.6,-2026.5,0,3162,268435456,245,0, 
1.7600,-414.9,2391.9,39.3,-83.7,429.3,-1601.1,1620.0,-545.1,23934.3,67.5,1741.8,716.4,-1704.9,-8798.1,8890.2,-154.5,-6.9,-6.0,-18.3,493.8,-0.9,192.9,151.8,-1938.3,0,3168,268435456,246,0, 
1.7633,-408.6,2379.3,25.2,-99.6,403.5,-1589.1,1612.2,-552.6,45793.8,51.6,1734.9,697.8,-1726.2,-8694.9,9830.1,-147.3,-6.6,-5.7,-30.0,462.6,-0.6,174.6,446.7,-1913.4,0,3174,268435456,247,0, 
1.7667,-418.2,2388.3,37.2,-89.1,429.9,-1622.1,1606.5,-570.9,32900.4,74.4,1748.4,718.8,-1741.2,-8952.6,9709.8,-161.4,-6.9,-5.7,-15.6,486.3,-0.6,187.5,12.6,-1983.9,0,3180,268435456,248,0, 
1.7700,-411.0,2425.8,69.9,-58.2,452.1,-1658.7,1612.8,-570.3,3408.6,103.2,1778.7,752.7,-1707.0,-9246.0,9692.4,-166.2,-6.6,-6.0,13.5,507.9,-0.9,225.6,-532.5,-2047.5,0,3186,268435456,249,0, 
1.7733,-407.4,2421.0,73.5,-54.9,456.0,-1639.5,1621.5,-558.0,-2741.7,100.2,1773.0,750.9,-1677.9,-9177.9,4106.4,-163.2,-6.6,-6.0,7.5,509.4,-0.3,227.4,-431.1,-2028.6,0,3192,268435456,250,0, 
1.7767,-405.6,2397.6,42.6,-83.7,421.8,-1605.0,1616.4,-548.1,23119.2,66.9,1746.0,720.6,-1693.8,-8865.0,8689.8,-150.9,-6.9,-5.7,-16.5,486.0,-0.9,193.8,167.4,-1942.8,0,3198,268435456,251,0, 
1.7800,-410.1,2375.7,25.5,-102.9,405.6,-1581.3,1614.0,-546.6,44682.3,56.1,1729.8,703.5,-1722.9,-8752.5,9830.1,-146.4,-6.9,-5.4,-30.6,471.9,-0.3,176.7,451.2,-1910.7,0,3204,268435456,252,0, 
1.7833,-410.4,2394.9,48.0,-80.7,432.6,-1611.3,1611.0,-554.4,31788.9,70.8,1757.7,729.6,-1725.9,-9013.8,9719.7,-159.6,-6.6,-5.7,-8.1,495.6,-1.2,198.0,9.3,-1972.5,0,3210,268435456,253,0, 
1.7867,-406.5,2428.5,75.9,-50.7,463.2,-1644.6,1617.9,-558.6,1926.6,107.7,1781.4,759.0,-1702.8,-9287.1,9482.4,-168.0,-6.9,-5.7,15.6,512.7,-0.6,232.8,-540.6,-2047.2,0,3216,268435456,254,0, 
1.7900,-406.5,2422.5,76.5,-51.3,459.9,-1638.9,1624.2,-547.2,-4149.6,103.5,1782.9,755.1,-1689.6,-9221.7,2684.1,-162.3,-7.2,-6.3,18.0,516.9,-0.9,225.3,-433.8,-2021.7,0,3222,268435456,255,0, 
1.7933,-408.9,2393.7,44.1,-82.5,423.0,-1599.6,1621.8,-540.0,21489.0,69.6,1751.1,715.2,-1700.1,-8930.4,8232.9,-145.5,-6.6,-5.7,-14.4,483.0,-1.2,187.8,164.7,-1939.8,0,3228,268435456,0,0, 
1.7967,-409.2,2377.5,29.4,-99.9,408.3,-1586.1,1612.2,-541.2,43126.2,47.4,1728.9,706.8,-1727.7,-8833.2,9830.1,-147.6,-6.9,-6.0,-30.6,479.1,-0.9,168.3,428.1,-1914.0,0,3234,268435456,1,0, 
1.8000,-409.5,2389.2,42.9,-84.6,431.4,-1614.9,1608.6,-552.0,30306.9,79.2,1753.2,726.9,-1720.8,-9095.4,9750.3,-159.3,-6.6,-5.7,-4.2,492.0,-0.9,198.0,-11.4,-1977.6,0,3240,268435456,2,0, 
1.8033,-405.6,2425.5,75.3,-56.1,461.7,-1659.3,1613.1,-554.4,666.9,109.8,1778.4,756.9,-1706.1,-9381.3,9192.6,-166.5,-7.2,-6.0,14.7,506.7,-0.6,229.8,-566.4,-2048.1,0,3246,268435456,3,0, 
1.8067,-405.3,2421.0,75.9,-53.7,463.2,-1643.4,1618.2,-541.2,-5557.5,103.2,1779.0,755.1,-1683.0,-9312.9,1314.0,-159.3,-6.9,-6.0,21.3,504.0,-0.6,213.6,-466.8,-2031.3,0,3252,268435456,4,0, 
1.8100,-404.1,2401.5,44.1,-79.8,426.6,-1594.5,1616.7,-532.8,20081.1,73.5,1745.4,720.3,-1685.4,-9023.1,7687.8,-148.5,-7.2,-6.0,-18.3,471.9,-0.3,197.1,124.2,-1945.5,0,3258,268435456,5,0, 
1.8133,-412.5,2365.2,27.6,-103.5,409.5,-1593.6,1610.1,-542.1,41644.2,50.7,1730.7,706.5,-1715.4,-8919.3,9830.1,-144.3,-6.6,-6.0,-26.1,474.6,-0.6,178.5,425.7,-1908.0,0,3264,268435456,6,0, 
1.8167,-408.3,2399.7,39.3,-87.6,430.2,-1616.1,1611.6,-555.0,28676.7,74.4,1749.9,721.8,-1726.5,-9189.0,9803.4,-158.4,-6.9,-6.0,-10.2,481.5,-0.9,196.5,-16.2,-1977.0,0,3270,268435456,7,0, 
1.8200,-406.8,2415.3,65.1,-63.6,448.8,-1664.1,1614.3,-564.0,-1259.7,96.9,1767.0,747.6,-1725.9,-9471.9,8714.7,-169.8,-6.9,-5.7,13.2,501.9,-0.9,223.8,-543.9,-2047.8,0,3276,268435456,8,0, 
1.8233,-404.1,2420.1,66.3,-60.3,454.8,-1647.9,1620.0,-552.9,-7113.6,90.9,1764.3,746.7,-1697.4,-9411.3,-353.7,-160.5,-6.9,-6.3,9.3,499.2,-0.9,214.8,-454.8,-2026.8,0,3282,268435456,9,0, 
1.8267,-403.2,2393.7,37.8,-86.1,421.2,-1604.7,1622.4,-539.1,18376.8,60.3,1746.6,719.1,-1698.0,-9104.7,6993.9,-138.0,-6.9,-6.0,-8.7,475.8,-0.6,190.2,145.8,-1936.8,0,3288,268435456,10,0, 
1.8300,-406.8,2379.6,21.9,-104.1,413.1,-1583.7,1613.4,-541.8,40088.1,54.9,1727.1,701.4,-1726.2,-9020.4,9830.1,-140.7,-7.2,-6.0,-26.7,461.4,-0.6,171.0,419.7,-1911.0,0,3294,268435456,11,0, 
1.8333,-405.9,2396.4,41.4,-89.1,422.7,-1627.2,1607.1,-555.0,27046.5,73.5,1748.7,722.4,-1742.1,-9276.0,9830.1,-152.7,-6.9,-5.4,-15.3,477.6,-0.9,195.9,-17.7,-1980.0,0,3300,268435456,12,0, 
1.8367,-400.8,2433.9,74.1,-59.4,456.9,-1661.1,1615.2,-558.9,-2519.4,106.5,1775.1,748.8,-1712.4,-9581.1,8264.4,-166.8,-7.2,-6.0,6.6,500.7,-0.9,228.9,-574.8,-2054.7,0,3306,268435456,13,0, 
1.8400,-399.6,2415.0,66.6,-57.9,456.6,-1642.5,1620.6,-548.7,-8447.4,101.4,1773.3,754.2,-1685.7,-9505.2,-1744.8,-154.5,-6.6,-6.0,10.8,500.1,-0.6,226.8,-474.0,-2017.8,0,3312,268435456,14,0, 
1.8433,-403.5,2391.3,40.2,-83.4,426.9,-1600.5,1623.0,-536.7,17191.2,71.7,1740.9,719.1,-1709.4,-9225.3,6320.4,-141.0,-7.2,-6.0,-13.2,473.4,-0.9,186.6,127.2,-1941.0,0,3318,268435456,15,0, 
1.8467,-401.4,2382.3,26.1,-102.6,410.1,-1584.6,1614.6,-540.0,38828.4,49.5,1726.2,701.1,-1733.4,-9127.8,9830.1,-135.9,-6.6,-6.0,-34.2,453.3,-0.3,173.4,414.0,-1909.2,0,3324,268435456,16,0, 
1.8500,-407.1,2392.2,48.3,-87.0,426.0,-1627.8,1612.2,-552.3,25935.0,78.9,1750.5,724.8,-1747.2,-9394.8,9830.1,-150.0,-7.2,-5.7,-11.4,470.1,-0.9,205.2,-17.7,-1982.4,0,3330,268435456,17,0, 
1.8533,-398.1,2427.9,81.0,-50.4,464.1,-1654.2,1621.8,-550.5,-3630.9,109.5,1776.0,761.1,-1733.4,-9682.5,7738.8,-159.6,-6.3,-6.0,11.1,502.8,-0.6,231.3,-577.2,-2046.3,0,3336,268435456,18,0, 
1.8567,-398.7,2418.3,72.6,-51.6,459.9,-1649.4,1626.6,-544.5,-9707.1,102.3,1773.9,751.2,-1714.2,-9624.6,-2998.5,-152.7,-6.9,-6.0,12.3,492.0,-0.3,221.7,-460.2,-2023.8,0,3342,268435456,19,0, 
1.8600,-402.3,2393.7,45.0,-82.5,424.2,-1603.8,1622.1,-531.3,16079.7,65.1,1740.9,717.3,-1730.1,-9321.9,5668.5,-136.2,-6.6,-6.3,-21.3,463.5,-0.3,182.7,139.8,-1932.6,0,3348,268435456,20,0, 
1.8633,-409.5,2370.0,21.9,-103.8,405.9,-1589.4,1611.6,-537.6,37865.1,44.1,1718.1,695.1,-1746.0,-9246.9,9830.1,-139.2,-7.2,-6.0,-38.1,449.7,-0.9,165.6,391.5,-1911.9,0,3354,268435456,21,0, 
1.8667,-408.6,2391.6,40.5,-81.9,429.3,-1619.4,1608.6,-549.6,24971.7,66.3,1740.3,719.7,-1751.4,-9524.1,9830.1,-154.5,-6.9,-6.3,-22.2,465.9,-0.6,191.4,-49.5,-1985.7,0,3360,268435456,22,0, 
1.8700,-403.2,2426.4,73.8,-54.9,459.6,-1670.7,1616.7,-557.1,-4742.4,103.5,1769.1,755.7,-1731.9,-9796.5,7269.3,-167.1,-6.9,-5.4,-15.3,485.1,-0.6,232.5,-596.1,-2040.9,0,3366,268435456,23,0, 
1.8733,-400.8,2429.7,72.0,-55.8,450.9,-1649.7,1620.0,-543.3,-10596.3,93.3,1759.8,750.6,-1709.1,-9746.1,-4064.4,-162.6,-6.9,-6.0,-20.7,493.2,-0.6,216.6,-482.7,-2025.3,0,3372,268435456,24,0, 
1.8767,-403.8,2392.2,33.6,-88.5,416.7,-1610.4,1614.0,-536.4,14968.2,71.7,1733.4,716.1,-1720.5,-9431.4,4938.0,-147.0,-6.9,-5.7,-38.7,454.2,-0.9,181.2,127.8,-1941.9,0,3378,268435456,25,0, 
1.8800,-410.4,2372.4,21.0,-107.7,400.8,-1601.4,1602.3,-540.9,36827.7,46.5,1710.3,695.4,-1742.7,-9344.4,9830.1,-146.1,-6.9,-6.0,-57.3,446.7,-0.6,162.6,387.9,-1919.7,0,3384,268435456,26,0, 
1.8833,-412.2,2386.8,34.8,-90.6,420.3,-1635.9,1597.5,-558.0,24008.4,74.4,1730.7,711.0,-1747.8,-9615.9,9830.1,-161.1,-6.9,-6.0,-41.7,455.4,-0.9,194.1,-45.6,-1984.2,0,3390,268435456,27,0, 
1.8867,-406.8,2420.7,70.8,-55.5,456.9,-1664.4,1603.5,-557.7,-5631.6,106.5,1761.6,753.0,-1724.4,-9821.7,6746.1,-171.3,-7.2,-6.0,-2.4,486.3,-0.3,224.4,-598.8,-2056.8,0,3396,268435456,28,0, 
1.8900,-405.0,2410.8,66.3,-58.8,452.7,-1650.9,1611.3,-550.8,-11559.6,94.2,1761.0,751.2,-1705.2,-9827.4,-5068.2,-158.7,-6.9,-5.7,-9.6,487.2,-0.9,221.1,-477.0,-2033.4,0,3402,268435456,29,0, 
1.8933,-406.5,2392.8,41.4,-83.4,424.8,-1599.3,1611.3,-534.9,14079.0,65.7,1744.2,723.0,-1708.5,-9609.3,4310.7,-149.7,-7.2,-6.0,-28.2,464.7,-0.6,192.6,153.3,-1944.3,0,3408,268435456,30,0, 
1.8967,-409.5,2370.9,27.9,-99.3,403.5,-1591.8,1595.1,-538.8,35790.3,55.8,1735.5,716.1,-1732.2,-9432.9,9830.1,-152.1,-6.9,-6.0,-27.9,449.1,-0.6,171.0,419.7,-1919.1,0,3414,268435456,31,0, 
1.9000,-406.8,2388.9,42.9,-87.0,425.1,-1624.2,1592.7,-553.5,22971.0,73.5,1745.4,722.7,-1747.8,-9709.5,9830.1,-160.5,-6.6,-6.0,-16.8,460.8,-0.6,192.3,-22.2,-1982.4,0,3420,268435456,32,0, 
1.9033,-409.2,2412.6,74.7,-54.3,463.8,-1658.1,1600.8,-555.9,-6520.8,103.5,1769.4,756.9,-1718.7,-9827.4,6230.1,-166.5,-6.9,-5.4,9.9,490.5,-0.9,230.7,-574.5,-2049.0,0,3426,268435456,33,0, 
1.9067,-407.1,2415.3,68.7,-56.1,456.9,-1647.3,1606.5,-546.0,-12448.8,93.3,1759.2,751.2,-1703.7,-9827.4,-5910.0,-161.1,-6.9,-6.6,3.3,488.7,-0.9,222.3,-473.4,-2024.4,0,3432,268435456,34,0, 
1.9100,-412.2,2380.8,33.9,-88.2,420.0,-1604.7,1600.2,-540.9,13634.4,50.1,1730.1,711.9,-1709.4,-9762.0,3888.9,-150.3,-6.6,-5.4,-29.7,451.8,-0.6,179.1,122.7,-1944.6,0,3438,268435456,35,0, 
1.9133,-415.2,2363.7,15.6,-105.9,402.0,-1598.4,1596.0,-546.6,35345.7,35.4,1713.0,697.2,-1727.4,-9550.2,9830.1,-151.5,-6.9,-6.0,-54.0,440.7,-0.9,172.5,383.1,-1909.8,0,3444,268435456,36,0, 
1.9167,-407.7,2398.5,43.8,-82.5,428.1,-1638.6,1593.0,-553.8,22526.4,66.3,1745.1,721.8,-1735.2,-9780.0,9830.1,-162.6,-6.9,-5.7,-31.5,456.9,-0.3,197.7,-54.0,-1988.1,0,3450,268435456,37,0, 
1.9200,-407.1,2421.0,73.8,-58.2,455.4,-1667.4,1604.7,-555.6,-6669.0,96.0,1767.0,748.8,-1714.8,-9827.4,6017.4,-171.6,-6.9,-6.0,0.0,487.8,-0.9,210.9,-594.0,-2058.6,0,3456,268435456,38,0, 
1.9233,-406.2,2406.3,65.1,-64.5,449.7,-1654.2,1604.7,-554.7,-12819.3,101.7,1763.4,744.6,-1687.5,-9824.1,-6290.4,-162.3,-6.9,-5.4,3.0,480.9,-0.6,215.4,-479.4,-2024.1,0,3462,268435456,39,0, 
1.9267,-402.3,2392.2,43.8,-87.0,420.9,-1602.0,1610.1,-536.7,13189.8,66.3,1734.3,715.8,-1694.4,-9823.5,3558.0,-147.9,-6.9,-6.0,-22.8,454.5,-0.6,186.3,142.8,-1946.4,0,3468,268435456,40,0, 
1.9300,-412.8,2364.6,18.6,-109.5,405.3,-1586.7,1594.8,-544.8,34901.1,49.2,1721.1,698.4,-1721.1,-9665.1,9830.1,-149.1,-6.9,-5.7,-46.8,442.2,-0.6,169.8,404.1,-1915.5,0,3474,268435456,41,0, 
1.9333,-410.7,2382.9,37.8,-91.8,423.9,-1632.3,1590.9,-561.6,22378.2,71.1,1747.8,723.0,-1734.9,-9805.2,9830.1,-158.1,-7.2,-6.0,-30.6,463.2,-1.2,190.5,-31.8,-1983.0,0,3480,268435456,42,0, 
1.9367,-407.4,2418.0,64.5,-66.6,451.5,-1663.2,1597.8,-566.4,-7187.7,88.8,1759.8,745.5,-1717.8,-9825.0,5760.6,-174.0,-6.9,-5.7,-20.1,483.0,-0.6,210.9,-586.5,-2058.9,0,3486,268435456,43,0, 
1.9400,-409.8,2400.3,57.3,-68.1,447.9,-1659.3,1602.6,-561.0,-13041.6,91.8,1754.1,744.3,-1694.4,-9827.4,-6648.3,-166.2,-6.6,-6.0,-20.1,476.7,-0.6,209.4,-482.4,-2033.7,0,3492,268435456,44,0, 
1.9433,-411.3,2376.0,25.2,-99.9,413.1,-1617.0,1601.1,-550.8,12893.4,49.8,1721.7,708.9,-1708.2,-9827.4,3347.1,-148.2,-6.9,-6.0,-54.9,449.1,-0.6,174.3,120.0,-1951.2,0,3498,268435456,45,0, 
1.9467,-417.3,2357.1,10.8,-114.6,399.9,-1601.4,1587.9,-555.0,34604.7,37.5,1710.6,696.9,-1737.9,-9796.5,9830.1,-151.8,-6.9,-6.0,-67.5,439.5,-0.9,162.6,372.6,-1919.4,0,3504,268435456,46,0, 
1.9500,-414.3,2377.8,34.8,-95.4,416.7,-1639.5,1587.9,-562.8,21859.5,63.9,1731.6,715.2,-1750.8,-9815.4,9830.1,-160.5,-6.9,-6.3,-50.4,446.1,-0.9,186.0,-64.8,-1986.9,0,3510,268435456,47,0, 
1.9533,-408.3,2405.7,63.0,-64.8,450.6,-1671.6,1597.5,-567.3,-7558.2,87.9,1759.8,743.7,-1731.3,-9827.4,5521.2,-170.7,-6.6,-6.0,-23.4,480.0,-0.6,210.3,-610.5,-2054.4,0,3516,268435456,48,0, 
1.9567,-406.8,2405.4,70.5,-59.1,451.2,-1652.1,1609.5,-555.9,-13486.2,96.9,1767.3,748.2,-1721.7,-9827.4,-7048.2,-156.3,-6.6,-6.0,-16.5,473.4,-1.2,214.5,-489.0,-2025.0,0,3522,268435456,49,0, 
1.9600,-409.5,2373.0,37.2,-88.5,420.6,-1608.0,1603.5,-546.3,12300.6,63.0,1732.5,715.5,-1720.5,-9825.9,3008.7,-145.5,-6.9,-6.0,-43.8,458.1,-0.9,175.8,106.8,-1936.8,0,3528,268435456,50,0, 
1.9633,-413.1,2361.3,21.3,-104.4,407.1,-1588.8,1599.6,-544.2,33937.8,39.6,1714.2,699.3,-1735.5,-9827.4,9830.1,-142.8,-6.9,-6.0,-60.9,451.5,-0.6,161.1,387.9,-1905.3,0,3534,268435456,51,0, 
1.9667,-413.1,2376.0,35.1,-93.3,419.1,-1619.1,1595.7,-558.3,21044.4,67.8,1739.4,719.7,-1736.4,-9826.2,9830.1,-154.8,-6.9,-6.0,-32.1,449.4,-0.9,186.9,-28.8,-1970.4,0,3540,268435456,52,0, 
1.9700,-411.9,2404.8,66.0,-64.8,456.9,-1665.6,1599.9,-565.5,-8151.0,102.0,1763.4,751.8,-1720.8,-9827.4,5062.8,-166.2,-6.6,-5.4,-12.6,482.1,-0.6,219.9,-579.3,-2049.9,0,3546,268435456,53,0, 
1.9733,-409.8,2401.2,63.6,-68.1,441.3,-1643.4,1611.0,-554.7,-14079.0,92.4,1758.0,741.0,-1712.4,-9827.1,-7643.1,-162.0,-6.6,-6.0,-9.0,468.6,-0.9,222.0,-481.2,-2025.3,0,3552,268435456,54,0, 
1.9767,-409.5,2375.7,29.1,-100.8,410.7,-1602.3,1606.5,-544.5,11781.9,55.5,1720.2,699.0,-1720.8,-9827.4,2552.1,-147.9,-7.2,-5.4,-42.6,444.9,-0.6,176.4,125.7,-1941.6,0,3558,268435456,55,0, 
1.9800,-417.0,2349.0,16.5,-114.9,396.3,-1602.6,1594.2,-552.9,33567.3,39.6,1708.8,691.5,-1743.0,-9827.4,9830.1,-142.8,-6.9,-5.7,-49.8,436.2,-0.9,153.3,392.7,-1914.6,0,3564,268435456,56,0, 
1.9833,-414.3,2376.3,36.6,-91.5,423.6,-1626.3,1596.0,-560.7,21044.4,64.8,1733.4,718.5,-1751.1,-9827.4,9830.1,-150.9,-6.9,-5.7,-32.4,459.0,-0.6,182.4,-30.3,-1977.3,0,3570,268435456,57,0, 
1.9867,-410.4,2397.9,59.7,-60.3,456.3,-1651.2,1601.7,-564.6,-8521.5,103.8,1759.2,744.6,-1723.8,-9827.4,4852.8,-159.3,-6.6,-6.0,-12.6,477.3,-0.9,221.4,-591.0,-2050.5,0,3576,268435456,58,0, 
1.9900,-407.7,2404.8,65.7,-61.5,449.7,-1650.0,1604.4,-556.2,-14227.2,87.6,1748.7,737.1,-1702.5,-9827.4,-7926.9,-156.0,-6.9,-5.7,-14.4,469.2,-0.9,207.0,-486.0,-2029.8,0,3582,268435456,59,0, 
1.9933,-410.1,2374.5,27.6,-93.3,411.9,-1618.2,1602.3,-550.8,11633.7,60.9,1731.3,706.2,-1707.9,-9827.4,2425.8,-138.6,-6.9,-5.4,-32.7,444.9,-0.9,182.1,104.4,-1943.4,0,3588,268435456,60,0, 
1.9967,-412.2,2355.3,25.8,-104.1,409.2,-1581.6,1597.5,-547.5,33345.0,47.4,1716.0,694.2,-1728.0,-9827.4,9830.1,-136.8,-6.9,-5.7,-41.4,435.9,-0.9,168.6,381.0,-1909.8,0,3594,268435456,61,0, 
2.0000,-413.7,2383.2,37.5,-92.7,415.5,-1628.7,1590.6,-565.8,20599.8,71.4,1730.7,709.2,-1742.7,-9827.4,9830.1,-151.8,-6.9,-6.0,-28.8,448.2,-0.6,188.7,-41.4,-1978.5,0,3600,268435456,62,0, 
2.0033,-411.0,2408.7,64.2,-56.7,453.6,-1657.8,1601.7,-569.1,-8669.7,102.6,1762.8,749.1,-1722.3,-9827.4,4664.4,-162.0,-6.3,-5.7,-7.8,482.1,-0.9,226.2,-583.2,-2039.4,0,3606,268435456,63,0, 
2.0067,-408.3,2402.7,69.0,-57.0,454.2,-1645.8,1612.5,-558.6,-14523.6,98.1,1765.5,747.9,-1686.6,-9827.4,-8211.9,-154.5,-6.9,-5.4,6.3,484.8,-0.9,222.3,-473.4,-2021.1,0,3612,268435456,64,0, 
2.0100,-410.4,2378.4,36.3,-82.2,423.9,-1590.9,1606.5,-547.5,11263.2,67.8,1735.5,711.6,-1699.5,-9827.4,2119.2,-144.6,-6.9,-6.0,-19.2,445.8,-1.2,182.7,119.1,-1930.5,0,3618,268435456,65,0, 
2.0133,-411.0,2367.3,22.2,-103.5,401.1,-1583.1,1594.8,-549.9,32826.3,56.1,1719.3,696.6,-1722.9,-9827.4,9830.1,-138.9,-6.6,-6.0,-29.1,438.6,-0.6,176.1,398.7,-1907.7,0,3624,268435456,66,0, 
2.0167,-416.1,2371.5,42.9,-84.3,429.6,-1614.0,1597.2,-565.5,20451.6,84.9,1750.5,725.4,-1715.1,-9827.4,9830.1,-152.1,-6.9,-5.4,-0.9,459.6,-0.9,200.4,-30.0,-1962.0,0,3630,268435456,67,0, 
2.0200,-406.5,2410.8,65.7,-57.6,459.3,-1654.5,1598.4,-571.2,-9114.3,113.1,1772.4,749.4,-1695.9,-9827.4,4361.4,-171.3,-6.6,-5.7,16.2,472.8,-0.6,224.4,-588.9,-2039.1,0,3636,268435456,68,0, 
2.0233,-406.8,2406.6,60.0,-60.6,452.7,-1647.3,1605.0,-559.8,-15190.5,97.8,1761.6,740.7,-1683.0,-9827.4,-8658.9,-159.3,-6.9,-5.7,10.8,468.6,-0.9,224.4,-472.8,-2016.3,0,3642,268435456,69,0, 
2.0267,-407.1,2384.1,43.8,-79.2,422.4,-1600.8,1603.2,-546.9,10522.2,78.6,1740.0,716.7,-1686.0,-9827.4,1550.1,-146.7,-6.9,-5.7,-12.0,450.9,-0.6,196.2,145.2,-1929.3,0,3648,268435456,70,0, 
2.0300,-415.5,2351.7,15.9,-103.8,401.4,-1587.6,1592.7,-553.2,32233.5,53.1,1724.7,695.7,-1715.1,-9827.4,9830.1,-139.8,-6.6,-6.3,-29.4,432.6,-1.2,175.5,406.5,-1907.7,0,3654,268435456,71,0, 
2.0333,-412.8,2384.1,42.0,-84.9,422.4,-1620.6,1591.2,-565.8,19340.1,67.8,1738.5,719.1,-1728.3,-9827.4,9830.1,-154.5,-6.9,-6.0,-20.7,450.3,-0.6,190.8,-41.4,-1977.0,0,3660,268435456,72,0, 
2.0367,-410.7,2408.1,61.2,-55.8,454.5,-1656.3,1598.4,-567.9,-10003.5,113.4,1766.4,754.8,-1719.6,-9827.4,3782.1,-161.7,-6.9,-6.3,8.1,479.7,-0.6,227.4,-587.1,-2045.7,0,3666,268435456,73,0, 
2.0400,-404.1,2407.2,69.6,-52.5,457.2,-1647.0,1606.8,-557.7,-15931.5,106.5,1766.4,752.1,-1703.1,-9827.4,-9313.8,-153.0,-6.9,-5.4,8.1,477.3,-0.6,226.2,-484.2,-2012.4,0,3672,268435456,74,0, 
2.0433,-415.5,2370.0,33.0,-83.4,417.9,-1599.9,1597.5,-553.5,10003.5,69.6,1733.1,711.9,-1713.6,-9827.4,1093.2,-139.8,-6.9,-5.7,-19.5,448.2,-0.3,193.5,117.0,-1937.1,0,3678,268435456,75,0, 
2.0467,-414.3,2362.5,19.8,-97.2,411.3,-1586.4,1592.4,-554.1,31788.9,57.0,1720.2,707.1,-1727.4,-9827.4,9830.1,-137.1,-6.9,-6.0,-33.3,449.4,-0.6,179.1,395.7,-1905.3,0,3684,268435456,76,0, 
2.0500,-414.3,2374.5,35.7,-78.0,433.5,-1613.7,1590.9,-566.1,19191.9,80.1,1746.0,731.7,-1737.3,-9827.4,9830.1,-148.5,-6.9,-6.3,-18.3,460.5,-0.6,198.6,-47.4,-1965.3,0,3690,268435456,77,0, 
2.0533,-412.8,2405.4,68.7,-53.7,460.5,-1655.4,1603.5,-571.8,-10077.6,111.0,1764.9,754.5,-1707.9,-9827.4,3626.7,-154.2,-6.9,-5.7,-0.6,483.6,-0.9,227.7,-604.2,-2041.5,0,3696,268435456,78,0, 
2.0567,-409.5,2397.9,57.0,-56.4,456.0,-1633.8,1604.1,-563.7,-15857.4,100.8,1755.3,740.7,-1689.3,-9827.4,-9493.5,-150.0,-6.9,-5.7,-1.2,476.7,-0.3,215.1,-482.4,-2019.3,0,3702,268435456,79,0, 
2.0600,-411.6,2373.6,31.2,-85.5,420.0,-1599.0,1599.0,-549.6,10077.6,70.5,1735.5,712.2,-1700.7,-9827.4,993.6,-135.9,-6.9,-6.0,-21.0,448.2,-0.6,191.4,117.3,-1936.5,0,3708,268435456,80,0, 
2.0633,-416.7,2358.9,12.6,-96.6,408.6,-1590.3,1592.1,-551.7,31788.9,60.6,1725.9,699.3,-1731.6,-9827.4,9830.1,-135.0,-7.2,-6.0,-30.6,442.8,-0.6,179.4,400.2,-1910.1,0,3714,268435456,81,0, 
2.0667,-418.5,2370.3,33.6,-87.0,421.5,-1622.1,1589.4,-568.5,19191.9,78.3,1742.4,723.3,-1728.9,-9827.4,9830.1,-145.2,-6.9,-5.7,-14.4,457.5,-0.3,201.9,-48.3,-1971.9,0,3720,268435456,82,0, 
2.0700,-411.9,2400.3,61.5,-54.9,460.5,-1653.3,1598.1,-569.4,-10151.7,107.7,1769.7,750.6,-1707.3,-9827.4,3564.6,-159.9,-6.9,-6.0,8.7,489.0,-0.6,228.9,-583.2,-2037.3,0,3726,268435456,83,0, 
2.0733,-410.1,2399.4,57.6,-63.0,444.3,-1650.6,1602.3,-561.3,-15931.5,102.9,1757.4,739.5,-1683.6,-9827.4,-9494.7,-151.2,-6.9,-6.0,5.1,473.7,-0.6,223.2,-481.5,-2016.6,0,3732,268435456,84,0, 
2.0767,-408.9,2372.4,28.2,-87.6,420.9,-1602.3,1601.4,-549.0,10151.7,73.8,1726.5,712.5,-1695.6,-9827.4,1052.7,-138.0,-7.2,-5.4,-16.8,451.2,-0.3,192.3,134.4,-1929.9,0,3738,268435456,85,0, 
2.0800,-420.3,2348.7,10.5,-106.5,401.7,-1572.6,1589.1,-553.5,32011.2,52.2,1714.5,695.7,-1730.1,-9827.4,9830.1,-142.5,-6.9,-5.7,-23.7,433.8,-0.9,181.2,393.6,-1906.5,0,3744,268435456,86,0, 
2.0833,-415.5,2369.7,31.8,-94.2,421.5,-1625.7,1582.8,-567.0,19191.9,75.3,1737.9,719.7,-1740.3,-9827.4,9830.1,-152.1,-6.9,-5.7,-12.3,451.8,-0.6,199.5,-25.8,-1966.8,0,3750,268435456,87,0, 
2.0867,-414.0,2393.1,63.0,-63.9,450.0,-1658.7,1594.8,-574.2,-10151.7,104.1,1758.9,747.9,-1716.0,-9827.4,3611.4,-160.8,-6.9,-6.0,10.8,475.5,-0.6,232.8,-551.4,-2033.1,0,3756,268435456,88,0, 
2.0900,-410.4,2396.1,57.0,-55.8,452.7,-1641.6,1599.3,-562.5,-15709.2,102.9,1755.0,742.8,-1695.3,-9827.4,-9368.4,-155.7,-7.2,-5.7,-5.1,480.3,-0.3,217.5,-453.0,-2016.0,0,3762,268435456,89,0, 
2.0933,-416.1,2366.4,37.8,-83.4,416.7,-1601.4,1598.1,-549.0,10299.9,71.4,1735.5,708.0,-1713.9,-9827.4,1174.8,-147.3,-6.9,-6.0,-15.3,447.3,-0.6,183.0,150.0,-1934.7,0,3768,268435456,90,0, 
2.0967,-419.1,2342.4,6.3,-107.1,405.9,-1586.1,1583.7,-555.9,31937.1,42.9,1713.3,689.4,-1753.2,-9827.4,9830.1,-148.5,-6.9,-5.7,-43.5,446.7,-0.6,167.1,419.1,-1909.2,0,3774,268435456,91,0, 
2.1000,-422.7,2365.5,33.0,-90.0,418.2,-1623.3,1578.6,-568.8,19562.4,69.3,1734.3,709.5,-1764.6,-9827.4,9830.1,-160.8,-6.9,-6.0,-27.0,440.7,-0.6,195.3,-27.0,-1970.7,0,3780,268435456,92,0, 
2.1033,-414.6,2391.6,64.2,-64.2,452.7,-1662.3,1585.8,-574.5,-9781.2,95.7,1764.3,744.0,-1736.1,-9827.4,3854.1,-165.6,-6.6,-5.7,-8.7,480.9,-0.9,230.1,-577.8,-2039.4,0,3786,268435456,93,0, 
2.1067,-417.9,2388.6,57.3,-62.7,444.3,-1650.9,1590.6,-568.8,-15486.9,93.6,1760.7,738.3,-1717.5,-9827.4,-9128.1,-159.3,-6.6,-6.0,-10.2,465.6,-0.6,220.8,-467.1,-2018.4,0,3792,268435456,94,0, 
2.1100,-419.4,2355.6,24.6,-94.8,418.5,-1605.3,1590.9,-559.5,10522.2,59.4,1722.3,703.5,-1728.9,-9827.4,1363.5,-144.0,-6.9,-5.7,-44.7,441.6,-0.6,178.8,138.6,-1936.8,0,3798,268435456,95,0, 
2.1133,-419.7,2339.4,9.6,-108.9,403.5,-1592.7,1583.1,-561.6,32381.7,45.3,1704.3,688.8,-1750.8,-9827.4,9830.1,-140.7,-7.2,-5.7,-53.1,434.1,-0.6,170.4,384.0,-1902.9,0,3804,268435456,96,0, 
2.1167,-417.9,2360.4,34.2,-95.4,416.4,-1626.6,1581.9,-573.0,19858.8,74.7,1739.7,714.0,-1757.1,-9827.4,9830.1,-154.8,-6.9,-6.0,-30.6,441.6,-0.6,195.3,-49.5,-1970.7,0,3810,268435456,97,0, 
2.1200,-413.1,2393.1,56.7,-69.3,447.6,-1666.5,1584.9,-580.5,-9484.8,92.7,1751.4,740.4,-1733.4,-9827.4,4031.7,-163.5,-6.9,-6.3,-18.3,459.0,-0.6,222.6,-583.8,-2041.5,0,3816,268435456,98,0, 
2.1233,-410.1,2388.3,58.5,-65.7,451.2,-1652.7,1595.1,-565.8,-15190.5,106.2,1749.9,735.9,-1706.1,-9827.4,-8942.7,-156.6,-6.9,-6.3,-12.9,468.3,-0.6,225.0,-463.5,-2015.4,0,3822,268435456,99,0, 
2.1267,-408.3,2367.3,33.0,-93.0,411.9,-1613.4,1593.3,-555.6,10744.5,73.2,1728.3,703.2,-1717.5,-9827.4,1513.8,-146.1,-7.2,-5.7,-30.6,433.5,-0.6,186.9,136.2,-1928.7,0,3828,268435456,100,0, 
2.1300,-409.5,2358.9,14.1,-105.0,400.5,-1599.0,1586.1,-554.4,32381.7,54.9,1714.5,691.8,-1752.9,-9827.4,9830.1,-145.8,-7.2,-5.7,-40.2,428.1,-1.2,161.1,397.8,-1902.9,0,3834,268435456,101,0, 
