Time,P3,C3,F3,Fz,F4,C4,P4,Cz,CM,A1,Fp1,Fp2,T3,T5,O1,O2,X3,X2,F7,F8,X1,A2,T6,T4,Trigger,Time_Offset,ADC_Status,ADC_Sequence,Event,Comments
0.0033,135.3,-170.4,70.2,47.1,161.7,-54.0,34.5,15.0,5187.0,-100.5,439.5,475.5,-51.0,-278.7,96.9,494.4,-7.2,-6.0,-74.4,-63.3,-0.9,136.8,167.4,-48.6,0,6,0,22,0, 
0.0067,142.2,-176.4,55.8,30.3,140.7,-70.8,31.5,4.2,9707.1,-127.5,411.6,448.8,-76.2,-285.6,103.2,525.6,-6.9,-5.4,-97.5,-86.1,-0.9,110.4,177.0,-52.8,0,12,0,23,0, 
0.0100,155.1,-166.5,65.1,39.3,150.9,-63.6,29.4,11.7,17339.4,-134.4,411.0,449.7,-66.0,-303.6,71.1,498.9,-6.9,-6.0,-96.9,-76.5,-0.6,109.8,164.4,-58.2,0,18,0,24,0, 
0.0133,148.2,-158.1,78.0,39.6,149.4,-59.7,25.5,15.9,17265.3,-124.8,429.6,455.7,-63.9,-294.6,81.3,489.9,-6.6,-6.0,-77.1,-82.5,-0.6,112.2,153.0,-47.1,0,24,0,25,0, 
0.0167,145.5,-139.8,88.8,51.0,160.8,-53.7,27.9,25.8,8521.5,-120.6,444.9,469.5,-34.5,-292.2,76.5,493.5,-6.9,-6.0,-62.4,-60.3,-0.3,121.8,150.6,-62.1,0,30,0,26,0, 
0.0200,143.4,-150.9,80.4,41.1,148.2,-66.6,22.8,17.7,2593.5,-115.5,423.9,443.7,-66.6,-294.9,83.4,499.8,-6.9,-6.0,-75.6,-82.2,-0.6,121.8,146.7,-67.2,0,36,0,27,0, 
0.0233,158.1,-156.6,70.5,31.5,141.9,-69.6,15.0,15.0,6891.3,-126.6,418.2,440.7,-60.9,-294.6,90.6,491.7,-6.9,-6.0,-84.0,-82.8,-1.2,98.7,128.1,-78.0,0,42,0,28,0, 
0.0267,167.7,-166.2,64.2,27.6,138.3,-73.8,12.6,5.4,14968.2,-151.5,405.0,438.6,-76.2,-301.8,80.7,512.4,-6.9,-5.7,-96.3,-89.4,-0.9,84.6,137.7,-76.8,0,48,0,29,0, 
0.0300,155.1,-156.9,77.1,39.9,148.2,-64.5,19.8,17.1,14820.0,-141.0,427.2,461.1,-75.6,-304.8,68.1,507.9,-7.2,-5.7,-76.8,-81.3,-1.2,89.7,150.3,-60.0,0,54,0,30,0, 
0.0333,146.7,-144.9,82.5,49.2,158.4,-52.2,21.0,26.7,5779.8,-130.8,429.9,460.8,-57.0,-290.1,68.4,489.0,-6.9,-6.0,-71.4,-75.6,-0.6,103.5,149.1,-56.4,0,60,0,31,0, 
0.0367,159.9,-139.2,84.6,47.7,158.7,-57.3,9.3,30.0,-74.1,-135.0,426.9,454.5,-74.7,-280.8,97.2,490.5,-7.2,-5.7,-80.1,-75.3,-0.6,99.9,101.7,-62.4,0,66,0,32,0, 
0.0400,175.2,-147.6,76.2,45.6,159.0,-54.0,7.5,25.5,4742.4,-135.3,421.2,443.4,-58.8,-279.0,87.6,468.0,-6.9,-6.0,-80.7,-74.7,-0.9,105.0,113.1,-54.3,0,72,0,33,0, 
0.0433,174.3,-167.1,59.7,35.1,152.7,-57.6,14.4,19.5,13115.7,-155.1,421.8,446.4,-84.6,-298.8,81.0,500.4,-6.9,-5.7,-83.7,-86.4,-0.6,81.9,135.0,-66.6,0,78,0,34,0, 
0.0467,165.3,-163.5,62.1,35.7,149.7,-63.6,9.3,18.0,13189.8,-161.7,407.1,445.8,-82.8,-289.5,98.7,502.2,-6.9,-6.3,-95.1,-86.1,-0.6,80.1,131.1,-71.7,0,84,0,35,0, 
0.0500,143.4,-150.3,80.4,53.1,174.0,-39.0,24.0,37.5,4075.5,-139.5,432.3,474.3,-78.3,-297.9,49.8,489.6,-7.5,-5.7,-70.8,-52.5,-0.9,112.2,139.8,-58.2,0,90,0,36,0, 
0.0533,150.0,-155.1,76.5,47.4,165.9,-47.7,12.0,32.7,-2074.8,-136.5,440.7,462.3,-72.3,-290.4,74.1,464.4,-6.9,-6.0,-66.0,-66.6,-0.9,115.2,113.1,-57.9,0,96,0,37,0, 
0.0567,159.9,-176.4,49.2,22.2,145.8,-61.8,10.2,15.3,3112.2,-175.2,403.5,434.7,-94.2,-290.4,99.6,498.9,-7.2,-6.0,-108.9,-87.0,-0.9,77.4,134.7,-67.2,0,102,0,38,0, 
0.0600,159.3,-200.4,20.7,-4.2,119.1,-82.8,10.8,-8.4,11930.1,-202.8,373.2,413.7,-116.1,-296.1,133.2,549.9,-6.6,-6.0,-132.9,-115.2,-0.9,54.3,168.3,-84.9,0,108,0,39,0, 
0.0633,153.9,-181.2,45.9,25.2,146.4,-66.0,15.9,15.0,12226.5,-175.2,411.3,445.5,-93.6,-301.5,74.4,489.0,-6.9,-6.0,-96.0,-80.1,-0.9,83.4,152.1,-61.2,0,114,0,40,0, 
0.0667,140.7,-168.0,66.9,40.8,160.2,-51.3,18.9,29.7,3112.2,-145.5,435.6,464.7,-81.0,-307.2,48.9,471.6,-6.9,-5.7,-72.9,-65.1,-0.9,105.9,145.2,-48.6,0,120,0,41,0, 
0.0700,133.5,-180.3,48.0,26.4,139.5,-62.4,24.0,18.9,-2371.2,-155.1,413.1,445.2,-93.0,-310.8,77.1,513.3,-7.2,-5.7,-85.5,-84.9,-0.9,97.8,170.7,-58.8,0,126,0,42,0, 
0.0733,145.2,-199.5,27.3,0.9,112.8,-87.3,18.6,-3.0,2667.6,-184.5,397.8,426.9,-109.2,-293.4,126.3,555.3,-6.9,-5.4,-100.2,-102.6,-0.9,62.1,189.3,-84.6,0,132,0,43,0, 
0.0767,160.2,-182.7,48.6,29.4,135.6,-72.9,15.3,16.2,10892.7,-166.2,424.8,458.7,-90.3,-287.1,104.4,505.2,-6.9,-6.0,-80.1,-78.3,-1.2,88.8,153.3,-66.9,0,138,0,44,0, 
0.0800,168.3,-151.8,84.6,63.9,168.3,-54.0,12.0,39.0,10744.5,-110.4,464.4,491.1,-53.4,-283.5,70.5,451.5,-7.2,-6.0,-32.4,-48.9,-0.9,132.3,121.5,-48.3,0,144,0,45,0, 
0.0833,137.4,-168.0,72.9,57.9,159.3,-56.4,19.5,29.1,2667.6,-124.5,445.5,481.5,-70.8,-290.7,81.3,497.1,-6.9,-5.7,-49.8,-54.6,-0.9,127.2,162.9,-53.4,0,150,0,46,0, 
0.0867,140.1,-160.5,78.9,61.2,162.0,-55.2,18.9,34.5,-2889.9,-115.5,459.9,499.8,-59.1,-275.1,97.8,502.2,-6.9,-5.7,-35.1,-42.0,-0.6,128.4,163.8,-50.7,0,156,0,47,0, 
0.0900,156.0,-168.3,68.1,59.7,154.8,-66.0,16.2,26.1,1778.4,-132.6,453.6,491.4,-75.3,-267.6,114.3,516.9,-6.9,-6.0,-37.5,-40.8,-1.2,117.0,171.9,-68.1,0,162,0,48,0, 
0.0933,162.9,-177.0,55.5,50.1,146.1,-74.4,12.9,23.4,10596.3,-134.4,426.9,461.7,-70.2,-270.3,113.4,541.8,-6.9,-6.3,-56.4,-62.4,-0.6,110.4,178.2,-63.3,0,168,0,49,0, 
0.0967,150.6,-175.2,68.1,61.5,158.1,-66.3,24.0,36.0,10818.6,-128.4,440.7,475.8,-81.6,-275.4,92.7,536.4,-6.9,-6.0,-41.4,-51.9,-0.6,112.8,186.0,-69.9,0,174,0,50,0, 
0.1000,141.3,-159.9,78.9,73.5,164.7,-66.6,15.0,42.9,2148.9,-120.0,462.3,506.4,-66.0,-263.7,118.2,540.3,-7.2,-6.0,-25.2,-30.6,-0.6,122.4,175.8,-58.5,0,180,0,51,0, 
0.1033,139.8,-166.2,79.5,70.8,164.7,-66.0,19.2,42.9,-3408.6,-120.9,465.3,508.5,-75.0,-263.4,116.4,547.5,-6.6,-6.0,-15.6,-20.1,-0.9,113.7,194.4,-53.1,0,186,0,52,0, 
0.1067,175.5,-156.9,88.8,86.1,176.7,-56.4,10.2,54.6,2297.1,-119.4,469.8,507.6,-57.0,-257.7,97.8,497.7,-7.2,-5.7,-11.7,-20.7,-0.6,126.9,165.3,-50.1,0,192,0,53,0, 
0.1100,181.5,-156.3,86.7,84.3,174.3,-57.9,14.1,58.2,11707.8,-124.8,468.3,501.6,-58.8,-263.4,86.1,510.9,-6.0,-6.0,-11.4,-24.6,-0.6,121.2,171.0,-51.0,0,198,0,54,0, 
0.1133,176.1,-154.5,80.7,79.5,163.5,-62.7,13.5,58.2,11856.0,-139.2,447.6,481.5,-68.7,-253.5,104.1,506.1,-7.2,-5.4,-27.3,-48.0,-0.6,100.8,168.6,-60.9,0,204,0,55,0, 
0.1167,153.6,-158.7,93.6,91.2,178.5,-48.6,25.2,69.9,2889.9,-123.9,455.7,495.0,-63.3,-256.5,99.6,506.1,-6.6,-6.0,-13.5,-24.6,-0.9,117.6,171.6,-49.2,0,210,0,56,0, 
0.1200,162.3,-148.8,91.8,93.9,182.4,-43.5,26.7,72.0,-2815.8,-130.5,456.9,495.9,-59.1,-254.1,94.2,504.0,-7.2,-5.7,-14.1,-19.5,-0.9,112.8,177.0,-45.9,0,216,0,57,0, 
0.1233,181.5,-151.8,96.6,100.8,189.9,-39.0,24.3,72.9,1852.5,-124.8,480.9,530.7,-54.3,-243.0,96.3,482.1,-6.9,-5.4,10.5,11.4,-1.2,121.5,152.7,-38.7,0,222,0,58,0, 
0.1267,192.9,-154.5,79.2,81.9,168.6,-52.5,18.0,56.4,11263.2,-140.1,461.1,510.0,-70.2,-248.1,102.6,487.5,-6.9,-5.4,-11.4,-10.5,-0.9,99.9,157.2,-54.3,0,228,0,59,0, 
0.1300,172.2,-176.4,67.5,72.6,164.7,-49.8,20.7,51.9,11337.3,-153.0,443.7,492.0,-78.0,-266.1,90.3,492.9,-6.6,-6.0,-24.0,-21.6,-0.6,100.2,168.3,-48.0,0,234,0,60,0, 
0.1333,154.8,-170.1,64.8,64.2,152.4,-63.3,17.1,45.0,2519.4,-155.7,435.9,485.1,-82.2,-256.5,109.5,498.6,-7.2,-6.0,-27.6,-35.1,-0.6,83.7,162.6,-60.0,0,240,0,61,0, 
0.1367,153.6,-179.4,57.9,59.4,150.6,-69.3,14.1,44.7,-3112.2,-158.4,425.4,476.7,-91.2,-258.9,104.1,484.8,-6.9,-6.6,-36.3,-42.6,-0.9,88.5,153.9,-58.2,0,246,0,62,0, 
0.1400,169.5,-181.5,56.7,57.3,150.0,-67.8,9.0,42.6,3038.1,-167.4,409.8,465.3,-87.3,-273.3,71.1,462.3,-7.2,-6.0,-42.9,-46.2,-0.3,72.6,142.2,-61.8,0,252,0,63,0, 
0.1433,168.3,-203.4,32.7,35.4,132.6,-78.9,4.5,27.0,12004.2,-189.0,395.7,448.8,-110.7,-273.9,85.2,476.1,-6.9,-6.0,-57.0,-65.7,-0.9,63.3,153.6,-68.4,0,258,0,64,0, 
0.1467,156.9,-194.7,46.8,44.7,139.5,-81.6,0.6,25.2,12448.8,-174.3,422.7,480.0,-97.8,-272.4,86.7,464.7,-7.2,-5.7,-34.2,-38.7,-0.3,75.0,138.0,-64.2,0,264,0,65,0, 
0.1500,146.1,-195.9,49.5,42.6,143.4,-77.1,7.5,25.2,4075.5,-171.9,421.8,474.6,-106.5,-263.1,99.6,476.7,-6.9,-5.7,-27.6,-38.1,-0.6,79.5,150.9,-59.1,0,270,0,66,0, 
0.1533,143.7,-202.2,41.4,35.7,134.1,-81.9,9.3,23.7,-1407.9,-174.9,406.8,456.3,-101.1,-264.3,93.3,476.7,-7.2,-5.7,-37.2,-64.5,-0.3,75.0,156.0,-69.0,0,276,0,67,0, 
0.1567,156.0,-214.2,24.3,18.3,116.7,-93.9,5.7,8.1,4223.7,-200.1,381.6,437.7,-125.1,-256.2,123.9,497.4,-6.6,-5.7,-58.2,-78.9,-0.9,45.6,161.4,-78.6,0,282,0,68,0, 
0.1600,158.7,-224.1,13.8,6.6,107.4,-96.9,10.5,-0.3,13412.1,-204.0,372.0,422.7,-118.5,-267.0,115.8,516.3,-6.9,-6.0,-68.4,-99.0,-0.9,40.8,187.2,-91.8,0,288,0,69,0, 
0.1633,159.0,-207.3,34.5,36.6,134.7,-81.9,7.2,20.7,13856.7,-164.4,404.1,457.2,-96.0,-250.8,90.3,460.2,-6.6,-6.0,-34.2,-60.9,-0.6,77.4,156.3,-76.8,0,294,0,70,0, 
0.1667,141.6,-193.8,51.6,37.2,133.2,-83.4,11.4,24.0,4816.5,-176.7,398.4,459.3,-77.4,-249.6,109.5,493.2,-6.9,-6.0,-32.1,-58.8,-0.9,80.7,171.9,-75.9,0,300,0,71,0, 
0.1700,148.2,-197.7,49.2,51.3,150.3,-66.6,15.9,33.9,-296.4,-145.8,422.4,475.2,-104.4,-233.4,117.3,475.2,-6.9,-6.0,-12.0,-34.8,-0.3,96.9,162.9,-68.1,0,306,0,72,0, 
0.1733,163.5,-197.1,50.1,48.0,143.1,-74.7,11.1,32.7,5705.7,-152.4,422.1,467.7,-75.9,-232.5,116.4,476.1,-6.6,-5.7,-9.9,-51.9,-1.2,89.7,160.8,-66.0,0,312,0,73,0, 
0.1767,169.2,-208.8,42.9,45.0,140.4,-76.5,12.3,25.5,15042.3,-158.4,419.4,469.5,-94.5,-223.8,127.5,487.2,-6.9,-6.0,-8.4,-42.9,-0.3,84.0,170.7,-55.8,0,318,0,74,0, 
0.1800,160.2,-203.7,43.2,43.8,138.3,-80.7,10.2,22.8,15338.7,-153.6,413.7,466.2,-81.3,-224.7,126.0,484.8,-6.9,-6.0,-12.0,-51.3,-1.2,84.3,176.4,-63.6,0,324,0,75,0, 
0.1833,143.7,-202.5,46.5,47.7,140.7,-78.0,14.7,26.7,6372.6,-150.9,420.6,476.1,-89.4,-222.3,133.8,487.8,-7.2,-5.7,-4.5,-40.5,-0.6,98.4,179.7,-60.9,0,330,0,76,0, 
0.1867,152.7,-190.2,51.3,52.5,141.9,-79.2,8.1,28.8,666.9,-147.9,421.8,479.7,-72.0,-207.9,127.8,467.7,-6.9,-6.0,1.5,-37.2,-0.6,92.7,177.6,-61.5,0,336,0,77,0, 
0.1900,164.7,-213.6,39.6,45.0,136.8,-87.6,7.5,20.7,6965.4,-159.3,422.4,477.0,-94.5,-209.4,130.2,473.7,-7.2,-5.7,-5.1,-50.4,-0.6,85.8,175.2,-65.1,0,342,0,78,0, 
0.1933,182.4,-201.3,45.9,43.8,129.0,-95.1,0.0,17.7,16598.4,-168.6,398.1,446.1,-98.4,-203.4,131.4,461.1,-6.9,-6.0,-13.8,-73.2,-0.9,76.2,162.0,-90.0,0,348,0,79,0, 
0.1967,168.9,-203.4,47.7,45.9,133.2,-89.4,2.7,25.5,17265.3,-159.9,405.9,457.2,-83.1,-210.0,137.7,473.4,-6.9,-5.4,-9.3,-63.9,-0.6,71.4,168.6,-81.6,0,354,0,80,0, 
0.2000,157.8,-201.3,48.0,52.2,138.6,-89.1,5.4,33.0,8225.1,-153.3,413.1,470.4,-74.7,-202.8,142.5,462.9,-6.9,-5.7,-1.2,-49.8,-0.3,87.3,160.2,-66.9,0,360,0,81,0, 
0.2033,167.4,-202.2,38.7,40.8,131.1,-92.4,4.5,33.3,3186.3,-161.7,395.7,447.9,-75.9,-198.6,151.2,471.0,-7.2,-6.3,-9.6,-67.5,-0.9,75.3,158.7,-103.2,0,366,0,82,0, 
0.2067,189.6,-198.9,46.2,45.6,137.4,-96.6,-1.5,34.2,8892.0,-167.1,405.0,455.1,-78.9,-188.1,141.9,455.7,-7.5,-6.0,3.6,-59.1,-0.6,74.7,148.8,-89.1,0,372,0,83,0, 
0.2100,201.9,-201.0,37.5,45.9,137.7,-98.4,-2.7,29.7,18673.2,-181.5,412.5,460.8,-77.4,-177.9,140.7,456.0,-7.2,-5.4,-0.9,-56.1,-0.9,60.3,147.9,-86.4,0,378,0,84,0, 
0.2133,187.5,-196.8,46.8,53.7,141.0,-93.6,-1.8,33.0,18006.3,-169.2,418.2,463.5,-77.7,-176.4,141.0,444.6,-6.9,-5.7,10.8,-48.9,-0.9,74.7,141.0,-80.1,0,384,0,85,0, 
0.2167,168.3,-213.3,35.7,43.5,137.4,-95.1,-0.6,33.0,9262.5,-173.4,404.7,450.9,-84.9,-168.0,155.7,448.2,-6.9,-6.0,-2.4,-61.8,-0.9,66.0,144.6,-86.4,0,390,0,86,0, 
0.2200,180.6,-193.5,45.6,47.4,140.4,-97.5,2.1,39.3,3556.8,-174.3,390.3,446.4,-75.3,-159.3,153.3,437.4,-6.9,-5.7,-5.7,-61.2,-0.9,65.7,139.8,-94.8,0,396,0,87,0, 
0.2233,201.9,-197.1,42.3,46.8,134.4,-99.0,-1.2,38.1,9040.2,-180.9,402.0,454.2,-77.4,-162.3,144.6,440.7,-6.6,-6.0,-1.5,-60.9,-1.5,46.8,134.4,-92.7,0,402,0,88,0, 
0.2267,200.7,-204.6,40.2,41.4,125.1,-99.0,-2.7,31.5,17932.2,-186.6,401.7,443.4,-79.2,-176.4,138.0,435.0,-6.9,-5.7,6.3,-73.8,-0.6,46.8,130.8,-106.2,0,408,0,89,0, 
0.2300,198.9,-194.7,56.1,56.1,138.3,-90.0,-3.6,44.1,16968.9,-171.3,428.7,459.9,-69.9,-163.2,138.9,410.7,-6.6,-6.0,37.5,-59.1,-0.6,56.7,129.9,-117.6,0,414,0,90,0, 
0.2333,174.0,-193.5,54.3,54.9,133.8,-100.8,1.8,39.6,7113.6,-178.8,429.3,464.7,-68.1,-162.0,157.5,441.0,-6.6,-5.4,39.6,-57.0,-0.9,62.1,147.0,-90.9,0,420,0,91,0, 
0.2367,177.9,-184.5,62.1,65.7,141.6,-92.1,1.2,49.8,1185.6,-177.9,430.5,479.7,-57.9,-155.4,148.5,422.4,-7.5,-5.7,41.7,-43.8,-0.6,60.3,133.2,-69.6,0,426,0,92,0, 
0.2400,199.8,-179.1,72.3,70.2,139.8,-89.4,-1.8,50.4,6965.4,-180.3,427.5,465.6,-56.1,-149.4,150.9,414.6,-6.9,-6.0,43.5,-51.6,-0.9,50.7,128.4,-78.0,0,432,0,93,0, 
0.2433,198.6,-194.7,48.6,59.7,134.1,-96.6,0.9,44.7,15857.4,-177.9,416.1,459.9,-57.6,-158.1,144.3,427.2,-6.6,-5.4,37.8,-60.0,-0.9,51.9,138.9,-85.8,0,438,0,94,0, 
0.2467,189.9,-185.7,66.0,66.9,143.7,-94.5,-1.8,46.5,16079.7,-178.5,426.3,472.5,-55.8,-139.2,167.1,411.9,-6.9,-5.7,53.7,-43.5,-0.6,60.9,127.2,-74.7,0,444,0,95,0, 
0.2500,165.6,-182.4,74.7,79.8,160.5,-73.8,10.2,58.5,6372.6,-163.2,454.8,497.4,-42.3,-146.1,148.2,416.1,-6.6,-5.7,87.0,-14.1,-0.9,73.5,141.6,-66.3,0,450,0,96,0, 
0.2533,165.3,-180.9,81.0,84.0,164.4,-73.5,13.5,59.4,592.8,-153.6,470.1,510.9,-46.8,-139.8,145.5,420.3,-6.6,-5.4,96.3,-2.1,-0.6,89.7,144.0,-70.5,0,456,0,97,0, 
0.2567,190.2,-183.9,64.5,75.0,154.5,-81.0,9.9,53.7,6372.6,-162.0,446.1,495.3,-36.3,-130.2,153.3,427.8,-6.6,-5.4,78.9,-23.1,-0.6,75.6,143.4,-70.5,0,462,0,98,0, 
0.2600,191.7,-199.5,61.8,68.4,147.6,-83.1,6.9,51.9,15486.9,-172.2,430.8,481.5,-69.0,-135.9,152.7,435.0,-7.2,-5.7,70.5,-29.1,-0.6,68.4,140.1,-72.0,0,468,0,99,0, 
0.2633,173.7,-204.3,54.0,63.9,140.4,-92.1,10.5,48.9,14745.9,-177.0,419.1,469.5,-57.9,-138.6,156.0,439.2,-6.9,-5.4,62.4,-31.2,-0.9,65.4,150.9,-73.5,0,474,0,100,0, 
0.2667,151.2,-211.8,41.4,56.1,132.3,-93.3,18.3,48.3,4890.6,-178.5,403.8,447.3,-60.0,-135.9,168.0,455.7,-6.9,-6.0,53.4,-50.7,-0.9,71.7,162.9,-69.0,0,480,0,101,0, 
0.2700,151.2,-212.7,51.9,65.7,141.3,-89.4,17.4,51.3,-666.9,-167.4,425.1,468.6,-75.0,-134.4,153.0,432.9,-6.9,-6.0,79.5,-25.2,-0.6,77.7,153.0,-62.4,0,486,0,102,0, 
0.2733,165.3,-219.9,45.0,62.7,141.6,-82.5,19.5,43.2,4742.4,-178.2,438.3,483.9,-73.5,-137.7,150.9,450.3,-6.9,-5.4,86.1,-9.6,-0.9,81.3,170.4,-58.8,0,492,0,103,0, 
0.2767,172.2,-227.7,33.3,52.8,129.9,-92.1,22.2,37.2,14004.9,-193.5,428.4,479.4,-81.3,-134.7,164.7,463.5,-6.6,-6.0,77.4,-23.1,-0.6,68.1,181.5,-81.3,0,498,0,104,0, 
0.2800,159.3,-216.6,41.4,58.8,135.3,-86.1,17.1,46.2,13338.0,-166.2,429.3,486.3,-68.1,-125.7,155.7,443.4,-6.9,-6.0,85.2,-21.6,-0.9,89.4,161.1,-54.0,0,504,0,105,0, 
0.2833,145.2,-219.0,42.3,60.0,134.1,-87.0,22.5,43.8,3482.7,-177.6,429.0,483.9,-76.8,-122.1,170.1,463.5,-6.9,-6.0,79.8,-20.7,-0.6,85.5,165.3,-62.1,0,510,0,106,0, 
0.2867,151.5,-223.5,38.1,58.8,135.0,-84.3,28.2,45.9,-2667.6,-171.3,423.0,475.2,-78.9,-114.3,170.1,481.2,-7.2,-5.4,77.1,-26.1,-0.9,84.0,185.4,-59.4,0,516,0,107,0, 
0.2900,175.5,-219.0,35.4,53.4,128.7,-89.7,23.1,40.2,3482.7,-178.2,409.8,459.3,-65.4,-113.7,172.5,470.7,-7.2,-5.4,70.5,-38.7,0.0,73.2,180.3,-70.5,0,522,0,108,0, 
0.2933,194.4,-214.8,35.4,52.2,126.6,-89.1,23.7,39.9,13486.2,-174.0,404.7,471.0,-70.8,-99.9,175.5,473.1,-7.5,-5.7,66.0,-25.8,-0.3,73.5,172.5,-69.3,0,528,0,109,0, 
0.2967,178.8,-223.2,37.2,56.1,133.5,-84.9,27.0,40.5,12819.3,-171.0,419.7,470.1,-58.2,-90.9,189.6,480.6,-6.9,-5.4,88.2,-15.3,-0.9,85.5,180.6,-74.7,0,534,0,110,0, 
0.3000,165.0,-201.0,48.6,66.0,143.1,-78.9,35.4,50.1,3927.3,-160.5,443.7,494.4,-32.1,-80.7,197.4,488.1,-7.5,-5.7,105.9,-0.9,-0.6,96.6,192.6,-55.2,0,540,0,111,0, 
0.3033,186.9,-187.2,75.6,81.0,153.0,-72.0,33.3,64.2,-1407.9,-147.3,457.5,500.7,-30.9,-67.2,200.7,485.7,-6.9,-6.0,129.0,2.4,-0.9,101.4,174.9,-49.5,0,546,0,112,0, 
0.3067,205.8,-192.6,54.6,78.3,152.7,-69.9,36.6,64.5,4816.5,-160.5,453.6,497.4,-50.4,-71.4,183.9,486.0,-7.2,-5.7,124.5,3.0,-0.9,96.0,184.2,-50.1,0,552,0,113,0, 
0.3100,216.0,-191.7,56.1,75.6,148.8,-72.9,30.9,65.4,14301.3,-163.8,436.5,486.6,-33.3,-64.2,194.7,486.6,-6.9,-5.4,106.5,-3.3,-0.6,81.0,175.8,-51.0,0,558,0,114,0, 
0.3133,199.8,-191.4,62.1,78.9,150.9,-70.2,29.7,70.5,13263.9,-157.5,449.1,495.3,-6.6,-69.0,183.3,490.5,-6.9,-5.7,136.2,4.5,-0.6,89.4,171.9,-50.1,0,564,0,115,0, 
0.3167,189.0,-177.0,72.6,84.3,159.6,-66.3,21.9,74.4,3630.9,-155.1,463.5,509.1,-12.0,-60.9,182.4,467.4,-6.9,-5.4,141.0,13.5,-0.6,87.6,145.5,-55.2,0,570,0,116,0, 
0.3200,194.1,-183.6,66.9,84.6,158.4,-69.3,30.0,76.2,-2741.7,-156.9,468.9,513.3,-7.5,-63.0,185.1,479.1,-6.9,-6.0,142.8,18.6,-0.9,81.3,164.4,-61.8,0,576,0,117,0, 
0.3233,211.8,-189.3,58.8,75.6,145.5,-81.0,15.0,75.6,2964.0,-175.8,434.7,482.1,-30.0,-63.9,180.3,440.7,-6.9,-5.7,120.9,-5.1,-0.6,68.1,145.5,-71.1,0,582,0,118,0, 
0.3267,213.3,-196.8,45.6,67.2,140.1,-84.9,10.8,70.8,11930.1,-191.7,418.2,471.3,-30.6,-78.0,173.7,455.1,-6.9,-6.0,109.5,-14.1,-0.3,57.6,142.5,-71.7,0,588,0,119,0, 
0.3300,197.1,-189.3,63.0,81.3,156.0,-62.4,14.7,84.0,11189.1,-178.2,439.5,492.3,-30.9,-72.9,176.1,431.7,-7.2,-5.7,134.1,1.2,-0.6,69.3,125.1,-58.5,0,594,0,120,0, 
0.3333,178.2,-184.5,65.7,85.5,154.2,-67.5,13.2,82.2,815.1,-176.4,448.8,501.9,-27.0,-67.5,193.5,440.7,-6.9,-5.7,140.1,6.9,-0.3,60.0,134.4,-94.5,0,600,0,121,0, 
0.3367,174.3,-189.3,72.9,90.6,164.7,-77.7,15.0,85.5,-5557.5,-177.9,458.7,510.3,-32.4,-77.1,169.5,444.3,-6.6,-5.7,153.3,14.7,-0.3,61.5,139.8,-64.5,0,606,0,122,0, 
0.3400,201.0,-177.9,80.1,97.2,167.7,-67.8,7.2,85.8,444.6,-177.0,459.0,503.4,-7.8,-69.6,172.5,424.5,-6.9,-6.0,162.3,21.6,-0.9,74.7,122.1,-73.5,0,612,0,123,0, 
0.3433,202.8,-200.7,55.8,86.1,157.2,-73.2,15.9,77.7,8521.5,-185.1,445.5,498.3,-38.4,-85.8,163.5,463.5,-6.9,-5.1,140.4,15.9,-0.9,56.1,162.6,-68.4,0,618,0,124,0, 
0.3467,180.9,-194.7,69.9,93.3,165.9,-67.5,13.5,81.9,8002.8,-169.2,452.1,507.6,-22.8,-83.4,156.0,444.6,-6.9,-6.0,158.4,29.7,-1.2,73.8,141.3,-68.4,0,624,0,125,0, 
0.3500,164.7,-192.9,74.7,93.0,168.0,-63.9,18.3,85.8,-2593.5,-164.1,450.9,508.2,-14.4,-74.7,172.5,441.3,-7.2,-5.4,158.7,20.7,-1.2,75.3,156.0,-65.4,0,630,0,126,0, 
0.3533,164.1,-190.8,73.2,93.9,161.4,-70.5,17.4,87.9,-8743.8,-161.1,462.6,506.4,-16.2,-79.5,171.9,432.6,-6.6,-5.7,177.6,24.6,-0.6,78.3,152.7,-75.0,0,636,0,127,0, 
0.3567,177.3,-198.9,60.3,79.2,148.2,-77.7,15.6,76.8,-3779.1,-173.7,441.9,480.6,-23.7,-81.3,176.1,435.9,-7.2,-5.7,160.5,-1.5,-0.6,60.0,152.1,-77.1,0,642,0,128,0, 
0.3600,187.8,-207.0,52.8,73.5,138.6,-89.1,14.4,71.7,4816.5,-182.1,426.9,468.3,-28.2,-79.8,174.6,445.8,-6.9,-5.7,150.9,-5.1,-0.3,63.3,156.0,-71.1,0,648,0,129,0, 
0.3633,167.1,-197.1,61.5,84.0,152.4,-86.4,25.8,80.4,3556.8,-165.9,440.1,488.7,-6.0,-81.3,161.4,444.3,-6.9,-5.4,173.4,19.5,-0.6,83.4,173.1,-64.5,0,654,0,130,0, 
0.3667,153.9,-192.6,69.3,89.4,159.6,-80.4,29.4,83.1,-7187.7,-151.8,456.6,509.4,-20.1,-70.8,183.3,452.1,-6.6,-5.7,189.0,45.3,-0.6,92.1,164.7,-48.9,0,660,0,131,0, 
0.3700,157.2,-190.8,69.6,87.3,155.7,-81.6,28.5,83.1,-13856.7,-144.0,452.4,500.7,-16.2,-64.5,182.4,441.0,-7.2,-6.3,184.8,27.6,-0.3,92.7,164.1,-59.4,0,666,0,132,0, 
0.3733,173.1,-202.2,60.3,81.6,149.1,-84.6,26.1,77.4,-8892.0,-156.9,444.6,492.9,-28.2,-72.6,179.1,449.7,-6.6,-6.0,172.8,22.2,-0.3,85.8,174.3,-57.3,0,672,0,133,0, 
0.3767,181.5,-204.0,56.4,77.7,148.5,-86.4,27.9,76.2,-296.4,-163.2,439.2,481.8,-28.8,-69.6,185.1,447.3,-7.2,-6.0,169.5,19.8,-0.9,76.5,180.3,-59.7,0,678,0,134,0, 
0.3800,165.6,-199.8,55.5,77.1,146.7,-82.2,29.4,76.5,-963.3,-157.2,450.0,503.7,-29.1,-61.2,191.1,449.1,-6.9,-6.0,182.7,29.1,-0.3,86.4,181.8,-64.5,0,684,0,135,0, 
0.3833,144.9,-216.9,46.2,72.6,143.4,-83.1,34.2,73.5,-11633.7,-163.5,441.6,500.7,-43.8,-63.3,204.0,462.3,-6.6,-6.3,171.3,22.8,-0.9,88.8,189.3,-70.2,0,690,0,136,0, 
0.3867,149.1,-211.8,43.5,71.1,141.3,-78.6,33.6,76.8,-17858.1,-169.5,425.7,486.0,-30.9,-62.4,194.4,456.3,-6.6,-5.4,159.0,13.5,-0.3,79.2,189.6,-70.8,0,696,0,137,0, 
0.3900,172.2,-224.4,30.3,56.7,127.2,-88.5,35.7,70.5,-12522.9,-195.3,403.2,462.9,-52.5,-60.0,209.7,468.9,-6.6,-6.0,129.6,-10.2,-0.9,57.6,184.2,-82.8,0,702,0,138,0, 
0.3933,181.2,-224.7,30.0,57.3,127.2,-90.6,29.7,71.1,-3705.0,-189.6,396.9,454.5,-49.2,-59.4,191.4,448.5,-6.9,-5.7,129.9,0.0,-0.3,66.0,178.5,-76.2,0,708,0,139,0, 
0.3967,169.5,-231.9,23.7,59.1,128.7,-88.5,34.5,69.6,-4446.0,-192.3,401.1,462.3,-50.1,-59.7,199.5,456.0,-6.9,-5.7,139.5,9.9,-0.9,76.2,189.0,-69.3,0,714,0,140,0, 
0.4000,159.9,-217.5,38.4,67.2,139.5,-85.2,33.9,74.1,-14671.8,-168.9,426.6,474.9,-45.6,-40.5,225.3,444.0,-6.9,-5.4,165.0,18.0,-0.3,78.9,186.9,-70.8,0,720,0,141,0, 
0.4033,168.6,-200.7,47.7,74.7,150.3,-74.4,42.6,84.3,-20896.2,-170.4,430.8,490.8,-43.8,-30.9,228.3,453.9,-6.9,-6.0,166.5,24.6,-1.2,91.2,189.9,-66.0,0,726,0,142,0, 
0.4067,190.2,-215.7,39.6,74.1,143.1,-72.3,39.0,81.9,-15635.1,-178.8,423.0,481.2,-34.8,-40.8,204.6,455.4,-6.9,-6.0,168.6,28.5,-0.6,82.8,183.0,-61.8,0,732,0,143,0, 
0.4100,201.0,-213.3,40.2,69.0,136.2,-93.9,32.1,75.0,-6520.8,-174.3,414.9,471.3,-32.7,-30.6,208.2,425.4,-6.9,-5.4,161.4,16.2,-0.3,77.1,168.6,-77.7,0,738,0,144,0, 
0.4133,186.6,-213.9,33.0,63.6,135.0,-94.8,27.3,72.9,-7187.7,-174.6,423.6,483.9,-32.4,-24.0,224.1,437.1,-6.6,-5.7,160.5,21.0,-0.9,80.1,164.4,-87.9,0,744,0,145,0, 
0.4167,181.8,-193.8,54.9,81.3,157.2,-77.4,36.6,91.2,-17413.5,-153.3,450.0,513.0,-9.9,-16.8,224.7,421.2,-6.9,-6.0,190.8,55.2,-0.9,103.5,164.4,-81.6,0,750,0,146,0, 
0.4200,189.3,-193.5,51.3,75.9,150.9,-83.7,32.4,84.6,-23415.6,-173.1,438.3,502.5,-21.9,-12.0,225.6,421.5,-7.2,-6.0,177.3,50.1,-0.6,87.3,166.2,-72.3,0,756,0,147,0, 
0.4233,205.8,-196.8,55.5,76.2,147.3,-88.2,27.9,85.8,-17932.2,-172.5,420.9,479.1,-24.0,-15.9,221.1,422.7,-6.9,-5.4,173.4,27.3,-0.9,87.9,149.4,-67.2,0,762,0,148,0, 
0.4267,207.9,-215.7,33.6,61.8,132.9,-94.2,18.3,75.0,-8299.2,-184.5,403.5,455.4,-35.7,-23.1,218.4,416.4,-6.3,-5.7,153.3,6.6,-0.6,50.4,140.4,-84.6,0,768,0,149,0, 
0.4300,198.9,-214.8,33.9,58.5,134.4,-90.0,21.3,73.8,-8743.8,-177.3,393.9,454.5,-33.0,-20.7,219.6,425.4,-7.2,-6.0,151.2,17.1,-0.6,65.1,149.1,-74.7,0,774,0,150,0, 
0.4333,179.4,-206.7,47.7,68.7,144.0,-84.0,24.0,74.7,-18673.2,-162.9,426.0,492.3,-29.4,-16.5,224.4,431.1,-7.2,-6.0,177.3,49.5,-0.9,82.8,156.0,-84.0,0,780,0,151,0, 
0.4367,186.0,-187.5,72.6,87.0,159.3,-80.1,25.8,84.3,-24453.0,-153.6,454.5,518.1,-8.1,-20.4,207.0,426.3,-6.9,-5.7,204.0,70.8,-0.3,101.4,156.9,-66.6,0,786,0,152,0, 
0.4400,206.4,-213.9,39.6,75.3,154.8,-84.0,22.8,79.2,-18302.7,-167.1,428.7,490.8,-21.3,-11.4,222.6,428.4,-7.2,-6.3,175.5,46.2,-0.9,84.3,148.2,-66.0,0,792,0,153,0, 
0.4433,216.9,-203.7,46.8,76.8,146.1,-84.6,18.0,79.8,-8743.8,-174.3,405.6,458.1,-10.5,-14.4,210.9,423.6,-6.9,-5.7,164.1,24.3,-0.9,69.6,135.9,-60.6,0,798,0,154,0, 
0.4467,199.5,-195.3,63.3,91.5,158.7,-66.6,27.3,84.6,-8892.0,-157.5,422.7,477.0,-0.9,-10.5,205.2,420.3,-7.2,-6.0,186.0,56.4,-0.6,84.9,163.2,-62.1,0,804,0,155,0, 
0.4500,180.3,-186.9,78.9,105.0,174.6,-71.4,25.8,90.3,-18228.6,-130.5,466.8,533.7,8.7,-8.1,211.2,416.1,-6.9,-5.4,221.4,93.0,-0.6,118.8,156.0,-53.1,0,810,0,156,0, 
0.4533,188.7,-183.9,84.9,111.0,181.2,-61.8,30.0,95.4,-24304.8,-133.5,459.0,527.7,14.1,-0.9,219.9,411.6,-6.6,-6.3,213.6,89.7,-0.6,111.9,168.3,-33.6,0,816,0,157,0, 
0.4567,197.1,-195.3,74.7,104.4,173.7,-70.5,26.7,84.6,-17339.4,-133.2,434.7,506.4,16.5,-12.6,212.1,425.7,-6.9,-5.7,196.8,76.2,-0.9,116.1,161.7,-45.0,0,822,0,158,0, 
0.4600,207.3,-195.0,78.6,107.1,179.4,-64.8,30.0,79.2,-8225.1,-136.2,447.3,521.7,15.3,-11.7,214.2,437.1,-6.6,-6.0,213.9,98.1,-0.6,115.5,174.9,-31.8,0,828,0,159,0, 
0.4633,183.6,-195.9,78.0,106.5,179.1,-57.3,30.9,76.8,-8076.9,-119.1,449.7,527.1,35.7,-10.8,216.0,437.1,-7.2,-6.0,208.8,101.4,-0.6,131.1,186.6,-24.3,0,834,0,160,0, 
0.4667,174.6,-187.5,82.5,107.7,184.8,-50.1,39.0,79.2,-17561.7,-118.8,448.5,524.4,24.6,-3.9,225.6,437.7,-6.9,-6.0,211.8,100.2,-0.6,133.5,192.0,-12.6,0,840,0,161,0, 
0.4700,173.1,-186.0,89.1,115.5,196.5,-39.9,43.8,87.6,-22971.0,-105.9,454.5,537.6,21.0,0.9,228.6,428.1,-6.9,-5.7,222.0,117.0,-1.2,147.6,185.4,-4.2,0,846,0,162,0, 
0.4733,195.3,-179.4,75.3,104.4,185.1,-44.1,43.2,84.9,-16746.6,-107.1,427.5,512.7,18.9,-3.6,218.1,430.2,-6.9,-5.7,190.2,94.2,-0.6,143.4,184.2,-32.4,0,852,0,163,0, 
0.4767,195.6,-205.2,66.3,97.2,179.1,-52.8,40.2,77.7,-6965.4,-108.9,414.3,496.8,4.8,-5.4,213.3,432.6,-6.6,-5.7,183.9,88.2,-1.2,136.2,192.0,-21.3,0,858,0,164,0, 
0.4800,189.6,-197.4,67.8,90.6,179.7,-50.4,44.4,81.0,-6743.1,-101.7,409.2,492.9,12.9,6.3,235.8,440.4,-6.9,-5.7,181.2,94.8,-0.6,145.8,189.6,-6.3,0,864,0,165,0, 
0.4833,173.1,-186.0,73.2,96.3,187.8,-46.5,45.6,91.5,-16079.7,-88.2,414.6,503.4,34.5,3.9,229.5,441.0,-6.6,-6.0,188.4,97.8,-0.9,149.7,192.3,-5.4,0,870,0,166,0, 
0.4867,184.8,-177.9,79.8,96.9,184.2,-41.1,52.5,100.2,-22007.7,-90.3,409.5,499.5,44.7,9.0,234.9,441.3,-7.2,-6.3,188.1,101.1,-0.9,160.2,193.8,-16.2,0,876,0,167,0, 
0.4900,204.0,-186.0,71.7,95.1,180.3,-42.6,50.7,97.8,-16524.3,-89.4,391.5,483.0,30.0,4.8,222.0,444.0,-6.6,-5.7,167.4,96.0,-0.6,150.9,204.3,-12.3,0,882,0,168,0, 
0.4933,208.5,-191.4,63.6,81.3,164.7,-56.1,45.0,96.0,-6669.0,-106.5,368.1,456.3,26.1,4.5,212.7,425.7,-6.9,-6.0,155.4,69.6,-0.6,145.2,195.9,-20.4,0,888,0,169,0, 
0.4967,197.4,-196.5,55.5,75.3,163.5,-46.2,45.9,98.4,-7113.6,-101.1,348.3,445.8,22.2,5.4,207.3,415.8,-7.8,-5.7,138.3,70.2,-0.3,153.3,189.6,-19.2,0,894,0,170,0, 
0.5000,186.0,-183.9,58.5,68.7,156.0,-53.4,45.3,99.3,-16598.4,-99.3,336.0,430.5,23.7,11.7,214.8,412.5,-6.9,-5.7,128.4,61.5,-0.6,153.9,177.6,-41.1,0,900,0,171,0, 
0.5033,193.5,-190.8,50.7,64.8,158.4,-63.9,43.8,97.5,-22674.6,-104.1,320.4,417.6,26.7,12.6,216.0,402.9,-7.5,-5.4,115.8,57.9,-0.6,148.8,181.8,-27.3,0,906,0,172,0, 
0.5067,205.2,-196.5,38.4,57.0,148.5,-72.0,36.0,90.6,-16894.8,-112.2,303.9,405.3,14.1,11.7,208.8,382.8,-6.9,-6.0,104.4,49.5,-0.6,135.6,154.8,-34.5,0,912,0,173,0, 
0.5100,219.0,-207.3,25.8,45.3,138.0,-80.7,29.4,84.0,-8002.8,-120.6,279.6,385.8,2.7,7.2,205.8,379.8,-6.9,-5.7,81.9,36.3,-0.6,131.4,147.9,-34.2,0,918,0,174,0, 
0.5133,202.2,-206.4,18.0,33.9,126.6,-82.8,29.1,78.3,-8225.1,-121.2,264.9,365.7,-15.0,5.4,212.4,377.7,-6.9,-5.4,67.2,23.4,-0.6,136.8,147.9,-39.3,0,924,0,175,0, 
0.5167,186.6,-201.0,15.0,25.8,121.5,-85.5,29.1,81.9,-17413.5,-124.5,258.3,360.6,4.5,12.9,211.5,373.5,-7.2,-6.0,59.4,17.1,-0.6,127.5,157.8,-43.2,0,930,0,176,0, 
0.5200,186.9,-207.0,6.9,19.2,114.9,-85.8,34.8,77.7,-23637.9,-128.4,228.9,330.0,-12.3,15.3,215.7,370.8,-6.9,-5.7,32.7,-5.4,-0.3,122.4,157.5,-61.5,0,936,0,177,0, 
0.5233,201.9,-220.2,-0.9,12.6,106.2,-87.9,27.0,75.0,-17709.9,-140.1,210.0,318.3,-12.0,0.0,191.4,361.8,-7.2,-5.4,17.7,-17.1,-0.9,117.6,149.1,-61.8,0,942,0,178,0, 
0.5267,203.4,-228.6,-14.4,3.6,98.1,-93.0,24.0,67.2,-7854.6,-149.4,188.1,295.8,-29.1,-1.8,189.9,362.1,-6.9,-5.7,-4.5,-32.4,-0.6,106.8,154.8,-45.9,0,948,0,179,0, 
0.5300,187.8,-236.7,-32.7,-12.0,87.9,-102.6,22.8,60.3,-7780.5,-147.9,174.3,277.5,-26.7,-9.9,186.0,369.6,-7.2,-6.0,-12.3,-40.8,-0.9,97.5,157.5,-63.6,0,954,0,180,0, 
0.5333,171.6,-225.9,-17.1,-3.3,95.4,-101.4,14.7,63.9,-17043.0,-138.6,176.7,278.4,-23.1,-4.8,182.1,323.4,-6.9,-6.0,-8.4,-42.0,-0.6,123.6,123.0,-65.7,0,960,0,181,0, 
0.5367,169.5,-231.9,-23.7,-11.4,92.7,-102.9,9.6,58.5,-22304.1,-143.4,158.4,264.0,-24.9,-9.0,171.6,317.4,-6.9,-5.7,-20.1,-54.3,-0.6,108.9,121.2,-64.8,0,966,0,182,0, 
0.5400,183.6,-240.9,-38.7,-21.6,76.8,-107.7,11.4,46.8,-16598.4,-157.5,133.8,243.3,-34.8,-14.4,175.2,325.2,-7.2,-5.7,-48.9,-75.9,-0.6,96.6,132.3,-74.4,0,972,0,183,0, 
0.5433,189.6,-246.3,-43.8,-31.8,63.3,-123.9,-0.9,38.7,-6669.0,-165.6,124.5,228.9,-29.4,-17.7,164.4,321.3,-7.2,-6.0,-55.8,-91.2,-0.6,90.9,125.7,-88.5,0,978,0,184,0, 
0.5467,178.5,-243.3,-37.8,-28.5,67.2,-117.6,4.2,42.3,-6520.8,-146.1,124.5,230.4,-25.5,-16.5,172.8,329.4,-6.9,-6.0,-52.2,-81.0,-0.3,97.8,133.5,-79.8,0,984,0,185,0, 
0.5500,161.7,-236.4,-33.6,-27.3,68.1,-110.7,4.5,41.1,-15116.4,-140.1,126.9,230.1,-24.3,-15.0,171.6,316.8,-6.9,-5.4,-42.0,-83.1,-0.3,114.6,130.5,-69.6,0,990,0,186,0, 
0.5533,158.7,-239.1,-40.5,-34.2,63.6,-112.5,10.2,37.5,-20377.5,-141.9,105.6,211.5,-25.2,-22.2,172.5,325.8,-6.9,-6.3,-67.5,-96.0,-0.6,117.6,144.3,-96.3,0,996,0,187,0, 
0.5567,174.6,-244.5,-47.1,-33.6,63.0,-119.1,7.8,33.9,-14079.0,-143.4,98.1,195.3,-25.5,-24.6,169.5,330.3,-6.9,-5.7,-66.3,-103.8,-0.6,102.6,147.6,-91.5,0,1002,0,188,0, 
0.5600,183.3,-231.0,-40.2,-27.3,64.2,-108.3,12.6,37.8,-4297.8,-140.1,90.6,186.6,-25.8,-25.2,170.1,334.2,-7.2,-6.0,-66.3,-100.5,-0.6,107.4,149.1,-71.4,0,1008,0,189,0, 
0.5633,169.5,-239.4,-39.3,-23.4,71.1,-111.3,12.9,38.4,-3482.7,-127.5,96.0,194.1,-20.4,-23.7,177.0,339.9,-6.9,-5.7,-51.9,-93.9,-1.2,123.9,156.6,-71.7,0,1014,0,190,0, 
0.5667,159.6,-228.6,-27.3,-14.4,84.3,-105.9,22.5,49.5,-12078.3,-111.6,99.9,205.5,-8.7,-17.4,185.4,344.4,-7.2,-5.7,-54.3,-82.2,-0.9,138.0,164.4,-63.9,0,1020,0,191,0, 
0.5700,161.7,-219.9,-19.5,-7.8,85.8,-98.7,22.2,54.0,-17191.2,-112.8,99.0,206.1,-1.2,-21.9,185.7,343.2,-6.6,-6.3,-52.8,-82.5,-0.6,141.0,161.1,-65.4,0,1026,0,192,0, 
0.5733,184.2,-221.7,-17.1,-2.7,91.8,-98.4,27.0,57.6,-10966.8,-115.2,101.7,206.4,-8.1,-20.1,185.7,342.3,-6.9,-5.7,-50.7,-78.9,-0.6,135.9,158.4,-69.9,0,1032,0,193,0, 
0.5767,197.4,-219.9,-16.2,-3.3,87.9,-93.0,27.0,57.3,-1482.0,-117.6,88.5,186.3,-12.3,-20.7,184.5,342.9,-6.6,-6.0,-57.6,-100.5,-0.6,125.4,156.6,-88.2,0,1038,0,194,0, 
0.5800,183.6,-217.2,-13.8,0.9,91.5,-91.5,26.1,60.0,-444.6,-105.3,87.0,179.4,-3.0,-20.4,188.1,339.3,-7.2,-5.7,-55.5,-99.9,-0.6,129.9,150.0,-72.6,0,1044,0,195,0, 
0.5833,177.6,-194.7,-3.9,1.2,92.7,-96.0,27.3,62.4,-9188.4,-112.2,81.3,182.1,38.1,-14.7,195.0,338.1,-6.9,-5.7,-57.3,-101.7,-0.9,132.0,145.8,-71.7,0,1050,0,196,0, 
0.5867,179.7,-202.2,-1.8,3.3,98.4,-86.7,31.2,65.4,-14597.7,-105.6,83.4,182.1,-15.0,-14.4,187.2,336.9,-6.9,-5.7,-55.8,-97.8,-0.9,134.4,146.7,-66.6,0,1056,0,197,0, 
0.5900,189.9,-222.3,-14.1,-9.6,87.0,-92.7,25.8,55.5,-8892.0,-111.0,60.9,157.2,-1.8,-16.2,186.0,332.4,-7.2,-6.0,-73.5,-113.7,-0.9,126.6,145.2,-92.4,0,1062,0,198,0, 
0.5933,198.9,-223.2,-21.3,-24.3,69.3,-109.2,14.1,44.1,518.7,-125.7,40.8,133.8,-16.5,-21.0,177.0,325.8,-7.2,-6.0,-89.1,-130.2,-0.9,114.3,137.7,-104.7,0,1068,0,199,0, 
0.5967,191.7,-217.2,-13.2,-13.2,76.2,-108.0,12.6,49.5,592.8,-116.7,46.2,140.4,-12.6,-12.3,189.0,324.3,-7.2,-6.3,-79.2,-119.1,-0.6,119.7,134.4,-76.2,0,1074,0,200,0, 
0.6000,170.1,-218.4,-20.4,-18.0,78.6,-105.0,12.0,52.5,-8299.2,-114.9,39.6,126.0,-26.1,-19.8,180.0,321.0,-7.5,-5.7,-81.6,-130.5,-0.6,123.0,130.5,-70.2,0,1080,0,201,0, 
0.6033,171.9,-218.7,-24.3,-21.0,74.7,-107.1,10.2,52.8,-14301.3,-114.9,32.1,126.0,-19.2,-16.8,180.0,317.7,-6.9,-6.0,-94.8,-135.9,-0.9,117.0,122.4,-84.9,0,1086,0,202,0, 
0.6067,179.7,-230.1,-37.2,-32.7,63.9,-113.1,4.8,45.3,-8373.3,-134.1,18.9,109.5,-29.4,-26.4,169.2,309.3,-6.9,-5.4,-110.7,-151.5,-0.3,104.1,116.4,-88.8,0,1092,0,203,0, 
0.6100,184.2,-243.0,-46.5,-38.7,57.9,-117.3,2.7,36.0,815.1,-140.7,2.7,96.6,-32.7,-27.6,165.6,306.6,-6.9,-5.7,-125.7,-157.5,-0.6,98.1,115.2,-96.6,0,1098,0,204,0, 
0.6133,170.4,-242.4,-50.7,-36.6,61.5,-118.5,5.7,36.9,963.3,-133.2,1.5,102.0,-26.7,-26.4,166.2,296.4,-7.2,-5.7,-121.5,-161.7,-0.3,104.1,110.4,-97.5,0,1104,0,205,0, 
0.6167,161.1,-228.3,-36.3,-33.6,65.1,-114.3,11.7,43.5,-7928.7,-124.5,0.9,95.7,-28.8,-27.6,169.8,300.3,-6.6,-5.7,-115.5,-164.4,-0.9,117.3,114.3,-85.2,0,1110,0,206,0, 
0.6200,156.0,-245.1,-49.2,-39.9,63.3,-116.1,9.9,37.2,-13634.4,-134.1,-3.3,93.9,-38.4,-29.7,166.2,302.4,-6.9,-5.4,-126.6,-164.7,-0.6,116.1,118.2,-95.4,0,1116,0,207,0, 
0.6233,172.5,-246.9,-54.6,-37.8,54.9,-112.8,8.4,37.2,-8076.9,-146.7,-11.1,89.7,-23.1,-28.2,156.0,292.8,-7.2,-6.3,-130.2,-167.1,-0.3,96.9,108.9,-88.8,0,1122,0,208,0, 
0.6267,181.2,-257.7,-72.6,-54.3,41.4,-122.7,6.9,30.3,1185.6,-150.0,-35.4,66.9,-44.1,-32.4,152.4,291.0,-6.9,-6.0,-162.0,-189.0,-0.9,90.0,108.3,-104.1,0,1128,0,209,0, 
0.6300,167.4,-256.2,-67.5,-52.2,39.3,-125.7,8.4,34.2,1556.1,-150.9,-40.8,66.9,-35.7,-36.6,150.3,287.1,-6.6,-6.0,-171.0,-195.0,-0.3,96.9,109.8,-95.1,0,1134,0,210,0, 
0.6333,149.7,-257.4,-68.1,-53.1,46.5,-120.9,8.4,39.9,-7558.2,-143.4,-46.5,51.9,-44.7,-32.7,158.1,291.3,-6.9,-5.7,-169.8,-197.7,-0.6,113.4,115.2,-83.4,0,1140,0,211,0, 
0.6367,151.2,-254.1,-64.5,-50.4,50.4,-110.1,12.0,40.2,-13263.9,-144.3,-40.5,53.7,-39.0,-36.0,156.6,292.2,-6.6,-6.0,-160.2,-198.9,-0.9,110.1,119.4,-85.8,0,1146,0,212,0, 
0.6400,171.9,-256.8,-68.7,-52.5,42.9,-133.5,7.5,31.8,-7928.7,-140.7,-37.8,59.4,-40.8,-38.7,158.1,295.2,-6.9,-5.4,-158.4,-192.6,-0.9,113.4,116.4,-87.0,0,1152,0,213,0, 
0.6433,184.5,-260.1,-69.6,-51.6,40.2,-131.1,7.8,28.2,666.9,-137.1,-46.5,47.7,-48.3,-32.1,164.7,300.9,-6.6,-6.3,-164.1,-195.3,-0.6,112.8,124.5,-84.6,0,1158,0,214,0, 
0.6467,173.1,-254.7,-60.9,-51.9,40.8,-123.6,8.4,29.1,1407.9,-131.7,-49.5,51.6,-43.5,-30.9,167.4,304.8,-7.2,-6.0,-169.8,-198.0,-0.6,118.2,126.9,-81.3,0,1164,0,215,0, 
0.6500,162.6,-244.5,-51.9,-39.6,52.8,-112.8,15.0,40.5,-8002.8,-128.7,-36.9,55.5,-44.4,-25.8,176.4,310.8,-6.9,-6.0,-156.0,-196.8,-0.6,127.5,131.7,-79.8,0,1170,0,216,0, 
0.6533,167.7,-240.0,-42.3,-30.6,59.4,-114.9,15.0,45.6,-14004.9,-112.2,-40.8,49.5,-24.3,-20.1,180.6,312.6,-7.2,-5.7,-154.8,-196.8,-0.6,137.4,133.5,-92.4,0,1176,0,217,0, 
0.6567,183.9,-238.2,-43.8,-30.3,59.4,-114.9,12.0,45.6,-8447.4,-115.8,-45.9,40.8,-21.0,-30.0,175.8,312.6,-6.9,-6.0,-159.9,-206.4,-0.6,131.1,132.3,-88.2,0,1182,0,218,0, 
0.6600,198.0,-240.3,-48.3,-35.1,50.4,-117.0,10.2,40.5,74.1,-133.5,-56.1,23.1,-34.8,-33.3,179.7,318.0,-6.9,-5.7,-174.3,-212.1,-0.9,113.4,130.8,-94.5,0,1188,0,219,0, 
0.6633,184.8,-238.5,-49.2,-34.2,54.6,-113.1,13.8,46.8,963.3,-124.8,-61.5,22.5,-31.5,-41.4,173.7,317.1,-6.6,-6.0,-179.1,-217.2,-0.3,119.4,142.5,-106.5,0,1194,0,220,0, 
0.6667,182.7,-211.5,-21.6,-12.9,67.2,-107.7,7.5,57.9,-8447.4,-111.6,-39.9,36.3,-4.8,-25.8,182.4,286.2,-7.2,-6.0,-152.7,-210.3,-1.2,123.3,105.3,-117.3,0,1200,0,221,0, 
0.6700,185.7,-216.6,-32.1,-22.2,57.0,-113.1,12.0,53.1,-14153.1,-124.2,-62.1,20.4,-39.0,-32.4,185.7,310.8,-6.6,-5.7,-184.2,-223.5,-0.6,116.7,122.4,-123.9,0,1206,0,222,0, 
0.6733,198.9,-232.5,-41.1,-23.7,56.1,-122.1,4.8,47.1,-8669.7,-133.5,-71.1,0.6,-37.2,-33.3,185.1,299.4,-7.2,-5.7,-190.5,-236.7,-0.9,107.1,109.5,-105.3,0,1212,0,223,0, 
0.6767,204.9,-243.6,-48.3,-33.3,48.0,-126.0,0.0,39.9,222.3,-143.4,-87.0,-20.1,-26.4,-46.8,169.5,294.9,-6.6,-5.7,-211.2,-251.1,-0.6,87.3,105.3,-115.2,0,1218,0,224,0, 
0.6800,183.3,-243.9,-52.8,-34.8,42.3,-130.5,-3.0,38.4,370.5,-149.7,-88.2,-16.8,-36.0,-50.7,171.3,297.0,-6.6,-5.7,-211.5,-254.1,-1.2,88.8,100.8,-126.0,0,1224,0,225,0, 
0.6833,167.1,-238.5,-46.5,-32.7,49.2,-123.9,1.2,37.8,-8743.8,-146.1,-82.8,-16.8,-39.0,-45.9,175.5,288.0,-6.9,-5.4,-203.7,-259.2,-0.6,83.7,105.0,-127.5,0,1230,0,226,0, 
0.6867,162.9,-243.0,-60.3,-45.3,37.5,-131.4,3.6,34.2,-14745.9,-157.5,-101.7,-28.5,-47.4,-57.3,173.7,303.6,-6.9,-6.0,-222.6,-274.8,-0.9,84.3,114.3,-129.6,0,1236,0,227,0, 
0.6900,184.2,-245.4,-57.9,-42.0,34.8,-141.3,-5.1,34.8,-9633.0,-158.4,-106.2,-34.2,-46.2,-54.3,166.2,276.0,-7.2,-6.0,-227.1,-270.3,-0.3,77.4,97.2,-139.5,0,1242,0,228,0, 
0.6933,192.0,-251.7,-63.3,-46.2,26.1,-148.2,-7.5,30.0,-889.2,-160.2,-110.1,-40.5,-48.6,-55.8,169.8,285.0,-6.6,-6.0,-232.5,-282.3,-0.9,74.4,94.5,-114.9,0,1248,0,229,0, 
0.6967,176.4,-245.7,-58.8,-44.7,24.9,-141.3,-1.8,30.0,-741.0,-151.8,-115.2,-50.1,-42.3,-59.1,154.2,276.3,-6.6,-5.7,-229.8,-285.9,-0.6,83.7,97.8,-117.0,0,1254,0,230,0, 
0.7000,160.2,-242.1,-56.1,-40.5,33.6,-133.2,-3.6,31.2,-9262.5,-149.4,-113.7,-43.8,-39.6,-60.6,159.6,276.0,-6.9,-5.7,-232.8,-280.2,-0.9,77.1,89.4,-119.1,0,1260,0,231,0, 
0.7033,168.3,-237.0,-52.5,-39.6,30.3,-144.3,-1.5,26.1,-15042.3,-151.2,-115.8,-35.7,-35.1,-51.9,167.1,271.5,-6.9,-6.3,-237.9,-287.1,-0.6,87.6,92.4,-127.8,0,1266,0,232,0, 
0.7067,183.0,-243.6,-59.7,-39.9,37.8,-142.8,-0.9,25.5,-9707.1,-153.3,-114.6,-36.9,-34.8,-51.6,168.3,284.1,-7.2,-6.0,-242.7,-280.2,-0.6,80.1,91.5,-127.8,0,1272,0,233,0, 
0.7100,199.8,-235.5,-55.8,-39.3,31.8,-145.8,0.9,20.1,-1037.4,-154.5,-115.5,-54.3,-29.4,-41.4,178.2,285.0,-7.2,-6.0,-240.6,-292.2,-0.9,75.9,92.1,-135.3,0,1278,0,234,0, 
0.7133,182.1,-231.6,-34.5,-18.6,47.4,-125.7,7.8,33.3,-815.1,-147.6,-93.6,-18.9,-23.1,-42.6,170.4,276.0,-7.2,-5.7,-223.5,-268.8,-0.9,91.2,98.4,-111.9,0,1284,0,235,0, 
0.7167,162.6,-230.7,-35.1,-19.2,48.3,-119.7,14.7,35.1,-10151.7,-134.1,-87.9,-13.2,-14.4,-40.8,176.4,309.0,-6.6,-5.7,-222.6,-281.1,-0.9,96.6,104.4,-124.5,0,1290,0,236,0, 
0.7200,165.0,-224.1,-31.8,-5.4,63.6,-112.5,18.3,43.5,-16227.9,-125.1,-77.1,1.5,-3.3,-43.2,162.6,285.6,-7.5,-6.0,-216.3,-262.5,-0.6,109.8,96.0,-112.8,0,1296,0,237,0, 
0.7233,185.7,-229.8,-35.7,-14.4,51.0,-123.3,15.3,33.3,-11040.9,-132.6,-88.5,-19.8,-10.2,-36.6,174.3,287.4,-6.9,-6.0,-221.4,-269.1,-1.2,105.0,93.9,-115.5,0,1302,0,238,0, 
0.7267,191.1,-233.1,-36.6,-14.7,46.5,-120.3,16.2,37.2,-2000.7,-136.8,-91.5,-21.0,-15.6,-45.9,166.8,290.1,-7.2,-5.7,-231.0,-275.1,-0.9,91.5,102.0,-118.5,0,1308,0,239,0, 
0.7300,174.6,-240.6,-44.1,-16.8,51.6,-118.5,20.7,30.6,-2148.9,-131.4,-85.5,-17.4,-16.2,-45.9,175.2,301.2,-6.6,-6.0,-229.5,-267.6,-0.6,101.7,108.0,-118.2,0,1314,0,240,0, 
0.7333,162.6,-232.2,-31.8,-9.0,60.6,-106.2,25.5,39.3,-11115.0,-121.2,-61.5,-0.9,-13.8,-45.6,169.2,281.4,-6.9,-6.0,-214.5,-257.7,-0.9,107.4,115.8,-119.4,0,1320,0,241,0, 
0.7367,158.4,-236.1,-39.9,-15.0,53.4,-105.6,28.2,35.4,-17043.0,-121.5,-73.2,-10.2,-11.4,-51.6,171.9,285.9,-6.9,-6.0,-225.6,-270.9,-0.6,109.8,114.9,-122.7,0,1326,0,242,0, 
0.7400,180.3,-246.3,-44.1,-19.8,47.7,-111.3,24.6,26.7,-12004.2,-128.4,-86.4,-18.6,-18.3,-51.9,168.6,301.2,-7.2,-6.0,-228.6,-285.6,-0.6,103.5,124.8,-115.2,0,1332,0,243,0, 
0.7433,189.6,-252.0,-57.6,-31.2,37.5,-122.4,23.1,16.8,-3630.9,-134.1,-98.7,-19.8,-23.7,-53.7,172.8,294.6,-6.3,-5.7,-254.1,-282.6,-0.9,86.7,117.9,-133.8,0,1338,0,244,0, 
0.7467,178.5,-247.8,-46.5,-23.7,46.8,-119.7,23.1,19.8,-3112.2,-122.7,-93.0,-29.1,-18.3,-48.9,182.1,310.5,-6.3,-5.7,-245.4,-274.8,-0.6,109.8,119.1,-96.9,0,1344,0,245,0, 
0.7500,159.3,-246.3,-45.9,-24.9,44.4,-117.6,26.4,18.0,-11930.1,-116.1,-90.6,-25.8,-16.8,-49.5,186.3,308.1,-6.9,-6.0,-243.3,-277.5,-0.6,114.3,128.1,-111.9,0,1350,0,246,0, 
0.7533,162.0,-240.0,-43.8,-19.2,52.2,-112.5,30.3,19.8,-18006.3,-115.5,-85.2,-11.7,-20.1,-43.5,190.2,316.2,-6.6,-5.7,-240.6,-288.9,-0.6,120.6,127.5,-102.6,0,1356,0,247,0, 
0.7567,180.6,-246.9,-56.1,-32.1,38.7,-119.1,27.0,7.8,-13263.9,-126.3,-100.8,-28.2,-30.0,-42.0,215.1,322.2,-7.2,-6.0,-254.4,-290.7,-0.6,99.0,124.8,-121.5,0,1362,0,248,0, 
0.7600,191.7,-257.1,-62.4,-36.9,33.6,-116.4,27.0,2.1,-4223.7,-132.3,-104.7,-39.9,-18.3,-60.0,195.3,320.7,-6.9,-6.0,-266.4,-297.0,-1.5,102.0,132.0,-130.5,0,1368,0,249,0, 
0.7633,180.9,-258.9,-62.4,-38.7,33.3,-122.1,28.8,3.9,-3927.3,-135.6,-97.2,-35.4,-33.6,-59.4,198.0,336.0,-6.6,-5.7,-259.8,-300.3,-0.3,94.8,138.3,-147.3,0,1374,0,250,0, 
0.7667,170.1,-244.2,-48.6,-20.7,48.9,-122.7,27.6,14.1,-12448.8,-117.3,-84.0,-18.0,-16.8,-60.0,184.2,319.5,-6.9,-5.7,-255.0,-278.1,-0.9,116.7,114.3,-111.0,0,1380,0,251,0, 
0.7700,173.1,-235.2,-36.3,-12.3,54.9,-108.9,33.0,24.0,-19043.7,-102.6,-70.5,-0.3,-11.4,-51.6,180.9,300.0,-7.2,-5.4,-235.8,-276.0,-0.3,126.9,126.9,-99.6,0,1386,0,252,0, 
0.7733,184.5,-246.9,-50.1,-23.1,50.1,-118.5,28.8,11.1,-14079.0,-121.8,-83.4,-4.8,-20.4,-59.7,187.5,319.5,-6.9,-6.3,-260.4,-287.4,-0.9,114.3,123.6,-113.1,0,1392,0,253,0, 
0.7767,192.0,-246.6,-49.5,-27.0,44.7,-120.6,26.4,7.5,-5631.6,-125.4,-85.2,-15.3,-24.9,-62.7,172.2,317.1,-7.2,-5.7,-258.9,-287.1,-0.3,108.6,126.9,-111.0,0,1398,0,254,0, 
0.7800,179.7,-241.8,-43.8,-24.3,56.4,-114.9,25.8,9.3,-4668.3,-111.3,-70.5,6.6,-15.3,-64.2,178.2,286.5,-6.6,-6.3,-255.3,-275.1,-0.9,122.1,125.1,-99.3,0,1404,0,255,0, 
0.7833,161.7,-237.0,-37.2,-20.1,57.9,-105.6,30.9,15.6,-13486.2,-104.1,-58.5,22.2,-31.2,-72.9,171.3,309.9,-6.9,-6.0,-251.7,-266.1,-0.6,129.0,129.6,-93.6,0,1410,0,0,0, 
0.7867,161.4,-244.2,-48.0,-34.2,47.1,-110.7,30.3,10.5,-19340.1,-109.5,-71.7,0.3,-12.3,-71.7,179.7,311.4,-6.9,-5.7,-261.3,-281.4,-0.3,124.2,126.0,-101.4,0,1416,0,1,0, 
0.7900,184.2,-249.9,-54.6,-33.6,41.1,-117.6,23.4,4.5,-14745.9,-123.0,-79.8,-6.0,-14.4,-69.9,172.2,306.6,-7.2,-5.7,-270.3,-281.4,-0.9,109.5,117.6,-100.8,0,1422,0,2,0, 
0.7933,190.2,-255.9,-63.6,-44.1,30.3,-123.0,21.6,-5.4,-5187.0,-133.5,-83.1,-14.1,-30.0,-77.1,173.4,309.3,-7.2,-6.0,-275.4,-293.7,-0.3,98.4,120.9,-111.9,0,1428,0,3,0, 
0.7967,177.3,-250.2,-60.9,-37.2,39.3,-120.3,21.0,-0.9,-4520.1,-125.4,-81.0,-7.8,-27.6,-79.8,173.1,303.3,-7.2,-6.0,-276.0,-290.4,-0.3,102.9,116.4,-118.2,0,1434,0,4,0, 
0.8000,165.6,-246.6,-56.1,-36.9,37.5,-120.9,19.8,1.5,-12671.1,-114.9,-74.4,-4.5,-17.1,-72.0,185.4,302.4,-6.6,-5.7,-272.7,-283.8,-0.9,116.1,111.9,-116.1,0,1440,0,5,0, 
0.8033,162.6,-245.4,-55.5,-36.3,36.3,-123.9,24.0,0.6,-18525.0,-118.2,-72.9,-14.1,-17.1,-77.7,175.2,310.8,-6.9,-6.0,-272.4,-287.4,-0.6,110.7,122.4,-119.4,0,1446,0,6,0, 
0.8067,180.6,-244.8,-56.1,-36.0,30.0,-122.1,21.3,0.0,-13189.8,-118.2,-76.2,-13.2,-16.8,-74.1,167.4,303.9,-6.9,-5.4,-274.8,-291.3,-0.6,104.7,121.5,-115.5,0,1452,0,7,0, 
0.8100,189.9,-245.1,-56.4,-33.6,34.8,-123.6,16.5,-1.2,-4594.2,-122.7,-76.8,-6.3,-15.3,-80.7,158.4,295.2,-7.2,-5.7,-274.2,-280.2,-0.9,110.7,113.4,-101.4,0,1458,0,8,0, 
0.8133,175.2,-244.8,-58.2,-37.8,27.0,-122.1,13.8,-3.3,-3927.3,-119.4,-73.8,-8.1,-15.0,-74.4,174.3,296.1,-6.9,-5.7,-275.1,-293.1,-0.3,106.5,111.6,-107.4,0,1464,0,9,0, 
0.8167,162.0,-240.3,-52.2,-34.2,39.6,-116.1,20.1,4.5,-13115.7,-111.3,-62.4,4.2,-18.6,-78.6,168.0,297.3,-6.9,-5.7,-265.2,-284.1,-1.2,112.5,114.9,-118.5,0,1470,0,10,0, 
0.8200,160.8,-243.9,-54.9,-36.3,36.0,-136.5,13.8,1.8,-19191.9,-116.4,-69.9,-2.4,-18.0,-75.9,187.8,309.3,-6.6,-5.7,-279.9,-284.1,-0.9,111.9,108.9,-100.8,0,1476,0,11,0, 
0.8233,172.5,-239.7,-46.2,-24.3,51.0,-122.1,23.1,13.5,-14745.9,-120.9,-62.4,5.4,-16.5,-88.5,157.8,308.7,-6.9,-6.0,-276.3,-270.9,-0.9,105.6,115.8,-99.9,0,1482,0,12,0, 
0.8267,186.6,-237.9,-44.4,-18.9,46.8,-119.4,16.8,18.3,-6224.4,-114.0,-63.6,-1.2,-9.0,-85.8,151.2,277.5,-7.2,-5.7,-271.8,-295.8,-0.6,118.2,94.2,-117.6,0,1488,0,13,0, 
0.8300,174.6,-237.6,-40.2,-16.2,54.9,-113.7,18.6,18.6,-5631.6,-113.4,-59.1,7.8,-18.6,-91.5,157.8,294.0,-6.9,-5.4,-268.5,-274.8,-0.6,114.3,103.5,-120.6,0,1494,0,14,0, 
0.8333,160.2,-229.5,-38.7,-16.2,51.3,-117.0,17.7,21.0,-14375.4,-108.6,-58.5,11.4,-16.5,-85.2,179.1,288.6,-7.2,-6.3,-265.8,-283.5,-0.6,111.9,104.1,-99.9,0,1500,0,15,0, 
0.8367,159.6,-232.5,-33.9,-8.4,64.2,-108.3,23.1,23.4,-20377.5,-111.9,-55.8,19.8,-25.5,-86.7,181.5,297.0,-6.6,-5.7,-269.7,-272.4,-0.6,119.1,109.5,-99.6,0,1506,0,16,0, 
0.8400,176.1,-233.7,-34.5,-5.1,60.9,-112.2,25.8,24.0,-15561.0,-113.7,-55.2,18.9,-12.6,-87.9,159.3,293.1,-7.2,-5.1,-265.8,-268.8,-0.9,121.8,108.3,-105.6,0,1512,0,17,0, 
0.8433,181.5,-238.8,-38.1,-7.2,61.8,-108.6,27.3,20.7,-7484.1,-123.0,-59.7,12.9,-16.2,-90.3,152.1,304.2,-7.2,-6.0,-272.1,-276.9,-0.6,108.3,112.8,-111.9,0,1518,0,18,0, 
0.8467,177.0,-234.6,-37.8,-5.7,64.8,-102.6,29.1,23.1,-6965.4,-122.1,-55.5,5.7,-24.6,-87.3,162.6,306.3,-6.9,-5.7,-272.4,-277.5,-0.9,108.3,120.3,-102.6,0,1524,0,19,0, 
0.8500,148.8,-237.3,-41.4,-11.1,57.9,-112.8,23.1,16.2,-15709.2,-123.3,-69.0,-9.9,-21.3,-95.4,171.6,312.9,-6.6,-5.7,-287.4,-291.0,-0.9,99.9,106.2,-120.6,0,1530,0,20,0, 
0.8533,147.9,-237.0,-45.0,-10.8,56.7,-106.5,30.3,18.0,-22081.8,-132.6,-84.0,-24.6,-27.9,-100.5,154.8,315.9,-6.9,-5.7,-293.7,-315.9,-0.3,94.5,118.8,-95.7,0,1536,0,21,0, 
0.8567,171.0,-249.9,-55.5,-18.9,53.7,-106.5,24.3,12.6,-17265.3,-141.6,-93.3,-12.3,-39.9,-94.5,169.8,315.3,-7.2,-6.0,-311.7,-307.8,-0.9,96.9,118.8,-135.0,0,1542,0,22,0, 
0.8600,185.4,-238.2,-38.1,3.0,69.6,-101.7,24.0,20.4,-8299.2,-111.9,-38.7,30.9,-31.8,-87.6,148.2,291.9,-6.9,-5.7,-271.2,-278.1,-0.6,117.9,101.1,-102.9,0,1548,0,23,0, 
0.8633,178.2,-236.7,-38.1,1.5,63.9,-97.8,27.9,14.7,-7335.9,-118.2,-48.9,26.7,-24.9,-93.9,161.1,308.1,-7.2,-6.0,-279.3,-278.4,-0.6,106.5,120.3,-94.8,0,1554,0,24,0, 
0.8667,156.9,-228.0,-30.9,7.2,71.4,-105.6,21.3,18.6,-15190.5,-103.8,-48.0,32.4,-8.7,-99.0,147.6,278.7,-6.9,-6.0,-281.1,-279.6,-0.6,126.6,102.9,-92.4,0,1560,0,25,0, 
0.8700,153.3,-235.8,-42.9,1.5,65.1,-108.0,27.0,13.5,-21414.9,-118.2,-68.1,19.2,-21.9,-101.7,160.8,296.4,-7.2,-5.4,-304.5,-288.6,-0.9,102.0,111.6,-96.9,0,1566,0,26,0, 
0.8733,168.3,-236.4,-39.3,2.4,66.6,-101.4,29.4,15.9,-17858.1,-116.7,-68.1,1.8,-34.5,-97.2,153.3,298.8,-6.6,-5.7,-300.3,-315.0,-0.3,110.1,116.4,-96.6,0,1572,0,27,0, 
0.8767,186.6,-239.7,-45.9,-2.4,61.5,-107.1,27.9,13.5,-9707.1,-125.7,-74.4,-8.1,-15.9,-95.1,156.3,303.9,-6.9,-6.0,-307.5,-306.9,-0.9,104.1,115.2,-100.8,0,1578,0,28,0, 
0.8800,168.6,-244.2,-48.9,-2.7,62.1,-106.5,29.4,15.6,-8966.1,-128.4,-81.6,-5.7,-22.8,-92.7,162.6,301.5,-6.6,-5.7,-320.4,-298.8,-0.6,98.7,125.7,-118.2,0,1584,0,29,0, 
0.8833,161.1,-232.5,-42.3,-0.3,62.7,-102.3,29.7,17.7,-16968.9,-114.0,-75.0,4.8,-16.8,-92.1,163.5,299.4,-7.2,-5.7,-315.3,-299.4,-0.6,117.9,118.8,-96.6,0,1590,0,30,0, 
0.8867,156.3,-234.6,-45.3,-2.4,67.2,-99.6,28.2,19.2,-23637.9,-119.4,-72.3,5.1,-19.5,-91.8,174.9,297.6,-6.6,-6.6,-315.9,-306.0,0.0,117.0,114.0,-96.3,0,1596,0,31,0, 
0.8900,171.3,-245.4,-57.0,-15.3,60.9,-105.0,29.4,8.1,-20081.1,-134.1,-90.9,-18.0,-30.0,-103.8,160.2,315.9,-7.2,-5.7,-336.3,-318.3,-0.6,108.6,129.0,-102.6,0,1602,0,32,0, 
0.8933,178.2,-248.7,-61.2,-19.8,47.1,-111.3,27.3,1.2,-11263.2,-148.5,-96.6,-21.9,-36.9,-107.1,156.3,312.3,-6.6,-6.0,-341.7,-328.5,-0.6,93.6,135.6,-113.1,0,1608,0,33,0, 
0.8967,174.6,-225.6,-35.7,0.9,64.2,-104.7,22.8,12.6,-10522.2,-106.5,-63.3,16.2,-5.1,-99.0,143.7,274.2,-6.6,-5.7,-309.3,-299.7,-0.6,116.7,90.0,-106.2,0,1614,0,34,0, 
0.9000,161.7,-218.7,-29.4,4.5,69.6,-82.5,29.4,18.9,-18673.2,-115.5,-59.4,19.8,-7.2,-102.0,144.6,272.1,-6.9,-6.0,-306.3,-304.8,-0.6,127.2,110.1,-104.7,0,1620,0,35,0, 
0.9033,158.4,-220.8,-27.3,8.1,77.4,-86.1,30.6,20.4,-24156.6,-103.8,-61.5,20.1,-41.7,-99.6,143.7,270.0,-6.9,-5.7,-306.0,-284.1,-0.9,129.3,111.9,-92.7,0,1626,0,36,0, 
0.9067,173.7,-226.2,-41.4,-5.7,58.5,-106.8,24.0,9.3,-20007.0,-106.2,-80.1,0.9,-33.6,-93.9,156.3,262.5,-6.9,-6.0,-327.3,-306.3,-0.3,127.2,103.2,-106.2,0,1632,0,37,0, 
0.9100,179.7,-238.8,-45.9,-7.5,58.5,-101.4,24.9,2.1,-12152.4,-114.0,-79.5,10.2,-17.7,-97.5,160.8,288.0,-7.2,-5.7,-329.7,-301.5,-0.6,113.1,105.0,-103.2,0,1638,0,38,0, 
0.9133,164.7,-239.1,-45.6,-8.7,60.9,-90.6,33.3,6.0,-11040.9,-114.6,-66.9,8.7,-3.6,-107.7,141.6,290.4,-6.9,-5.7,-328.8,-310.8,-0.3,123.3,132.6,-87.9,0,1644,0,39,0, 
0.9167,156.9,-225.0,-35.1,-1.2,68.7,-96.9,27.3,14.1,-18821.4,-106.5,-59.7,12.9,0.0,-97.8,159.9,266.1,-6.9,-6.0,-319.5,-302.1,-0.6,116.4,103.5,-91.2,0,1650,0,40,0, 
0.9200,157.8,-219.6,-30.9,0.9,70.8,-98.1,31.2,15.3,-25119.9,-109.8,-56.7,19.8,-3.6,-102.0,147.0,268.8,-6.9,-6.0,-318.3,-303.6,-0.9,133.8,110.7,-75.9,0,1656,0,41,0, 
0.9233,169.8,-228.6,-42.9,-7.5,61.5,-98.4,32.7,8.1,-22081.8,-120.3,-68.7,5.1,-19.8,-99.3,161.7,283.5,-6.6,-5.4,-333.3,-310.2,-0.9,117.3,109.8,-91.5,0,1662,0,42,0, 
0.9267,177.6,-227.7,-41.1,-9.3,64.8,-96.9,33.0,6.6,-13708.5,-120.9,-73.8,9.6,-24.0,-104.4,135.9,279.0,-6.6,-5.7,-336.9,-306.9,-0.3,115.2,105.6,-92.1,0,1668,0,43,0, 
0.9300,174.6,-221.7,-39.6,-7.8,64.5,-89.7,37.2,12.6,-12374.7,-106.2,-72.6,9.9,-12.3,-105.9,141.9,268.8,-7.2,-5.1,-335.4,-303.9,-0.9,117.0,107.7,-112.8,0,1674,0,44,0, 
0.9333,158.4,-229.8,-51.6,-15.9,66.9,-88.8,37.8,8.1,-19784.7,-110.1,-79.8,12.0,-21.0,-102.6,152.1,283.2,-6.9,-6.0,-348.3,-309.0,-0.9,115.5,117.9,-107.4,0,1680,0,45,0, 
0.9367,157.5,-228.0,-51.3,-18.9,56.4,-100.2,29.7,6.0,-25860.9,-114.3,-86.4,-3.0,-41.7,-98.1,171.3,282.9,-7.2,-5.7,-352.5,-333.9,-0.6,110.4,103.5,-96.3,0,1686,0,46,0, 
0.9400,170.1,-226.2,-42.3,-13.5,66.0,-87.9,31.2,11.1,-22081.8,-113.4,-78.6,8.4,-2.1,-104.7,137.1,259.8,-7.2,-6.3,-336.6,-322.5,-0.6,115.5,102.9,-95.7,0,1692,0,47,0, 
0.9433,171.0,-242.1,-66.0,-33.6,39.6,-108.9,32.7,-4.5,-13930.8,-122.1,-97.8,-21.3,-29.4,-121.2,135.3,293.7,-6.9,-5.7,-369.3,-334.5,-0.9,100.5,108.9,-123.9,0,1698,0,48,0, 
0.9467,169.5,-232.2,-53.1,-22.8,52.5,-99.0,26.4,2.7,-12522.9,-126.6,-84.6,1.2,-18.9,-113.7,135.6,256.8,-6.6,-6.3,-354.9,-318.3,-0.3,94.2,103.2,-94.5,0,1704,0,49,0, 
0.9500,151.8,-229.2,-55.2,-27.3,44.7,-94.8,29.7,-0.6,-20155.2,-103.2,-86.1,-3.3,-18.3,-107.4,151.5,271.2,-7.2,-6.3,-349.5,-326.1,-0.9,133.5,114.6,-103.2,0,1710,0,50,0, 
0.9533,154.2,-221.1,-44.4,-20.1,55.2,-87.9,35.4,6.3,-26898.3,-107.7,-70.5,9.6,-9.0,-118.5,136.8,277.2,-7.2,-5.4,-340.8,-311.1,-0.9,121.8,116.1,-101.4,0,1716,0,51,0, 
0.9567,170.1,-223.2,-49.8,-21.3,53.1,-96.0,25.2,3.0,-22748.7,-111.3,-78.3,-0.6,-21.3,-115.8,135.9,252.3,-6.9,-6.3,-353.4,-315.9,-1.2,123.3,92.7,-90.6,0,1722,0,52,0, 
0.9600,183.6,-230.1,-56.1,-29.7,47.4,-101.1,24.3,-1.2,-15338.7,-116.1,-91.8,-12.3,-31.5,-109.8,149.1,255.6,-7.2,-6.3,-367.5,-332.4,-0.6,113.7,102.3,-89.1,0,1728,0,53,0, 
0.9633,169.2,-237.6,-60.0,-29.7,45.6,-95.4,27.6,-3.6,-13560.3,-111.6,-90.3,-10.2,-31.5,-125.1,137.1,272.7,-7.2,-5.7,-366.9,-336.6,-0.9,110.1,108.9,-91.2,0,1734,0,54,0, 
0.9667,156.6,-229.5,-47.4,-18.6,59.4,-85.8,37.2,4.8,-21340.8,-107.7,-72.6,11.4,-12.3,-125.1,127.8,274.8,-6.9,-5.7,-354.0,-312.9,-0.6,123.9,115.8,-98.1,0,1740,0,55,0, 
0.9700,157.5,-222.3,-39.0,-11.7,64.8,-77.1,33.6,11.1,-27417.0,-102.3,-64.2,11.1,-17.1,-118.2,146.1,249.0,-6.9,-5.7,-341.7,-317.7,-0.9,123.6,104.1,-86.4,0,1746,0,56,0, 
0.9733,171.9,-220.2,-37.8,-7.8,70.8,-70.5,33.0,12.0,-23934.3,-102.9,-57.6,6.9,-11.7,-127.2,126.3,243.0,-6.9,-5.7,-337.5,-302.7,-0.6,120.6,100.5,-98.4,0,1752,0,57,0, 
0.9767,176.7,-214.2,-41.7,-15.0,62.7,-94.5,28.2,4.2,-15635.1,-109.2,-75.3,-1.5,-20.7,-123.9,140.7,256.8,-6.9,-6.0,-354.0,-324.6,-0.6,120.3,103.8,-102.6,0,1758,0,58,0, 
0.9800,171.6,-222.9,-35.7,-9.0,70.8,-84.6,31.2,6.6,-14820.0,-105.6,-70.2,12.6,-20.1,-128.4,131.4,258.3,-6.9,-6.0,-348.9,-319.2,-0.6,130.2,110.7,-86.1,0,1764,0,59,0, 
0.9833,146.4,-224.4,-28.8,-5.1,76.5,-81.9,32.1,10.5,-22378.2,-104.7,-59.4,23.7,-12.9,-130.2,138.6,269.7,-7.2,-6.0,-339.3,-312.9,-0.6,120.3,118.8,-82.2,0,1770,0,60,0, 
0.9867,152.4,-225.0,-38.4,-8.4,74.1,-79.2,34.2,10.5,-28009.8,-97.8,-62.1,23.4,-14.1,-125.1,139.8,260.7,-7.2,-6.0,-356.4,-307.8,-0.6,127.5,114.6,-88.2,0,1776,0,61,0, 
0.9900,165.3,-236.4,-47.7,-19.5,62.7,-87.9,33.6,0.3,-24082.5,-105.0,-77.7,0.6,-13.2,-120.9,165.0,288.6,-6.6,-5.7,-361.5,-326.4,-0.6,123.9,126.3,-101.4,0,1782,0,62,0, 
0.9933,186.6,-224.1,-37.8,-13.8,68.1,-83.1,35.4,7.8,-15116.4,-111.6,-73.5,-0.9,-19.8,-119.1,147.0,273.0,-6.9,-5.7,-355.5,-327.9,-0.6,118.5,123.3,-106.2,0,1788,0,63,0, 
0.9967,168.3,-227.1,-26.7,-3.9,81.3,-74.7,34.2,11.7,-13189.8,-89.4,-55.8,20.4,-11.7,-119.4,138.0,256.5,-6.9,-6.3,-338.1,-304.8,-0.6,133.5,119.7,-84.6,0,1794,0,64,0, 
1.0000,158.7,-202.8,-11.7,-3.0,82.8,-74.1,36.0,16.5,-20451.6,-95.1,-59.1,18.0,-6.9,-118.2,141.3,261.3,-6.9,-5.7,-337.5,-311.4,-0.9,129.6,116.1,-90.3,0,1800,0,65,0, 
1.0033,153.0,-229.5,-42.3,-21.6,62.4,-85.8,32.4,3.3,-26157.3,-113.4,-77.4,-4.5,-15.6,-126.9,152.1,273.6,-6.3,-5.4,-360.3,-335.4,-0.3,109.2,122.1,-102.0,0,1806,0,66,0, 
1.0067,172.2,-231.9,-43.2,-17.4,66.3,-84.0,30.6,10.5,-21340.8,-94.2,-69.6,5.4,-15.3,-122.1,133.5,243.3,-6.6,-6.0,-353.7,-318.9,-0.6,133.2,105.6,-109.8,0,1812,0,67,0, 
1.0100,181.2,-222.3,-27.6,-12.6,70.2,-84.6,31.2,11.7,-11559.6,-93.3,-65.4,14.4,-2.7,-128.4,115.5,236.4,-6.6,-5.4,-357.6,-321.3,-0.6,128.1,105.6,-89.7,0,1818,0,68,0, 
1.0133,176.4,-211.8,-21.9,-5.7,72.0,-78.6,36.9,14.1,-9114.3,-93.9,-64.5,8.7,7.5,-132.9,112.8,246.0,-7.2,-6.0,-344.4,-330.9,-0.3,126.6,112.8,-92.1,0,1824,0,69,0, 
1.0167,160.5,-213.0,-23.1,-6.9,72.6,-75.6,36.9,16.2,-15486.9,-89.7,-62.7,14.1,-11.7,-123.0,135.3,257.1,-6.9,-5.7,-352.5,-319.8,-0.6,128.4,115.5,-97.5,0,1830,0,70,0, 
1.0200,167.1,-191.4,-4.8,9.0,86.1,-62.4,37.8,28.2,-20229.3,-89.7,-44.4,36.9,-5.4,-118.5,127.2,231.0,-7.2,-6.0,-336.6,-307.2,-0.6,140.1,102.9,-89.1,0,1836,0,71,0, 
1.0233,175.2,-229.2,-23.7,-7.2,68.1,-77.7,40.2,14.4,-15190.5,-94.2,-64.2,20.4,-1.8,-129.9,139.8,264.0,-7.2,-6.0,-349.5,-319.5,-0.6,130.8,132.9,-89.1,0,1842,0,72,0, 
1.0267,191.4,-220.8,-26.4,-9.0,71.1,-82.2,35.4,14.7,-5779.8,-106.5,-65.7,10.2,-8.1,-126.9,135.9,244.5,-7.2,-6.0,-351.0,-322.5,-0.9,112.8,114.9,-85.8,0,1848,0,73,0, 
1.0300,180.9,-223.5,-30.9,-4.8,75.6,-75.3,34.5,15.9,-2964.0,-84.9,-58.8,23.7,6.3,-128.4,118.8,245.1,-7.2,-6.0,-346.2,-306.0,-0.3,136.2,111.3,-76.2,0,1854,0,74,0, 
1.0333,171.0,-205.2,-20.4,-3.6,79.2,-66.9,37.8,18.9,-8892.0,-80.4,-54.0,19.8,15.9,-120.6,131.7,241.5,-7.2,-6.0,-344.7,-315.0,-0.6,147.9,119.7,-73.5,0,1860,0,75,0, 
1.0367,169.8,-201.3,-19.5,0.0,82.8,-66.9,36.9,24.0,-13708.5,-94.2,-46.2,23.1,21.6,-122.7,127.2,239.1,-7.2,-5.4,-337.8,-296.1,-0.6,132.9,118.2,-79.2,0,1866,0,76,0, 
1.0400,188.1,-207.0,-22.8,-6.6,72.3,-81.0,36.6,17.1,-9262.5,-90.0,-69.0,3.3,-14.7,-125.1,127.5,252.6,-7.2,-6.3,-354.0,-322.5,-0.6,128.4,116.1,-93.0,0,1872,0,77,0, 
1.0433,182.4,-233.1,-39.0,-17.7,68.1,-84.0,33.9,10.8,444.6,-108.0,-74.4,3.6,-35.1,-140.4,121.8,262.8,-6.6,-6.0,-361.5,-321.0,-0.3,126.6,129.3,-93.3,0,1878,0,78,0, 
1.0467,179.4,-211.2,-29.7,-6.6,75.9,-86.4,25.8,16.2,3334.5,-92.7,-58.8,22.5,-6.6,-125.4,132.6,231.9,-6.9,-5.4,-355.2,-306.6,-0.6,126.0,93.9,-87.9,0,1884,0,79,0, 
1.0500,156.6,-213.9,-26.4,-10.5,75.9,-82.8,26.4,11.1,-2741.7,-105.3,-57.6,23.1,-18.0,-126.9,143.1,243.3,-6.9,-5.7,-351.9,-305.1,-0.3,131.7,100.5,-86.4,0,1890,0,80,0, 
1.0533,161.7,-212.4,-30.0,-12.0,79.8,-74.1,36.6,20.4,-7261.8,-78.0,-60.3,20.4,-5.7,-132.3,124.2,248.7,-7.2,-5.7,-362.7,-323.1,-0.3,132.3,115.5,-88.2,0,1896,0,81,0, 
1.0567,179.4,-216.9,-33.9,-15.6,61.5,-88.5,29.4,14.1,-2667.6,-93.9,-61.5,9.0,3.6,-128.7,125.7,236.1,-6.6,-5.7,-353.7,-324.6,-0.3,139.5,113.4,-87.6,0,1902,0,82,0, 
1.0600,184.8,-227.1,-49.5,-26.7,57.0,-88.2,30.9,2.4,6520.8,-103.2,-75.3,-7.5,-12.9,-132.9,132.3,253.5,-6.9,-6.0,-376.5,-327.6,-0.9,118.5,122.7,-102.0,0,1908,0,83,0, 
1.0633,179.1,-213.6,-33.9,-22.8,53.4,-84.9,29.4,6.3,9040.2,-102.6,-76.2,5.4,-13.8,-130.2,136.5,250.8,-7.2,-5.4,-367.8,-328.2,-0.6,111.3,123.6,-111.3,0,1914,0,84,0, 
1.0667,162.9,-197.4,-27.9,-25.2,53.1,-83.7,32.7,8.7,3705.0,-105.0,-76.2,-5.7,-11.1,-126.0,140.7,245.7,-6.9,-6.0,-367.2,-333.9,-0.3,117.0,129.9,-108.6,0,1920,0,85,0, 
1.0700,167.7,-217.5,-43.8,-26.7,58.2,-73.8,43.5,11.4,-1852.5,-83.7,-69.6,3.6,-16.2,-125.7,134.1,262.5,-6.9,-6.0,-357.0,-324.9,-0.3,145.8,133.8,-98.4,0,1926,0,86,0, 
1.0733,186.0,-207.6,-33.6,-18.6,63.3,-75.9,35.7,16.2,3186.3,-87.0,-65.4,12.9,-15.9,-122.7,123.0,225.6,-6.6,-5.7,-367.2,-323.7,-0.3,141.9,102.0,-68.4,0,1932,0,87,0, 
1.0767,195.0,-218.4,-42.3,-27.6,57.3,-77.4,37.8,9.0,12745.2,-105.0,-82.8,1.2,-8.4,-128.4,132.0,249.3,-7.2,-6.0,-375.9,-326.4,0.0,123.6,117.9,-87.3,0,1938,0,88,0, 
1.0800,178.5,-213.3,-31.8,-21.0,63.6,-78.9,37.2,12.3,15338.7,-96.0,-69.0,12.6,-3.9,-130.8,117.3,239.7,-6.9,-6.0,-360.6,-318.9,-0.6,134.1,121.2,-89.7,0,1944,0,89,0, 
1.0833,160.8,-218.4,-51.0,-25.8,66.0,-73.2,45.0,11.4,9040.2,-95.7,-70.5,7.5,2.7,-131.1,133.8,250.2,-6.6,-5.7,-375.6,-318.6,-0.3,129.0,133.2,-97.5,0,1950,0,90,0, 
1.0867,163.5,-198.0,-23.1,-14.7,72.0,-74.1,42.3,20.1,4223.7,-108.3,-68.4,12.9,-3.9,-127.5,126.3,243.3,-7.2,-6.0,-359.4,-311.1,-0.6,130.5,122.4,-94.5,0,1956,0,91,0, 
1.0900,165.3,-232.2,-56.1,-34.2,49.2,-75.9,47.7,6.3,8817.9,-99.0,-85.5,-15.6,-34.8,-139.8,139.5,280.2,-7.2,-5.7,-385.5,-354.3,-0.6,126.6,145.8,-91.2,0,1962,0,92,0, 
1.0933,188.1,-208.5,-29.4,-10.5,82.5,-60.9,41.7,21.0,18228.6,-99.3,-69.3,12.6,5.1,-138.3,106.8,212.1,-6.9,-5.4,-363.3,-310.5,-0.6,109.8,124.8,-79.8,0,1968,0,93,0, 
1.0967,180.3,-205.8,-24.6,-10.2,74.4,-78.6,42.9,22.5,20451.6,-90.6,-60.9,12.3,7.8,-130.8,120.6,238.8,-6.6,-6.0,-359.1,-315.3,-0.9,141.9,132.9,-92.7,0,1974,0,94,0, 
1.1000,160.8,-199.2,-25.5,-8.7,75.0,-73.2,37.2,23.1,14301.3,-80.1,-54.6,14.4,11.1,-130.2,129.3,241.5,-7.2,-6.0,-350.4,-320.1,-1.2,156.6,123.6,-72.0,0,1980,0,95,0, 
1.1033,160.8,-200.7,-16.5,-0.6,91.5,-60.3,40.8,27.9,9929.4,-71.1,-39.6,38.1,-5.4,-135.0,122.1,219.9,-6.9,-5.7,-337.8,-298.2,-0.6,150.3,120.3,-66.6,0,1986,0,96,0, 
1.1067,182.7,-182.1,-10.8,-6.3,80.7,-72.0,42.0,25.2,15042.3,-91.8,-50.1,16.8,16.8,-129.3,126.6,234.3,-7.2,-6.0,-340.5,-313.2,-0.9,144.0,126.3,-94.2,0,1992,0,97,0, 
1.1100,186.6,-206.1,-36.9,-15.9,72.3,-77.7,40.5,15.0,24156.6,-80.7,-64.2,13.2,-0.3,-129.9,128.1,246.9,-6.6,-5.7,-359.4,-319.2,-0.9,135.9,135.0,-88.5,0,1998,0,98,0, 
1.1133,174.9,-208.2,-28.5,-16.2,75.9,-79.2,36.6,11.4,26750.1,-79.5,-56.7,18.6,-3.0,-132.3,137.7,256.8,-6.6,-5.7,-348.6,-317.4,-0.9,145.8,134.4,-90.3,0,2004,0,99,0, 
1.1167,162.0,-203.1,-30.3,-13.5,82.8,-68.7,41.4,19.2,20748.0,-68.4,-49.2,28.8,12.0,-132.3,132.9,255.3,-6.9,-6.0,-344.1,-297.6,-0.9,153.9,139.5,-81.9,0,2010,0,100,0, 
1.1200,159.6,-191.4,-15.0,-9.6,85.8,-67.8,41.4,26.7,16005.6,-79.8,-48.3,21.0,4.5,-137.1,124.8,238.2,-6.9,-6.0,-335.4,-317.1,-0.6,144.3,136.2,-91.2,0,2016,0,101,0, 
1.1233,178.5,-210.6,-33.9,-15.3,81.0,-74.7,34.2,20.4,20229.3,-69.9,-59.4,16.8,4.2,-130.2,129.6,230.4,-6.6,-6.0,-357.6,-307.8,-0.6,144.3,138.6,-97.5,0,2022,0,102,0, 
1.1267,184.2,-218.7,-45.9,-25.2,71.1,-87.9,30.6,9.3,28750.8,-89.4,-64.2,3.9,1.8,-135.3,135.9,250.2,-6.9,-5.7,-364.2,-315.6,-0.9,124.2,137.7,-102.0,0,2028,0,103,0, 
1.1300,175.5,-211.8,-42.3,-30.9,59.1,-92.7,27.9,9.0,30455.1,-89.4,-70.2,6.3,-4.5,-137.1,131.7,241.5,-7.2,-5.7,-364.5,-330.0,-0.9,133.2,129.9,-98.1,0,2034,0,104,0, 
1.1333,164.1,-198.0,-27.0,-17.1,77.7,-81.3,31.8,21.0,24230.7,-69.6,-53.4,18.3,-3.3,-131.1,129.9,228.6,-6.9,-6.0,-351.6,-312.3,-0.9,148.5,135.0,-73.5,0,2040,0,105,0, 
1.1367,151.8,-218.1,-45.9,-35.1,62.1,-86.1,34.2,11.1,19414.2,-76.2,-66.6,8.1,-8.7,-146.1,132.9,258.0,-7.2,-5.7,-364.8,-332.4,-0.9,137.1,142.2,-108.6,0,2046,0,106,0, 
1.1400,171.6,-208.2,-43.5,-32.7,67.2,-87.9,32.7,10.8,23860.2,-84.3,-79.8,6.6,-9.6,-141.9,130.2,248.7,-6.9,-6.0,-379.5,-335.1,-1.2,134.4,138.3,-99.3,0,2052,0,107,0, 
1.1433,187.2,-214.2,-39.9,-22.2,76.2,-78.3,27.0,14.7,31937.1,-74.4,-56.4,24.3,7.8,-135.0,124.2,216.3,-6.9,-6.0,-355.5,-317.4,-0.6,133.8,127.2,-76.2,0,2058,0,108,0, 
1.1467,174.0,-211.2,-41.7,-31.5,62.4,-84.3,27.0,5.4,34086.0,-88.5,-68.7,6.0,-9.9,-146.4,129.6,245.4,-6.6,-5.7,-364.5,-318.6,-0.9,145.8,136.2,-72.0,0,2064,0,109,0, 
1.1500,162.6,-202.2,-29.7,-22.2,71.4,-74.4,30.9,13.2,27268.8,-83.4,-51.6,17.1,5.1,-137.4,132.6,222.6,-6.9,-5.7,-346.2,-311.1,-0.3,143.7,135.3,-87.3,0,2070,0,110,0, 
1.1533,164.1,-209.7,-42.3,-27.3,72.0,-71.4,36.0,10.2,21933.6,-78.6,-56.7,19.2,-7.8,-143.1,129.3,234.9,-7.2,-6.0,-354.6,-313.2,-0.9,148.2,141.9,-99.6,0,2076,0,111,0, 
1.1567,176.7,-199.8,-35.7,-33.0,60.0,-71.7,33.9,9.3,25712.7,-86.1,-77.4,8.4,-7.5,-141.6,129.0,231.6,-6.6,-6.0,-369.3,-328.5,-0.3,147.9,135.9,-99.6,0,2082,0,112,0, 
1.1600,186.3,-205.5,-48.0,-30.9,68.7,-80.4,27.9,8.7,33493.2,-77.4,-74.7,15.9,6.9,-143.7,124.2,239.7,-6.9,-5.7,-361.8,-317.1,-0.6,137.1,126.9,-91.2,0,2088,0,113,0, 
1.1633,171.3,-219.3,-46.5,-34.2,59.4,-82.5,29.7,7.2,33937.8,-84.0,-69.6,12.0,-3.9,-153.9,119.7,237.3,-6.9,-6.0,-363.0,-324.3,-0.9,131.1,127.5,-81.9,0,2094,0,114,0, 
1.1667,158.1,-202.8,-33.6,-22.5,63.6,-71.4,34.2,14.7,26379.6,-71.4,-55.5,18.9,-7.5,-150.6,130.2,236.7,-6.9,-5.4,-346.2,-318.3,-0.3,156.3,141.0,-81.3,0,2100,0,115,0, 
1.1700,160.8,-198.9,-28.5,-19.2,71.7,-67.5,37.8,18.0,20822.1,-75.9,-54.3,25.5,5.4,-153.3,126.0,244.8,-6.9,-6.0,-354.9,-306.6,-0.3,138.9,143.1,-82.2,0,2106,0,116,0, 
1.1733,174.3,-212.4,-43.5,-28.5,67.8,-71.1,37.8,12.6,24897.6,-84.9,-72.6,8.7,15.3,-148.2,133.5,241.5,-6.9,-5.7,-367.5,-329.4,-0.9,142.2,139.8,-81.3,0,2112,0,117,0, 
1.1767,178.5,-198.3,-32.4,-27.6,64.8,-72.9,34.2,15.3,31640.7,-96.0,-70.2,11.1,-18.0,-158.4,115.8,229.8,-7.5,-6.0,-367.8,-330.6,-0.6,139.2,132.9,-86.1,0,2118,0,118,0, 
1.1800,171.6,-205.2,-36.3,-23.1,69.6,-67.8,38.4,21.3,29565.9,-83.4,-64.8,12.0,0.9,-154.8,124.2,226.5,-6.9,-5.4,-363.0,-316.8,-0.6,155.1,125.7,-77.1,0,2124,0,119,0, 
1.1833,151.8,-211.2,-39.0,-24.0,70.5,-64.8,38.4,19.8,20155.2,-79.8,-64.2,12.6,-2.1,-162.3,128.1,235.2,-6.9,-5.7,-361.8,-314.4,-0.9,147.0,135.6,-79.5,0,2130,0,120,0, 
1.1867,156.0,-208.8,-49.2,-31.5,60.6,-74.4,39.9,18.3,13782.6,-104.4,-84.9,-4.8,-0.9,-159.3,132.3,246.6,-7.2,-6.0,-382.2,-342.0,-0.9,126.0,137.7,-113.4,0,2136,0,121,0, 
1.1900,175.2,-211.5,-45.6,-32.7,61.8,-76.8,37.2,19.2,17339.4,-98.4,-96.9,-14.7,-17.1,-164.4,120.3,230.1,-7.5,-6.0,-389.7,-341.1,-0.3,117.0,125.1,-107.7,0,2142,0,122,0, 
1.1933,182.1,-215.4,-50.1,-35.4,56.4,-76.2,35.7,17.4,23267.4,-94.8,-98.4,-18.3,-3.0,-161.1,124.8,234.9,-7.2,-5.7,-390.6,-349.5,-0.6,123.0,136.8,-93.6,0,2148,0,123,0, 
1.1967,170.4,-211.2,-50.4,-36.6,55.5,-75.9,37.2,18.3,21340.8,-89.1,-89.1,-9.0,-15.0,-158.7,120.9,237.9,-6.6,-5.7,-381.9,-349.2,-0.6,145.8,142.5,-93.3,0,2154,0,124,0, 
1.2000,155.1,-198.3,-41.4,-28.5,70.5,-69.0,32.7,21.3,11633.7,-62.1,-64.5,22.5,-18.0,-149.7,138.3,236.1,-7.2,-6.3,-364.8,-322.2,0.0,157.8,134.4,-96.0,0,2160,0,125,0, 
1.2033,156.9,-210.3,-35.4,-21.9,72.6,-65.4,38.4,19.8,5261.1,-54.6,-53.1,35.7,4.8,-152.7,140.7,242.4,-6.9,-6.3,-350.7,-300.0,-0.6,160.5,147.9,-84.9,0,2166,0,126,0, 
1.2067,171.9,-213.9,-46.8,-32.4,67.2,-70.8,34.2,16.2,8595.6,-74.1,-75.0,15.0,0.0,-150.0,137.7,234.6,-7.5,-6.0,-371.7,-321.0,-0.3,149.1,141.3,-113.7,0,2172,0,127,0, 
1.2100,189.3,-211.5,-44.1,-36.9,65.4,-78.9,28.2,14.1,15042.3,-77.7,-87.9,1.8,1.5,-147.0,143.7,246.3,-6.9,-5.7,-376.2,-324.9,-0.6,144.3,138.9,-94.2,0,2178,0,128,0, 
1.2133,172.5,-206.1,-42.0,-30.0,66.6,-73.8,33.6,17.7,14153.1,-70.5,-85.8,3.0,-0.9,-143.1,131.7,238.5,-7.2,-5.4,-379.2,-325.5,-0.6,160.2,141.6,-84.6,0,2184,0,129,0, 
1.2167,158.7,-207.0,-44.4,-26.1,76.5,-63.6,35.7,23.4,4964.7,-56.1,-73.5,10.5,0.9,-145.5,134.4,241.2,-6.9,-6.3,-368.4,-314.4,-0.6,164.7,144.6,-80.7,0,2190,0,130,0, 
1.2200,159.0,-193.2,-27.6,-21.0,76.2,-59.7,40.8,26.7,-889.2,-62.7,-67.5,15.3,6.9,-144.0,131.1,238.8,-7.2,-5.4,-364.5,-316.8,-0.9,166.8,142.2,-84.0,0,2196,0,131,0, 
1.2233,172.2,-210.6,-45.9,-30.9,76.2,-62.7,42.6,23.1,2964.0,-71.7,-83.4,0.6,5.7,-146.4,135.3,251.4,-6.9,-6.0,-379.8,-322.2,0.0,156.3,139.8,-78.0,0,2202,0,132,0, 
1.2267,176.4,-213.9,-50.4,-36.9,60.9,-72.9,36.9,17.4,9558.9,-91.2,-81.9,-6.3,1.5,-153.3,120.0,234.3,-6.6,-5.7,-377.1,-348.9,-0.6,142.5,140.1,-99.3,0,2208,0,133,0, 
1.2300,158.1,-199.8,-32.1,-26.7,69.0,-66.0,36.6,23.1,8743.8,-79.5,-73.2,13.2,8.7,-159.0,120.6,226.2,-7.2,-6.0,-368.7,-312.9,-0.6,136.5,131.4,-100.8,0,2214,0,134,0, 
1.2333,147.9,-202.8,-49.8,-40.5,63.3,-71.7,41.4,18.3,370.5,-62.1,-81.9,-6.0,4.8,-151.2,133.8,243.3,-6.9,-6.0,-367.5,-330.0,-0.6,162.6,147.0,-97.8,0,2220,0,135,0, 
1.2367,148.5,-202.5,-41.1,-34.8,63.3,-72.3,39.3,20.4,-5187.0,-70.5,-75.6,-6.9,-5.1,-154.8,129.0,233.7,-6.6,-5.7,-366.9,-334.2,-0.6,151.5,138.3,-99.6,0,2226,0,136,0, 
1.2400,160.8,-220.2,-52.5,-42.6,57.6,-70.5,37.5,14.1,-1407.9,-77.7,-84.3,-5.1,-5.1,-157.2,122.4,239.1,-6.9,-5.7,-371.1,-330.6,-0.6,140.1,131.4,-98.4,0,2232,0,137,0, 
1.2433,179.4,-208.5,-58.8,-44.4,54.6,-73.5,37.2,12.3,5335.2,-75.0,-94.8,-10.8,-20.7,-147.6,121.2,237.3,-6.9,-6.3,-383.1,-335.4,-0.3,149.4,136.8,-105.6,0,2238,0,138,0, 
1.2467,168.6,-198.9,-43.8,-34.8,60.3,-72.9,36.9,18.0,4446.0,-79.8,-81.0,-1.2,-8.7,-153.6,127.2,239.1,-6.6,-5.7,-364.2,-331.5,-0.9,144.9,133.5,-95.1,0,2244,0,139,0, 
1.2500,147.3,-206.7,-39.3,-33.3,63.3,-64.8,39.9,22.2,-4075.5,-70.2,-75.0,2.1,19.5,-151.2,133.2,251.7,-6.9,-5.7,-359.4,-321.6,0.0,153.3,141.0,-92.4,0,2250,0,140,0, 
1.2533,154.2,-207.6,-45.9,-40.5,54.0,-75.9,36.3,14.4,-9262.5,-73.2,-78.0,0.3,-0.3,-155.4,132.9,249.0,-6.6,-5.7,-365.1,-330.9,0.0,151.8,140.7,-82.5,0,2256,0,141,0, 
1.2567,176.1,-200.7,-55.5,-43.8,62.1,-71.1,37.8,16.8,-5853.9,-73.5,-90.6,3.3,17.4,-144.9,126.3,236.1,-7.2,-5.7,-380.1,-326.1,-0.3,144.0,128.7,-99.6,0,2262,0,142,0, 
1.2600,180.3,-212.7,-55.8,-41.1,61.2,-73.2,33.0,12.9,889.2,-74.1,-84.0,-3.3,-19.5,-154.2,116.1,231.0,-7.2,-5.7,-369.0,-331.5,-0.6,145.8,126.6,-93.9,0,2268,0,143,0, 
1.2633,168.3,-213.6,-57.0,-47.4,53.4,-77.7,34.2,11.1,0.0,-73.5,-90.9,-7.5,7.5,-145.2,132.9,244.2,-6.9,-6.0,-367.5,-332.4,-0.6,150.6,139.5,-87.9,0,2274,0,144,0, 
1.2667,155.7,-195.3,-43.8,-37.2,62.1,-75.3,34.2,15.9,-8669.7,-63.9,-86.1,4.5,-6.9,-144.6,130.2,223.8,-7.2,-6.0,-363.3,-324.0,-0.6,146.7,133.5,-90.6,0,2280,0,145,0, 
1.2700,155.1,-183.9,-35.7,-39.3,51.6,-80.1,33.6,13.2,-15042.3,-85.8,-95.1,-8.1,-14.1,-154.5,139.5,255.3,-6.9,-5.7,-361.2,-333.9,-0.6,139.2,131.1,-107.4,0,2286,0,146,0, 
1.2733,172.2,-228.6,-69.0,-50.7,47.1,-81.3,34.5,6.3,-11411.4,-71.4,-90.6,-13.2,-45.6,-139.2,133.8,235.5,-6.6,-6.0,-374.4,-342.3,-0.6,155.4,137.7,-115.8,0,2292,0,147,0, 
1.2767,181.8,-193.2,-38.7,-45.0,53.1,-82.5,25.8,7.5,-5261.1,-88.5,-85.2,-3.9,28.5,-144.6,132.9,220.2,-6.9,-5.7,-367.8,-336.3,-0.6,141.9,125.7,-98.1,0,2298,0,148,0, 
1.2800,158.4,-230.1,-48.3,-44.4,55.5,-78.3,30.9,7.8,-6743.1,-57.3,-75.6,11.4,1.8,-155.7,130.5,219.9,-6.9,-5.1,-356.4,-324.0,-0.6,160.8,129.0,-82.8,0,2304,0,149,0, 
1.2833,153.6,-212.4,-55.2,-49.8,55.2,-79.5,29.7,10.2,-15857.4,-60.0,-77.4,12.3,9.9,-146.7,138.9,222.9,-7.2,-6.0,-357.9,-323.4,-0.9,160.8,129.6,-93.9,0,2310,0,150,0, 
1.2867,161.1,-198.0,-37.2,-36.3,63.6,-76.2,31.5,17.4,-22230.0,-56.1,-69.3,16.5,6.3,-146.4,131.7,214.5,-6.6,-6.0,-347.7,-316.2,-0.9,167.4,128.4,-82.2,0,2316,0,151,0, 
1.2900,169.8,-214.2,-54.6,-47.4,56.1,-80.1,36.3,8.7,-19191.9,-66.6,-86.1,1.2,0.0,-149.4,121.8,229.8,-7.2,-6.0,-357.9,-329.7,-0.9,152.1,137.7,-110.4,0,2322,0,152,0, 
1.2933,167.7,-221.4,-65.7,-55.8,45.3,-87.9,33.3,-1.8,-13263.9,-81.9,-99.3,-4.2,3.6,-156.6,119.1,221.7,-7.5,-5.7,-377.1,-331.8,-0.6,137.1,131.1,-108.9,0,2328,0,153,0, 
1.2967,155.7,-222.6,-60.3,-54.3,48.0,-87.3,32.4,4.2,-14449.5,-62.4,-89.1,-3.3,-21.9,-161.7,120.6,212.4,-7.5,-6.3,-368.4,-329.4,-0.9,154.5,122.1,-104.1,0,2334,0,154,0, 
1.3000,141.6,-220.2,-63.3,-55.8,51.6,-84.0,38.1,3.0,-23637.9,-75.0,-91.5,-1.8,-11.7,-157.8,129.3,231.3,-6.9,-6.3,-369.9,-325.8,-0.6,155.7,140.1,-105.9,0,2340,0,155,0, 
1.3033,139.2,-226.8,-72.0,-62.7,45.3,-89.7,36.0,-2.1,-30381.0,-84.6,-98.1,-15.9,-23.1,-157.8,129.9,230.7,-6.6,-5.4,-377.1,-336.9,-0.6,144.6,129.6,-112.5,0,2346,0,156,0, 
1.3067,154.5,-223.5,-70.5,-62.1,45.6,-89.7,30.9,-3.0,-27565.2,-83.4,-109.5,-21.6,-17.4,-154.8,126.6,216.9,-6.6,-6.0,-385.5,-345.0,-0.6,141.0,119.1,-108.3,0,2352,0,157,0, 
1.3100,157.5,-231.6,-78.0,-71.1,34.8,-97.2,32.4,-11.1,-21192.6,-101.4,-117.3,-32.1,-34.5,-165.3,124.2,234.6,-7.2,-5.7,-392.7,-357.0,-0.6,121.5,131.7,-117.9,0,2358,0,158,0, 
1.3133,156.0,-220.2,-61.8,-56.1,50.1,-90.3,35.1,4.5,-22674.6,-87.0,-97.5,-5.7,-21.0,-165.3,102.3,209.7,-6.6,-5.4,-374.1,-333.3,-0.6,141.6,127.2,-104.4,0,2364,0,159,0, 
1.3167,148.8,-217.8,-60.6,-57.0,49.5,-91.2,35.4,3.6,-32159.4,-81.9,-101.1,-10.8,-15.6,-153.3,139.8,224.4,-6.6,-6.3,-372.9,-333.6,-0.6,143.7,126.3,-105.3,0,2370,0,160,0, 
1.3200,152.4,-207.9,-50.7,-45.6,62.4,-80.1,41.7,15.0,-37716.9,-77.1,-88.5,3.9,-16.2,-151.8,115.8,206.1,-6.9,-6.0,-357.0,-317.4,-0.9,156.6,133.5,-94.2,0,2376,0,161,0, 
1.3233,169.5,-222.0,-66.6,-54.3,48.6,-82.2,33.0,6.9,-33419.1,-86.4,-107.7,-15.0,-12.6,-163.5,120.3,210.3,-6.9,-6.0,-380.1,-329.4,-0.3,137.7,127.8,-104.4,0,2382,0,162,0, 
1.3267,178.2,-215.1,-61.5,-52.2,52.5,-78.9,37.5,8.7,-26083.2,-91.5,-104.7,-18.3,-12.6,-156.6,121.2,210.3,-7.2,-5.7,-381.0,-334.8,-0.6,135.6,128.7,-101.4,0,2388,0,163,0, 
1.3300,161.4,-218.1,-62.4,-54.0,46.5,-81.0,34.5,8.7,-27194.7,-82.5,-101.4,-15.0,-24.9,-156.6,125.1,217.5,-6.6,-6.0,-373.5,-330.6,-0.6,141.3,132.0,-105.9,0,2394,0,164,0, 
1.3333,148.8,-210.3,-57.3,-49.5,50.7,-80.1,38.4,10.8,-35864.4,-77.1,-99.6,-6.9,-12.9,-150.3,133.8,221.7,-6.6,-5.4,-372.0,-325.5,-0.3,142.8,133.5,-108.3,0,2400,0,165,0, 
1.3367,157.5,-207.9,-55.8,-47.1,54.9,-76.2,37.2,12.0,-40755.0,-81.6,-95.7,-9.9,-15.0,-147.0,137.1,215.7,-6.9,-5.7,-369.9,-326.4,-0.6,144.3,127.2,-104.1,0,2406,0,166,0, 
1.3400,166.8,-206.7,-56.1,-46.2,57.6,-71.7,42.3,13.8,-36086.7,-81.9,-91.8,-11.1,0.3,-151.2,114.9,217.8,-7.2,-5.7,-369.3,-324.0,-0.9,141.9,141.3,-98.1,0,2412,0,167,0, 
1.3433,173.1,-210.3,-63.3,-54.0,46.2,-79.8,36.3,6.9,-28750.8,-91.5,-108.3,-22.8,-15.3,-153.6,119.4,229.2,-6.9,-5.4,-381.9,-332.4,-0.3,136.5,136.2,-110.1,0,2418,0,168,0, 
1.3467,166.5,-204.6,-47.1,-38.4,63.0,-75.9,35.4,17.1,-29121.3,-79.5,-90.0,0.0,-12.0,-152.1,113.4,202.2,-6.6,-5.4,-366.6,-318.6,-0.6,146.4,127.8,-96.9,0,2424,0,169,0, 
1.3500,156.9,-200.7,-38.1,-30.6,70.2,-71.1,36.6,17.7,-37791.0,-72.9,-84.0,9.9,-0.6,-150.3,126.9,214.2,-7.2,-6.0,-356.1,-316.2,-0.6,149.1,125.7,-102.9,0,2430,0,170,0, 
1.3533,156.9,-201.6,-42.3,-33.6,70.2,-71.7,37.8,16.8,-42978.0,-79.2,-83.7,3.3,-13.5,-150.0,118.8,209.4,-6.6,-5.4,-360.3,-324.3,-0.3,147.6,130.5,-98.4,0,2436,0,171,0, 
1.3567,171.3,-211.8,-52.8,-41.4,60.6,-78.6,29.7,8.4,-36457.2,-86.1,-100.8,-15.6,-16.5,-157.5,117.0,210.9,-6.9,-6.0,-377.4,-333.3,-0.9,138.9,121.2,-113.4,0,2442,0,172,0, 
1.3600,182.1,-212.1,-53.1,-44.4,60.0,-77.4,26.7,6.9,-28306.2,-90.6,-105.6,-27.0,-18.6,-155.1,114.3,207.9,-6.9,-5.7,-380.7,-336.6,-0.6,134.1,121.8,-122.1,0,2448,0,173,0, 
1.3633,169.8,-210.3,-51.0,-43.2,59.4,-75.6,29.1,6.3,-29195.4,-90.6,-104.7,-18.0,-12.9,-162.9,114.9,216.3,-7.2,-5.7,-376.2,-330.0,-0.9,143.4,130.5,-116.1,0,2454,0,174,0, 
1.3667,156.6,-200.7,-42.3,-42.3,63.6,-74.4,36.9,13.8,-38457.9,-89.7,-94.2,0.3,-12.6,-155.7,118.8,225.3,-6.9,-6.0,-371.1,-328.8,-0.6,134.7,135.6,-101.1,0,2460,0,175,0, 
1.3700,158.1,-201.9,-37.8,-33.9,73.2,-69.9,36.9,16.8,-42607.5,-81.6,-84.6,3.0,-6.9,-158.1,115.2,211.5,-7.2,-5.7,-368.1,-323.1,-0.9,148.8,135.9,-90.3,0,2466,0,176,0, 
1.3733,174.9,-210.3,-48.9,-41.1,63.6,-76.8,36.6,8.7,-35864.4,-90.6,-88.5,-3.0,-18.3,-161.4,111.6,222.3,-6.9,-6.0,-372.9,-327.6,-0.3,137.4,143.7,-89.1,0,2472,0,177,0, 
1.3767,185.7,-203.7,-40.8,-35.1,75.3,-69.9,34.8,11.4,-26676.0,-85.5,-75.3,2.1,-11.1,-153.0,117.3,211.5,-7.5,-6.0,-357.3,-313.2,-0.9,164.4,143.4,-74.7,0,2478,0,178,0, 
1.3800,171.9,-199.2,-34.5,-28.2,76.5,-71.1,33.6,12.9,-27787.5,-76.5,-65.1,12.9,-10.2,-151.5,126.0,217.2,-6.9,-6.0,-346.8,-308.7,-0.6,144.0,133.8,-88.2,0,2484,0,179,0, 
1.3833,156.9,-190.5,-18.9,-10.5,88.2,-60.6,42.0,26.7,-37568.7,-57.9,-53.4,31.5,2.1,-150.0,123.9,221.7,-6.9,-6.0,-335.4,-296.4,-0.9,168.3,137.1,-83.1,0,2490,0,180,0, 
1.3867,171.9,-191.4,-24.3,-17.4,84.9,-63.6,44.1,23.7,-42014.7,-72.3,-61.8,24.6,5.4,-145.8,130.5,232.5,-6.9,-6.0,-345.0,-300.6,-0.3,162.3,135.3,-80.4,0,2496,0,181,0, 
1.3900,180.0,-198.0,-30.9,-19.8,77.7,-70.8,39.3,19.5,-34456.5,-80.4,-70.8,13.2,-5.1,-151.5,117.3,213.3,-7.2,-5.7,-347.1,-314.7,-0.6,158.7,145.2,-85.2,0,2502,0,182,0, 
1.3933,179.4,-207.6,-39.3,-31.2,71.7,-74.7,35.1,12.3,-24897.6,-83.4,-80.4,11.1,-11.7,-152.1,130.8,228.0,-6.9,-6.0,-359.4,-316.5,-0.9,156.9,126.6,-87.0,0,2508,0,183,0, 
1.3967,175.2,-194.7,-22.8,-15.0,84.9,-60.3,42.3,25.8,-27120.6,-67.5,-64.8,25.5,4.8,-145.2,122.7,210.9,-6.9,-6.0,-338.7,-298.5,-0.3,166.8,139.8,-77.1,0,2514,0,184,0, 
1.4000,148.8,-195.0,-27.3,-21.9,80.7,-62.4,39.9,19.8,-36531.3,-57.0,-62.1,22.8,-0.9,-149.1,128.4,213.6,-6.9,-5.7,-340.5,-303.6,-0.9,174.0,144.0,-77.4,0,2520,0,185,0, 
1.4033,162.3,-188.7,-28.5,-23.1,83.1,-61.8,38.1,24.3,-41273.7,-59.4,-66.9,21.6,1.2,-143.7,120.6,202.8,-6.9,-6.6,-339.3,-304.8,-0.9,163.8,140.7,-76.2,0,2526,0,186,0, 
1.4067,177.9,-201.0,-38.4,-33.3,75.0,-68.7,34.8,11.7,-33419.1,-75.6,-81.0,3.6,-11.7,-149.4,121.8,222.9,-6.9,-5.7,-353.1,-318.0,-0.6,151.2,138.3,-83.4,0,2532,0,187,0, 
1.4100,186.9,-203.1,-44.4,-34.2,69.9,-66.3,36.6,12.9,-24082.5,-79.8,-89.4,-3.3,-16.8,-145.5,130.5,214.5,-7.2,-6.3,-358.2,-320.1,-0.9,157.2,143.4,-82.5,0,2538,0,188,0, 
1.4133,162.6,-201.3,-42.6,-35.1,69.0,-74.1,32.7,9.9,-25416.3,-82.2,-85.5,1.5,-16.2,-141.3,132.0,204.0,-7.2,-5.4,-359.7,-323.1,-0.6,162.9,134.1,-90.3,0,2544,0,189,0, 
1.4167,143.1,-206.4,-39.6,-37.5,69.3,-73.8,36.0,13.2,-35049.3,-65.7,-81.9,3.3,-18.0,-151.2,126.3,217.2,-6.6,-6.0,-350.1,-320.7,-0.9,153.3,136.8,-92.7,0,2550,0,190,0, 
1.4200,162.3,-197.1,-36.6,-32.7,68.1,-68.7,36.0,18.6,-39421.2,-66.6,-84.6,7.2,-9.0,-140.7,127.2,206.1,-6.9,-5.4,-350.4,-322.5,-0.6,161.7,124.8,-90.3,0,2556,0,191,0, 
1.4233,177.6,-207.3,-42.3,-38.4,64.8,-70.5,35.7,12.9,-31270.2,-79.8,-97.2,-3.6,-15.3,-141.0,120.9,210.3,-6.9,-6.3,-362.4,-330.9,-0.3,155.7,131.7,-88.2,0,2562,0,192,0, 
1.4267,182.4,-208.5,-42.3,-38.7,63.3,-73.2,33.0,12.0,-21340.8,-70.5,-89.1,-4.8,-2.1,-147.6,116.7,212.7,-6.9,-5.7,-354.9,-330.0,-0.6,153.6,136.5,-85.2,0,2568,0,193,0, 
1.4300,164.1,-200.4,-37.2,-36.6,65.4,-73.8,36.9,15.3,-22600.5,-72.6,-87.6,0.0,-10.5,-151.2,118.2,219.9,-7.2,-5.7,-353.7,-319.5,-0.6,152.1,139.5,-84.0,0,2574,0,194,0, 
1.4333,151.5,-191.7,-32.4,-31.8,70.8,-62.4,41.4,22.5,-32752.2,-60.9,-89.1,11.7,2.7,-139.5,122.1,214.8,-7.5,-5.7,-346.8,-310.2,-0.9,174.6,138.9,-70.2,0,2580,0,195,0, 
1.4367,153.0,-201.0,-42.6,-42.0,66.6,-64.5,36.6,16.8,-36531.3,-70.5,-98.1,0.6,-25.2,-147.3,124.8,218.7,-6.9,-5.7,-359.1,-321.3,-0.9,158.7,135.9,-74.7,0,2586,0,196,0, 
1.4400,170.7,-215.7,-54.0,-48.9,60.0,-69.6,36.6,9.9,-28158.0,-76.2,-106.5,-7.8,-3.3,-150.3,117.0,217.2,-6.9,-5.7,-365.4,-328.5,-0.9,158.1,143.4,-70.8,0,2592,0,197,0, 
1.4433,173.7,-218.4,-57.3,-53.1,53.1,-76.2,27.6,6.0,-17932.2,-81.0,-108.9,-16.8,-6.0,-150.0,120.3,207.6,-7.2,-5.4,-371.7,-335.7,-0.3,150.6,132.3,-84.6,0,2598,0,198,0, 
1.4467,162.6,-218.1,-54.3,-51.0,58.5,-71.1,31.5,9.0,-18821.4,-80.1,-102.3,-21.9,0.0,-153.0,122.7,201.3,-6.6,-6.0,-367.5,-340.2,-1.2,150.3,138.0,-86.4,0,2604,0,199,0, 
1.4500,144.9,-212.7,-51.6,-50.7,57.9,-73.2,34.5,12.3,-29417.7,-73.8,-97.5,-10.5,-2.7,-154.8,131.4,219.3,-6.9,-6.3,-363.0,-335.1,-0.3,153.9,143.7,-78.0,0,2610,0,200,0, 
1.4533,158.7,-207.0,-49.8,-49.8,60.9,-68.1,37.5,19.5,-33493.2,-79.2,-99.0,-7.8,-0.6,-152.4,114.6,213.6,-7.5,-6.0,-362.7,-334.2,-0.9,158.7,143.4,-65.1,0,2616,0,201,0, 
1.4567,173.7,-212.7,-58.8,-52.8,54.3,-77.1,34.8,12.0,-24823.5,-83.4,-105.6,-20.7,-8.7,-156.9,120.9,221.4,-7.2,-5.7,-368.7,-343.5,-0.6,149.7,144.6,-63.9,0,2622,0,202,0, 
1.4600,182.1,-213.0,-60.3,-51.3,53.1,-74.7,32.7,7.2,-14523.6,-90.9,-112.5,-18.9,-5.1,-154.8,121.2,217.5,-6.6,-6.0,-374.4,-347.1,-0.9,146.4,144.3,-64.8,0,2628,0,203,0, 
1.4633,172.2,-204.0,-49.8,-44.1,61.5,-70.8,35.1,11.4,-15931.5,-76.5,-99.9,-1.5,1.5,-147.0,126.9,202.5,-6.6,-6.0,-359.4,-334.2,-0.9,156.6,143.4,-61.5,0,2634,0,204,0, 
1.4667,153.3,-204.9,-45.9,-43.8,63.9,-67.2,41.1,13.2,-26231.4,-73.2,-98.1,0.3,-2.1,-147.9,138.6,217.5,-7.2,-5.7,-360.3,-330.0,-0.9,167.1,152.7,-55.8,0,2640,0,205,0, 
1.4700,163.2,-200.4,-39.6,-37.2,66.3,-63.9,49.5,18.0,-30529.2,-70.8,-97.2,-1.2,9.3,-148.2,130.8,222.3,-6.9,-6.3,-358.2,-326.7,-0.6,163.5,168.0,-48.9,0,2646,0,206,0, 
1.4733,184.8,-206.7,-45.6,-41.4,61.5,-67.5,36.3,9.6,-21785.4,-83.7,-98.4,-6.0,2.4,-150.3,123.3,198.0,-7.2,-5.7,-364.2,-326.1,-0.9,163.8,143.7,-46.8,0,2652,0,207,0, 
1.4767,191.1,-214.2,-52.2,-47.7,57.6,-69.9,36.6,5.1,-12004.2,-85.8,-108.3,-12.9,-12.9,-155.4,117.9,201.6,-6.3,-6.0,-375.0,-330.3,-0.9,162.0,146.4,-45.0,0,2658,0,208,0, 
1.4800,171.3,-216.3,-49.5,-46.2,55.8,-72.3,42.0,4.2,-13115.7,-79.5,-106.2,-8.4,-5.4,-152.4,125.4,216.0,-7.2,-6.0,-368.7,-330.3,-0.3,157.5,150.9,-43.8,0,2664,0,209,0, 
1.4833,160.8,-211.8,-48.0,-45.0,61.2,-71.7,41.4,5.7,-23563.8,-83.1,-95.1,0.6,-3.3,-143.7,141.0,216.9,-6.9,-6.0,-361.5,-331.2,-0.3,156.0,149.4,-44.7,0,2670,0,210,0, 
1.4867,160.5,-212.1,-46.8,-43.8,64.5,-69.3,42.3,7.8,-26601.9,-71.4,-93.0,6.0,-5.4,-158.4,127.2,208.5,-6.9,-5.7,-363.6,-331.2,-0.6,165.9,145.2,-44.4,0,2676,0,211,0, 
1.4900,177.3,-216.3,-54.6,-49.5,60.3,-70.8,41.1,4.5,-18450.9,-84.3,-101.7,-5.4,-9.0,-165.9,118.8,211.2,-6.9,-6.0,-372.6,-336.0,-0.9,161.4,144.0,-38.1,0,2682,0,212,0, 
1.4933,186.0,-217.5,-55.8,-50.7,57.6,-72.6,35.7,2.1,-8076.9,-89.4,-101.4,-11.1,-9.3,-163.5,114.3,186.3,-7.2,-6.0,-375.0,-339.0,-0.9,151.8,135.3,-47.7,0,2688,0,213,0, 
1.4967,170.1,-213.6,-51.6,-45.0,60.6,-69.6,42.9,4.8,-9781.2,-78.0,-98.1,-6.3,-5.4,-165.6,126.6,217.2,-6.6,-5.7,-368.1,-339.0,-0.6,149.7,148.8,-49.5,0,2694,0,214,0, 
1.5000,150.0,-213.9,-48.9,-48.3,57.9,-73.8,41.4,5.4,-19562.4,-80.7,-102.3,-9.0,-9.0,-174.3,120.0,228.9,-6.9,-5.7,-372.3,-335.4,-0.3,151.5,136.5,-49.2,0,2700,0,215,0, 
1.5033,164.1,-209.1,-48.0,-44.4,61.5,-66.9,39.9,12.6,-23193.3,-79.2,-101.1,-10.2,-8.1,-164.4,135.0,206.7,-7.2,-5.7,-370.5,-335.4,-0.6,153.0,139.8,-42.6,0,2706,0,216,0, 
1.5067,183.0,-207.0,-46.2,-42.6,62.7,-68.7,42.0,13.8,-14523.6,-87.9,-101.7,-12.0,-3.0,-165.6,120.3,191.4,-7.2,-5.7,-368.7,-337.5,-1.2,149.7,139.5,-39.3,0,2712,0,217,0, 
1.5100,192.0,-202.5,-40.5,-36.3,65.4,-67.8,36.9,18.0,-5187.0,-83.4,-97.5,-4.8,5.1,-166.8,118.8,191.7,-6.9,-6.0,-367.2,-325.2,-0.9,156.0,131.1,-36.9,0,2718,0,218,0, 
1.5133,179.1,-198.3,-38.7,-40.5,55.2,-74.7,36.9,16.8,-5187.0,-82.2,-100.5,-8.7,-5.4,-159.9,135.6,203.4,-6.9,-6.0,-366.3,-334.8,-0.6,146.7,132.6,-42.6,0,2724,0,219,0, 
1.5167,165.3,-195.9,-33.9,-33.9,58.2,-71.1,43.8,17.7,-12522.9,-60.3,-84.0,-1.5,6.6,-158.7,135.3,215.7,-7.2,-6.0,-348.9,-339.3,-0.6,146.7,143.7,-45.0,0,2730,0,220,0, 
1.5200,166.2,-203.1,-37.2,-37.2,57.3,-66.0,43.5,14.7,-15486.9,-62.4,-87.0,1.5,3.9,-160.2,135.9,208.2,-7.2,-5.7,-355.8,-331.5,-0.6,160.5,144.9,-46.5,0,2736,0,221,0, 
1.5233,182.7,-205.8,-44.4,-39.0,61.8,-65.1,40.2,10.2,-9781.2,-74.4,-95.7,1.5,5.1,-163.8,118.2,201.0,-6.9,-6.3,-365.7,-321.6,-0.9,166.8,146.1,-41.1,0,2742,0,222,0, 
1.5267,189.0,-208.5,-47.7,-43.8,54.9,-72.9,36.0,7.5,-2074.8,-78.9,-96.0,-3.3,7.5,-164.1,122.4,205.8,-6.9,-6.0,-366.9,-326.7,-0.6,159.9,144.0,-31.2,0,2748,0,223,0, 
1.5300,181.2,-205.2,-44.1,-41.4,56.4,-75.0,38.7,9.9,-1704.3,-75.9,-92.4,0.3,5.1,-161.7,126.9,210.3,-6.9,-6.0,-364.5,-325.5,-0.9,160.8,140.7,-26.1,0,2754,0,224,0, 
1.5333,167.1,-200.1,-37.8,-35.4,61.2,-66.9,38.4,18.3,-7854.6,-60.6,-83.7,7.8,15.0,-158.7,133.5,195.0,-7.2,-6.0,-359.1,-319.2,-0.9,168.9,143.1,-21.9,0,2760,0,225,0, 
1.5367,169.2,-197.7,-40.8,-39.6,60.9,-67.2,41.7,17.4,-12671.1,-68.4,-88.5,0.6,16.8,-155.7,140.1,198.3,-6.9,-6.3,-360.6,-323.7,-0.6,170.1,144.3,-22.5,0,2766,0,226,0, 
1.5400,179.4,-200.7,-40.2,-36.9,57.3,-63.6,40.5,18.9,-9262.5,-65.4,-91.2,-0.9,14.4,-155.4,135.9,206.7,-6.9,-6.0,-362.1,-324.0,-0.6,166.5,148.8,-23.4,0,2772,0,227,0, 
1.5433,181.5,-209.1,-45.0,-43.5,54.6,-65.7,42.9,11.4,-3186.3,-71.4,-94.8,-6.0,9.0,-156.9,141.0,226.2,-6.6,-6.3,-364.5,-328.5,-0.6,165.0,159.0,-21.6,0,2778,0,228,0, 
1.5467,179.7,-197.1,-33.6,-31.8,63.3,-60.9,39.9,19.8,-2667.6,-61.8,-83.7,-0.6,16.8,-151.5,136.8,187.5,-7.2,-6.0,-359.1,-323.1,-0.3,172.8,141.3,-19.8,0,2784,0,229,0, 
1.5500,159.0,-210.3,-48.6,-48.9,48.9,-67.5,44.7,10.2,-9558.9,-72.6,-101.1,-17.4,5.7,-166.5,147.3,224.4,-6.9,-6.0,-375.6,-338.4,-0.6,162.0,165.0,-25.5,0,2790,0,230,0, 
1.5533,157.5,-202.5,-39.6,-42.6,52.5,-58.5,46.5,19.8,-15561.0,-81.3,-98.4,3.6,-0.6,-167.1,131.7,205.5,-7.2,-5.7,-371.4,-328.5,-0.6,170.7,148.8,-26.1,0,2796,0,231,0, 
1.5567,169.8,-214.8,-52.2,-49.2,48.0,-65.7,48.0,12.0,-13708.5,-89.4,-105.6,-9.3,-5.7,-169.8,144.0,218.1,-6.9,-5.4,-383.7,-335.7,-0.9,158.7,148.2,-24.6,0,2802,0,232,0, 
1.5600,176.4,-204.6,-40.2,-37.8,56.7,-60.3,38.4,19.2,-8892.0,-73.8,-94.5,2.1,15.3,-169.8,126.3,175.2,-6.9,-6.0,-368.7,-324.6,-0.9,171.3,124.8,-17.1,0,2808,0,233,0, 
1.5633,164.7,-208.2,-45.6,-46.2,50.4,-60.3,43.5,14.1,-10448.1,-78.9,-100.5,-0.3,-1.8,-171.9,132.9,197.4,-6.3,-5.7,-376.2,-327.0,-0.9,159.9,140.4,-21.3,0,2814,0,234,0, 
1.5667,149.4,-209.7,-42.6,-44.1,47.4,-62.7,45.3,12.0,-20525.7,-78.3,-93.0,-1.8,4.8,-171.0,133.8,201.9,-6.9,-5.7,-369.6,-326.4,-0.9,157.5,145.8,-28.8,0,2820,0,235,0, 
1.5700,144.9,-211.2,-48.6,-51.0,46.2,-68.4,44.4,9.6,-29343.6,-82.8,-96.3,-6.0,-3.0,-170.1,144.9,207.0,-6.9,-6.0,-378.9,-327.3,-0.9,160.2,147.9,-26.7,0,2826,0,236,0, 
1.5733,149.4,-210.6,-50.1,-48.9,48.0,-66.9,49.2,7.5,-31196.1,-94.5,-99.0,-2.7,-3.3,-178.8,132.3,222.0,-6.9,-6.0,-382.8,-323.4,-0.6,158.7,150.9,-19.5,0,2832,0,237,0, 
1.5767,156.6,-219.6,-60.9,-56.1,39.9,-75.6,46.5,3.0,-29047.2,-115.2,-116.7,-15.9,-21.0,-182.4,152.1,236.7,-6.3,-5.7,-398.4,-338.1,-0.9,155.7,155.1,-26.7,0,2838,0,238,0, 
1.5800,160.2,-200.1,-34.8,-33.0,66.3,-54.6,43.2,22.5,-32974.5,-85.2,-93.9,13.2,-5.7,-171.0,117.9,159.0,-7.2,-6.0,-377.4,-311.4,-0.3,179.7,119.7,-13.2,0,2844,0,239,0, 
1.5833,141.9,-198.0,-32.1,-32.7,69.6,-57.3,43.5,21.0,-45201.0,-73.5,-90.3,12.6,0.3,-174.6,133.5,190.8,-6.9,-6.0,-364.2,-310.8,-0.3,178.5,127.5,-15.6,0,2850,0,240,0, 
1.5867,142.5,-191.7,-25.5,-27.9,73.5,-52.2,47.7,26.4,-56464.2,-70.5,-79.8,16.2,4.2,-166.2,138.0,189.9,-7.2,-5.7,-357.6,-309.9,-0.3,167.7,135.3,-20.1,0,2856,0,241,0, 
1.5900,143.4,-196.8,-33.3,-26.7,71.4,-57.9,43.2,21.6,-59354.1,-83.7,-84.9,14.4,-12.3,-176.1,131.7,182.7,-6.6,-6.0,-368.4,-313.5,-0.6,166.2,126.9,-28.2,0,2862,0,242,0, 
1.5933,151.2,-197.1,-25.8,-20.1,78.9,-52.8,50.1,26.4,-58909.5,-83.4,-80.1,14.4,0.0,-182.7,108.3,187.5,-6.9,-5.7,-363.9,-303.6,-0.6,177.6,136.8,-7.5,0,2868,0,243,0, 
1.5967,147.9,-192.6,-25.8,-19.8,75.0,-54.6,53.1,30.0,-63726.0,-83.4,-76.2,26.4,-7.5,-178.2,115.5,197.4,-7.2,-6.3,-360.9,-301.5,-0.6,176.1,146.7,-4.5,0,2874,0,244,0, 
1.6000,130.5,-189.9,-23.1,-18.0,75.9,-54.6,56.4,30.3,-76248.9,-67.2,-72.3,26.1,6.3,-170.4,125.1,195.3,-6.9,-5.7,-355.5,-303.6,-0.6,179.1,144.9,-9.9,0,2880,0,245,0, 
1.6033,128.7,-191.1,-27.0,-24.0,69.0,-59.1,62.1,29.4,-87363.9,-78.9,-74.1,22.5,5.4,-171.0,137.1,216.9,-6.9,-5.7,-356.1,-309.0,-0.9,175.5,159.6,-12.9,0,2886,0,246,0, 
1.6067,143.7,-198.9,-30.6,-25.5,73.5,-59.1,52.8,24.6,-90105.6,-96.3,-82.8,26.4,1.5,-171.0,128.1,206.4,-6.9,-5.7,-366.6,-300.0,-0.6,174.6,147.6,-11.4,0,2892,0,247,0, 
1.6100,157.5,-192.0,-24.3,-18.9,78.6,-58.8,51.9,29.1,-87956.7,-81.9,-76.2,28.2,12.0,-163.5,124.2,180.6,-6.6,-5.7,-360.9,-296.4,-0.9,177.6,141.3,-7.8,0,2898,0,248,0, 
1.6133,148.8,-195.0,-34.5,-29.1,70.2,-62.1,53.1,23.4,-91068.9,-78.6,-82.2,15.3,1.5,-169.2,139.2,207.0,-7.2,-5.7,-359.7,-312.9,-0.6,164.7,151.2,-17.7,0,2904,0,249,0, 
1.6167,140.7,-192.3,-31.8,-26.7,71.4,-61.5,51.9,27.3,-100776.0,-82.8,-80.1,19.8,2.7,-171.3,142.8,208.2,-6.9,-5.7,-358.5,-312.3,-0.9,165.6,155.4,-30.0,0,2910,0,250,0, 
1.6200,140.4,-189.3,-25.2,-22.8,78.3,-54.6,56.4,34.5,-108037.8,-78.0,-73.8,27.9,7.5,-169.5,118.8,200.4,-7.2,-5.4,-356.7,-302.7,-0.6,174.3,165.0,-16.2,0,2916,0,251,0, 
1.6233,160.5,-191.4,-29.4,-23.4,69.6,-55.5,53.7,32.4,-106704.0,-80.4,-81.0,15.6,6.6,-168.6,123.0,194.1,-6.9,-6.0,-361.8,-317.4,-1.2,156.3,153.3,-9.6,0,2922,0,252,0, 
1.6267,171.6,-188.1,-29.4,-19.5,76.5,-56.1,43.2,34.2,-100776.0,-80.1,-77.7,23.4,10.5,-162.6,124.8,173.7,-6.6,-5.7,-358.2,-304.5,-0.6,172.2,113.4,-9.0,0,2928,0,253,0, 
1.6300,166.8,-195.9,-31.8,-21.6,72.0,-58.8,49.5,30.6,-99145.8,-92.1,-81.3,23.1,0.0,-168.9,129.0,191.1,-6.6,-5.7,-360.9,-305.1,-0.9,166.8,134.1,-13.5,0,2934,0,254,0, 
1.6333,157.5,-187.2,-27.0,-22.2,71.1,-60.0,47.1,32.1,-104629.2,-84.0,-77.4,23.1,4.8,-166.8,129.6,187.2,-7.2,-5.7,-360.0,-301.2,-0.6,168.3,135.3,-14.1,0,2940,0,255,0, 
1.6367,153.3,-188.1,-28.5,-24.0,74.4,-57.0,51.0,31.2,-108704.7,-89.1,-75.3,29.1,1.8,-172.2,122.7,190.2,-7.2,-5.7,-361.5,-302.1,-0.9,163.2,136.2,-18.6,0,2946,0,0,0, 
1.6400,172.5,-186.0,-24.6,-17.1,78.0,-54.0,51.6,38.1,-104110.5,-96.9,-75.3,31.2,6.0,-175.8,118.2,181.2,-7.2,-5.7,-361.5,-297.3,-1.2,158.7,131.7,-17.4,0,2952,0,1,0, 
1.6433,187.5,-194.1,-31.5,-21.6,72.6,-59.1,44.7,31.5,-94996.2,-105.6,-84.3,22.2,-6.0,-178.8,114.3,173.7,-6.6,-6.0,-371.4,-304.8,-0.6,146.7,127.8,-23.4,0,2958,0,2,0, 
1.6467,177.0,-191.1,-26.7,-19.5,74.1,-59.7,43.5,30.3,-90698.4,-100.2,-74.7,21.9,-1.5,-184.8,115.2,181.8,-7.2,-5.7,-360.6,-305.1,-0.6,143.7,127.2,-20.1,0,2964,0,3,0, 
1.6500,164.1,-191.1,-24.0,-21.9,75.6,-56.4,47.4,33.9,-94107.0,-90.3,-67.8,30.6,2.7,-187.5,108.6,175.5,-6.9,-6.0,-349.8,-303.9,-0.6,139.2,127.8,-28.8,0,2970,0,4,0, 
1.6533,165.0,-197.1,-33.6,-29.4,68.4,-61.5,46.2,28.2,-96255.9,-96.9,-77.1,25.8,-4.5,-188.4,119.7,187.2,-6.6,-6.0,-358.2,-306.0,-0.6,137.7,129.6,-37.2,0,2976,0,5,0, 
1.6567,182.4,-201.0,-38.4,-30.3,66.9,-60.3,45.6,31.8,-89809.2,-120.3,-83.4,19.2,-8.1,-191.4,105.6,173.1,-6.9,-6.3,-368.7,-312.9,-0.6,135.0,129.0,-42.0,0,2982,0,6,0, 
1.6600,189.0,-201.0,-36.6,-36.9,61.8,-61.8,42.3,26.4,-79138.8,-120.6,-82.8,9.9,1.8,-192.3,102.6,165.6,-7.2,-6.0,-366.6,-317.4,-0.9,125.1,123.6,-35.4,0,2988,0,7,0, 
1.6633,180.0,-205.2,-41.1,-39.3,60.6,-65.1,39.9,25.2,-73433.1,-127.5,-83.7,14.7,-23.7,-193.8,109.8,169.2,-7.2,-5.7,-366.3,-313.8,-0.9,128.4,122.7,-28.8,0,2994,0,8,0, 
1.6667,164.1,-211.2,-45.0,-40.8,59.4,-67.5,41.1,27.9,-75507.9,-120.9,-87.9,9.3,-13.5,-195.6,110.7,170.7,-6.6,-6.0,-374.7,-315.9,-0.9,132.0,130.2,-29.7,0,3000,0,9,0, 
1.6700,161.1,-212.1,-49.8,-46.5,55.5,-71.7,42.0,25.5,-76471.2,-123.0,-96.6,9.0,-8.4,-192.9,108.3,177.3,-6.9,-5.7,-375.3,-321.9,-0.6,126.3,133.5,-28.2,0,3006,0,10,0, 
1.6733,173.1,-218.1,-49.2,-46.5,54.0,-68.7,39.0,20.1,-68987.1,-118.8,-87.6,15.6,-19.2,-196.8,100.8,163.2,-6.9,-5.7,-370.2,-315.6,-0.6,125.7,118.5,-30.6,0,3012,0,11,0, 
1.6767,185.1,-216.3,-53.7,-47.7,51.3,-67.8,37.8,23.1,-58094.4,-133.2,-90.0,16.5,-23.1,-192.6,103.2,168.9,-7.2,-6.0,-374.7,-313.2,-0.3,128.4,120.9,-28.2,0,3018,0,12,0, 
1.6800,180.3,-222.6,-56.1,-55.5,48.0,-73.2,34.5,15.6,-52166.4,-148.8,-94.8,12.3,-35.4,-198.0,101.4,167.4,-6.9,-6.0,-385.2,-324.3,-0.3,113.7,121.5,-32.1,0,3024,0,13,0, 
1.6833,167.4,-221.1,-57.0,-58.8,43.5,-73.5,34.5,16.2,-53870.7,-144.0,-101.1,2.4,-35.1,-197.1,105.0,174.0,-6.9,-5.7,-387.3,-329.1,-0.6,117.0,127.8,-27.0,0,3030,0,14,0, 
1.6867,173.7,-214.2,-51.3,-52.2,48.0,-68.4,33.3,20.1,-54982.2,-121.2,-108.6,-4.2,-25.2,-193.2,106.8,156.3,-6.6,-6.0,-384.9,-328.5,-0.9,122.4,121.5,-25.2,0,3036,0,15,0, 
1.6900,181.8,-224.4,-63.6,-63.0,39.0,-72.6,33.0,14.1,-47868.6,-139.5,-131.1,-23.1,-30.0,-200.7,99.0,163.8,-6.9,-5.7,-406.8,-350.1,-0.6,105.9,127.5,-27.3,0,3042,0,16,0, 
1.6933,192.6,-221.7,-52.8,-52.2,50.1,-66.3,35.1,18.6,-36901.8,-150.3,-81.6,19.2,-28.5,-192.9,107.7,169.8,-7.2,-5.7,-370.5,-315.9,-0.9,122.1,128.1,-20.7,0,3048,0,17,0, 
1.6967,183.6,-220.5,-49.8,-47.4,61.8,-56.4,38.7,22.8,-31788.9,-163.5,-58.8,59.7,-36.0,-194.1,105.0,172.5,-6.6,-6.0,-359.4,-280.2,-0.9,143.1,144.9,-13.2,0,3054,0,18,0, 
1.7000,166.8,-213.9,-45.9,-46.5,56.7,-58.8,34.2,28.5,-34530.6,-142.2,-78.0,30.9,-26.4,-192.0,108.0,157.8,-7.5,-6.0,-363.0,-311.7,-0.6,126.3,133.2,-17.7,0,3060,0,19,0, 
1.7033,168.0,-200.1,-38.4,-45.0,56.7,-57.3,33.3,32.4,-37050.0,-112.2,-75.9,22.2,-8.7,-187.2,105.0,153.9,-6.9,-6.0,-348.9,-324.3,-0.6,110.1,123.6,-25.8,0,3066,0,20,0, 
1.7067,176.7,-205.2,-34.5,-42.6,62.4,-64.2,33.0,30.6,-30973.8,-129.3,-51.9,36.3,-15.6,-190.2,104.1,155.1,-6.9,-5.7,-332.1,-309.6,-0.3,112.2,122.7,-27.6,0,3072,0,21,0, 
1.7100,182.4,-212.4,-38.4,-41.7,60.9,-62.7,33.9,25.2,-21266.7,-153.0,-45.9,51.9,-24.3,-192.0,105.6,162.0,-7.2,-6.3,-339.0,-295.8,-0.6,120.9,133.2,-21.3,0,3078,0,22,0, 
1.7133,174.6,-208.2,-33.0,-38.7,64.5,-60.6,36.3,27.6,-18006.3,-138.0,-43.8,49.5,-14.1,-187.8,102.6,156.9,-6.9,-5.7,-334.8,-291.9,-0.6,126.0,134.1,-22.5,0,3084,0,23,0, 
1.7167,163.8,-203.4,-24.9,-35.7,63.3,-63.9,38.7,30.6,-22230.0,-121.5,-28.5,59.7,-9.3,-186.6,109.5,162.3,-6.9,-5.7,-315.3,-290.1,-0.6,126.0,136.8,-39.3,0,3090,0,24,0, 
1.7200,162.6,-199.8,-15.6,-25.2,70.2,-67.2,35.7,32.7,-26083.2,-131.1,-9.9,80.4,-6.9,-188.4,102.9,148.8,-6.9,-6.0,-295.2,-280.8,-0.9,123.6,128.7,-29.1,0,3096,0,25,0, 
1.7233,180.6,-195.0,-15.6,-24.0,64.2,-64.5,31.8,36.0,-22230.0,-117.6,-24.6,59.4,2.1,-178.2,101.4,137.1,-7.2,-5.7,-307.8,-298.5,-0.6,111.6,118.5,-26.4,0,3102,0,26,0, 
1.7267,186.3,-203.4,-24.3,-32.7,57.9,-70.5,30.3,26.4,-14671.8,-138.9,-28.8,54.0,-7.5,-177.9,105.9,142.2,-6.9,-5.7,-315.3,-310.5,-0.6,95.1,129.6,-37.2,0,3108,0,27,0, 
1.7300,180.9,-196.5,-14.1,-23.7,70.8,-59.4,35.7,32.4,-12448.8,-135.9,-6.3,91.2,-3.9,-176.7,101.1,129.9,-7.2,-5.7,-301.8,-280.8,-0.6,120.6,119.7,-27.6,0,3114,0,28,0, 
1.7333,153.9,-198.0,-19.2,-26.7,72.3,-61.2,39.3,28.5,-18228.6,-136.2,-12.0,90.9,-9.6,-186.9,107.4,156.6,-6.9,-6.0,-306.9,-278.1,-0.3,129.6,139.2,-26.1,0,3120,0,29,0, 
1.7367,157.2,-184.5,-6.6,-15.9,79.2,-57.9,35.7,36.3,-23786.1,-111.6,4.5,73.8,6.6,-183.0,104.7,136.2,-6.9,-5.7,-280.5,-274.5,-0.9,136.8,123.6,-26.4,0,3126,0,30,0, 
1.7400,173.1,-193.8,-12.9,-20.4,83.1,-61.5,34.8,32.7,-21118.5,-143.4,1.8,72.9,-3.0,-186.6,101.7,133.5,-6.9,-6.0,-299.1,-272.7,-0.6,134.4,122.1,-21.9,0,3132,0,31,0, 
1.7433,180.0,-198.3,-18.3,-23.7,73.5,-63.3,35.7,30.3,-14523.6,-148.2,-7.2,79.5,-8.1,-188.7,100.5,145.2,-7.2,-6.0,-299.4,-289.5,-0.3,123.3,126.3,-29.4,0,3138,0,32,0, 
1.7467,170.4,-196.2,-13.8,-26.7,66.3,-63.6,39.9,28.5,-13486.2,-123.0,-6.9,81.6,-0.3,-183.3,111.0,167.7,-6.9,-6.0,-290.1,-280.8,-0.6,99.0,135.3,-37.5,0,3144,0,33,0, 
1.7500,160.8,-190.5,-7.5,-19.2,70.5,-61.5,40.8,37.5,-20155.2,-123.9,5.4,101.1,4.5,-182.7,109.2,145.5,-6.9,-5.7,-279.6,-282.6,-0.6,123.6,132.3,-33.6,0,3150,0,34,0, 
1.7533,156.0,-198.0,-14.7,-26.1,68.4,-63.6,42.3,31.5,-25712.7,-136.5,-6.6,82.8,-7.5,-190.5,102.0,159.6,-6.9,-6.0,-294.3,-285.0,-0.6,117.6,134.1,-41.7,0,3156,0,35,0, 
1.7567,180.3,-193.2,-11.7,-17.7,76.5,-53.4,43.8,39.3,-22896.9,-154.5,-5.1,82.2,-9.3,-182.4,106.2,122.1,-6.6,-5.7,-300.0,-279.9,-0.6,136.5,123.6,-36.3,0,3162,0,36,0, 
1.7600,182.4,-197.7,-18.9,-29.4,66.0,-52.8,48.6,27.6,-15931.5,-125.1,-23.7,57.0,-10.2,-181.5,104.7,154.5,-6.6,-5.4,-302.4,-299.4,-0.9,119.7,148.5,-34.5,0,3168,0,37,0, 
1.7633,180.0,-186.0,-9.3,-25.5,68.4,-71.1,40.8,32.4,-14671.8,-93.0,-9.9,68.1,8.7,-173.1,111.0,142.2,-6.9,-6.0,-279.0,-296.7,-0.6,111.9,129.0,-36.6,0,3174,0,38,0, 
1.7667,166.2,-177.9,4.8,-10.8,84.0,-59.4,40.5,42.6,-21340.8,-100.2,11.1,94.2,10.2,-174.0,106.5,133.2,-6.9,-6.0,-265.5,-273.3,-0.6,129.0,120.0,-22.8,0,3180,0,39,0, 
1.7700,157.8,-190.8,-7.2,-15.6,78.9,-59.7,42.0,37.2,-26898.3,-122.4,-3.9,83.7,-3.6,-184.5,107.1,159.0,-6.6,-5.7,-284.1,-273.3,-0.6,112.5,123.0,-32.1,0,3186,0,40,0, 
1.7733,165.9,-203.1,-25.5,-31.5,69.0,-62.4,39.3,27.6,-23712.0,-141.6,-35.1,56.7,-18.3,-188.7,106.8,153.3,-6.9,-5.7,-317.7,-305.1,-0.9,108.0,130.2,-45.3,0,3192,0,41,0, 
1.7767,177.9,-202.2,-23.7,-33.0,57.3,-72.0,32.4,28.2,-16524.3,-144.3,-30.9,58.8,-11.4,-186.3,107.4,124.2,-6.9,-5.7,-309.0,-291.0,-0.6,121.2,112.5,-49.5,0,3198,0,42,0, 
1.7800,167.7,-201.6,-19.8,-31.2,58.2,-60.9,35.1,27.3,-14894.1,-129.3,-31.5,58.8,-11.1,-188.4,103.8,138.6,-7.2,-6.0,-300.0,-293.7,-1.5,118.2,125.7,-42.3,0,3204,0,43,0, 
1.7833,154.2,-200.4,-20.7,-31.2,57.0,-71.1,36.6,27.3,-20970.3,-126.9,-22.8,63.3,-8.4,-184.5,111.9,137.4,-7.2,-6.3,-300.0,-303.3,-0.9,117.9,123.9,-38.1,0,3210,0,44,0, 
1.7867,156.3,-199.8,-21.0,-26.1,77.4,-60.0,37.5,32.4,-25860.9,-129.3,-26.7,68.1,-9.3,-182.7,102.3,127.2,-6.6,-5.4,-302.7,-272.7,-0.9,114.0,123.6,-20.4,0,3216,0,45,0, 
1.7900,163.2,-207.6,-35.4,-45.6,55.8,-61.2,36.9,21.3,-22896.9,-150.0,-44.7,38.7,-24.6,-193.8,106.8,132.3,-6.9,-6.3,-321.9,-320.7,-0.9,104.4,125.1,-17.4,0,3222,0,46,0, 
1.7933,171.9,-216.3,-48.0,-52.8,36.0,-85.5,33.6,11.7,-15412.8,-143.7,-57.3,34.8,-24.3,-190.2,112.8,146.1,-6.9,-5.7,-334.8,-309.6,-0.9,103.5,126.3,-75.6,0,3228,0,47,0, 
1.7967,165.9,-214.8,-42.6,-45.3,57.0,-71.7,34.2,17.1,-13930.8,-160.8,-47.4,48.6,-30.6,-195.0,108.6,140.4,-6.9,-5.7,-324.0,-310.5,-0.6,99.3,123.0,-45.0,0,3234,0,48,0, 
1.8000,160.2,-203.7,-31.5,-41.1,50.1,-75.9,34.8,23.7,-19636.5,-134.4,-39.0,42.9,-14.7,-189.6,113.1,126.6,-6.6,-5.4,-309.6,-321.0,-0.9,111.9,114.6,-50.7,0,3240,0,49,0, 
1.8033,148.2,-218.7,-40.2,-48.3,50.4,-71.1,41.1,17.7,-24601.2,-181.5,-57.3,26.7,-33.3,-208.8,99.0,150.0,-6.6,-6.0,-332.1,-334.2,-0.6,84.9,142.2,-56.7,0,3246,0,50,0, 
1.8067,171.6,-213.6,-40.5,-45.3,43.2,-77.1,36.3,19.5,-21489.0,-164.1,-48.9,26.7,-33.9,-196.2,103.8,119.1,-7.2,-6.0,-322.8,-329.4,-0.9,97.5,119.1,-65.7,0,3252,0,51,0, 
1.8100,176.1,-215.4,-48.0,-54.0,34.5,-92.7,27.9,10.2,-14079.0,-143.1,-55.5,31.5,-20.7,-197.1,98.7,124.8,-6.9,-5.7,-328.2,-340.2,-0.6,96.6,101.1,-60.6,0,3258,0,52,0, 
1.8133,162.0,-219.9,-51.6,-52.5,56.7,-78.0,30.3,9.9,-11559.6,-137.1,-69.9,16.8,-22.5,-204.6,92.1,117.9,-6.6,-6.0,-333.6,-319.8,-0.9,106.2,100.2,-41.4,0,3264,0,53,0, 
1.8167,145.8,-222.3,-46.2,-54.6,44.4,-87.0,30.0,7.8,-17561.7,-156.3,-56.4,31.8,-30.0,-212.7,89.7,120.9,-7.2,-5.7,-329.4,-328.8,-0.9,117.0,101.7,-52.2,0,3270,0,54,0, 
1.8200,144.0,-228.6,-52.8,-58.2,51.6,-74.1,34.2,7.2,-22674.6,-177.9,-61.5,48.6,-44.1,-215.1,96.9,128.7,-6.9,-5.7,-337.2,-298.5,0.0,89.7,105.9,-40.8,0,3276,0,55,0, 
1.8233,153.9,-239.4,-70.5,-67.2,26.1,-98.7,29.7,1.8,-19043.7,-188.1,-71.7,27.9,-48.6,-217.2,92.1,111.6,-6.9,-6.0,-354.3,-337.2,-0.9,79.8,105.0,-62.4,0,3282,0,56,0, 
1.8267,165.0,-236.1,-61.2,-65.1,25.2,-97.8,26.4,2.7,-11189.1,-180.9,-73.8,17.1,-44.1,-210.0,99.0,104.4,-6.9,-5.7,-342.6,-352.2,-0.9,73.8,93.0,-74.1,0,3288,0,57,0, 
1.8300,155.7,-232.8,-56.1,-62.1,36.0,-91.5,30.3,7.2,-9410.7,-156.6,-70.8,24.0,-36.6,-216.3,91.5,111.9,-6.9,-5.7,-334.5,-333.9,-0.6,74.7,96.9,-67.2,0,3294,0,58,0, 
1.8333,142.2,-229.8,-56.1,-65.7,28.8,-94.8,30.0,5.4,-15190.5,-155.1,-76.2,18.3,-39.0,-214.8,98.7,114.0,-6.9,-6.0,-331.2,-337.2,-0.3,92.7,102.3,-60.6,0,3300,0,59,0, 
1.8367,145.2,-224.4,-55.8,-61.8,36.0,-91.2,36.9,10.2,-20229.3,-156.0,-67.2,30.6,-38.4,-212.1,99.3,117.0,-6.9,-6.0,-333.0,-341.7,-0.9,77.7,109.2,-62.1,0,3306,0,60,0, 
1.8400,157.8,-230.7,-62.7,-66.9,17.7,-100.8,35.4,4.5,-16227.9,-179.1,-81.3,20.7,-46.8,-204.9,111.6,122.1,-7.2,-6.0,-344.7,-348.0,-0.6,83.7,111.0,-71.1,0,3312,0,61,0, 
1.8433,167.4,-226.8,-58.2,-64.2,25.5,-90.6,34.2,11.4,-8595.6,-179.4,-68.7,16.8,-41.1,-208.5,101.1,103.8,-7.2,-5.4,-336.0,-345.3,-0.6,63.6,110.1,-80.4,0,3318,0,62,0, 
1.8467,163.8,-218.4,-45.0,-51.9,41.7,-93.3,30.3,12.9,-6520.8,-143.7,-65.1,30.9,-22.8,-204.6,87.9,103.2,-7.2,-6.0,-324.6,-320.7,-0.6,74.4,100.5,-68.1,0,3324,0,63,0, 
1.8500,152.4,-214.8,-43.5,-56.1,34.2,-91.5,33.0,14.4,-12226.5,-132.6,-66.9,18.3,-18.9,-197.7,107.7,119.1,-7.2,-5.7,-315.9,-347.4,-0.6,93.6,113.1,-63.9,0,3330,0,64,0, 
1.8533,150.0,-221.4,-48.3,-56.7,33.3,-91.5,37.5,9.0,-16746.6,-164.7,-70.2,16.8,-27.9,-194.1,117.9,132.9,-7.2,-5.7,-329.4,-354.9,-0.3,62.7,125.4,-90.6,0,3336,0,65,0, 
1.8567,168.3,-217.2,-37.2,-40.8,57.6,-71.4,41.7,23.7,-13041.6,-176.7,-64.2,47.1,-30.6,-196.2,101.1,102.9,-6.9,-5.7,-333.9,-304.8,-0.6,103.2,122.4,-60.3,0,3342,0,66,0, 
1.8600,183.6,-210.0,-28.5,-35.4,55.5,-75.9,37.8,23.1,-4964.7,-135.3,-57.9,49.8,-17.1,-190.5,101.7,106.2,-6.9,-6.3,-313.8,-299.4,-0.6,114.9,112.2,-44.7,0,3348,0,67,0, 
1.8633,173.1,-208.5,-24.3,-41.7,59.1,-69.9,40.8,24.0,-2964.0,-141.9,-56.1,43.8,-20.1,-192.0,116.1,121.8,-6.9,-5.4,-299.7,-314.1,-0.6,98.4,126.3,-55.8,0,3354,0,68,0, 
1.8667,156.6,-198.0,-18.6,-40.2,48.3,-73.5,42.6,28.5,-7780.5,-130.8,-48.9,36.3,-13.8,-189.3,109.5,114.9,-6.9,-5.4,-298.5,-340.2,-0.9,113.4,124.5,-59.7,0,3360,0,69,0, 
1.8700,159.9,-210.0,-36.6,-46.2,46.2,-78.0,45.0,26.1,-12745.2,-136.5,-51.0,32.4,-15.3,-183.0,124.2,121.5,-6.9,-5.7,-301.2,-337.2,-0.6,98.1,125.4,-64.8,0,3366,0,70,0, 
1.8733,161.4,-209.1,-28.8,-42.0,52.2,-72.0,43.5,27.3,-8447.4,-157.5,-50.1,33.6,-18.9,-189.9,109.8,116.1,-6.9,-5.4,-306.6,-321.3,-0.3,88.5,133.8,-61.5,0,3372,0,71,0, 
1.8767,177.9,-208.5,-31.5,-36.6,65.7,-59.7,48.9,32.7,-148.2,-140.4,-60.9,47.4,-19.8,-181.2,110.4,118.2,-6.9,-6.0,-316.2,-291.9,-0.3,118.8,138.9,-31.2,0,3378,0,72,0, 
1.8800,169.8,-194.7,-22.2,-30.3,66.6,-63.0,39.3,37.2,1926.6,-114.0,-42.3,46.8,-4.8,-176.7,112.8,99.3,-6.9,-5.7,-291.9,-315.3,-1.2,109.5,118.5,-33.6,0,3384,0,73,0, 
1.8833,152.4,-198.6,-24.6,-35.7,60.6,-64.5,37.5,34.2,-2741.7,-121.8,-46.8,43.8,-9.3,-178.5,110.4,100.8,-6.6,-5.4,-291.0,-321.0,-0.9,122.4,119.7,-38.1,0,3390,0,74,0, 
1.8867,158.4,-197.1,-24.0,-36.9,56.4,-66.3,36.6,31.2,-7632.3,-124.2,-55.5,43.5,-14.1,-172.5,119.4,103.5,-7.2,-6.3,-300.3,-324.3,-0.6,120.9,123.9,-41.7,0,3396,0,75,0, 
1.8900,166.5,-209.1,-34.5,-41.1,51.9,-73.5,35.1,27.0,-4075.5,-138.3,-61.5,47.1,-22.8,-170.7,121.8,108.9,-6.9,-6.0,-309.0,-308.1,-0.9,107.1,123.9,-42.9,0,3402,0,76,0, 
1.8933,176.7,-212.4,-43.5,-51.6,39.6,-83.1,30.6,20.4,4149.6,-124.8,-66.9,13.5,-21.3,-174.6,120.3,112.8,-6.9,-5.7,-318.6,-352.5,-0.9,97.8,125.4,-63.0,0,3408,0,77,0, 
1.8967,176.1,-215.7,-36.3,-44.7,54.3,-72.9,36.3,23.1,6372.6,-137.7,-56.1,30.6,-22.2,-181.2,124.8,125.4,-6.9,-5.4,-305.4,-313.2,-0.6,109.5,136.2,-44.7,0,3414,0,78,0, 
1.9000,171.6,-188.1,-19.5,-36.3,54.0,-70.5,37.2,33.3,666.9,-135.0,-49.8,36.6,-6.3,-174.6,108.3,104.4,-6.9,-6.0,-295.5,-329.7,-0.3,116.4,133.5,-57.3,0,3420,0,79,0, 
1.9033,162.9,-211.5,-35.1,-42.6,53.1,-70.5,33.3,33.3,-3556.8,-113.1,-49.5,37.8,-20.4,-176.1,116.1,105.9,-7.2,-5.4,-299.7,-331.8,-0.6,121.5,121.5,-52.8,0,3426,0,80,0, 
1.9067,168.9,-217.8,-40.5,-46.8,49.2,-73.2,38.7,22.8,444.6,-135.9,-66.6,27.6,-25.5,-193.8,105.3,125.1,-6.9,-6.0,-315.9,-353.4,-0.9,100.5,136.8,-63.6,0,3432,0,81,0, 
1.9100,179.1,-219.3,-40.5,-49.2,42.9,-77.1,30.0,22.8,8595.6,-128.4,-67.8,21.6,-30.6,-183.3,108.3,96.3,-7.2,-5.4,-316.5,-344.1,-0.3,107.1,118.5,-59.4,0,3438,0,82,0, 
1.9133,168.3,-209.7,-33.0,-46.5,53.1,-72.6,30.9,24.3,11040.9,-116.4,-66.6,18.9,-21.9,-181.8,111.9,100.2,-6.6,-5.7,-304.8,-340.5,-0.6,117.0,118.5,-58.2,0,3444,0,83,0, 
1.9167,152.7,-216.3,-37.2,-46.8,54.6,-72.6,31.2,27.9,5631.6,-158.4,-57.9,33.9,-29.7,-186.3,114.3,112.2,-6.6,-6.0,-315.6,-327.3,-0.6,121.2,124.2,-51.6,0,3450,0,84,0, 
1.9200,149.7,-208.8,-33.3,-44.4,62.1,-67.5,32.7,29.4,889.2,-148.2,-61.8,39.9,-32.1,-186.3,110.1,102.0,-7.2,-6.0,-312.3,-312.0,-0.6,116.4,119.7,-57.3,0,3456,0,85,0, 
1.9233,163.5,-210.3,-41.7,-60.3,31.2,-83.7,26.4,20.1,4520.1,-120.3,-88.8,4.2,8.1,-178.8,108.6,90.3,-6.9,-6.0,-329.7,-356.7,-0.9,87.6,113.4,-73.5,0,3462,0,86,0, 
1.9267,167.1,-223.2,-52.8,-65.7,15.9,-93.0,28.5,12.9,12004.2,-118.5,-81.0,-13.8,-32.4,-174.9,112.8,99.0,-6.9,-5.4,-321.3,-397.2,-0.6,70.8,112.8,-86.4,0,3468,0,87,0, 
1.9300,156.0,-225.0,-52.8,-55.8,38.7,-79.5,26.7,19.8,13412.1,-126.6,-87.0,10.2,-51.0,-182.1,103.8,100.8,-6.6,-6.3,-334.5,-304.8,-0.3,93.3,120.6,-72.0,0,3474,0,88,0, 
1.9333,144.9,-224.4,-60.6,-66.3,25.2,-81.0,33.6,20.7,6298.5,-135.3,-97.2,-3.6,-40.5,-182.4,114.6,110.7,-7.2,-6.0,-351.9,-380.7,-0.9,138.9,129.3,-66.3,0,3480,0,89,0, 
1.9367,146.4,-215.4,-48.9,-53.4,37.2,-79.2,31.5,28.8,963.3,-127.8,-88.8,6.9,-31.8,-181.2,112.2,103.5,-6.6,-5.7,-334.2,-356.4,-0.6,137.4,125.4,-64.2,0,3486,0,90,0, 
1.9400,161.7,-215.7,-50.1,-53.4,29.4,-86.7,34.5,26.7,2667.6,-129.9,-93.9,0.0,-36.9,-182.1,114.6,119.7,-6.9,-6.3,-335.4,-368.1,-0.9,111.6,133.5,-69.6,0,3492,0,91,0, 
1.9433,173.1,-219.0,-52.8,-56.4,30.9,-82.8,26.4,25.5,8966.1,-137.1,-90.3,-6.9,-32.7,-179.1,107.4,96.9,-6.6,-5.7,-340.8,-384.6,-0.6,81.9,119.1,-79.5,0,3498,0,92,0, 
1.9467,170.1,-211.2,-41.4,-49.8,36.0,-82.8,22.2,23.1,9558.9,-130.5,-77.4,5.7,-24.0,-172.8,109.5,72.3,-6.6,-6.0,-325.2,-373.2,-0.9,108.6,111.9,-82.5,0,3504,0,93,0, 
1.9500,154.2,-204.6,-37.8,-42.3,46.8,-72.3,27.6,25.5,2000.7,-113.1,-73.2,23.4,-29.7,-171.9,114.9,96.3,-6.9,-5.4,-323.4,-331.5,-0.9,103.2,124.8,-76.8,0,3510,0,94,0, 
1.9533,155.1,-201.6,-31.2,-42.6,42.6,-75.0,31.5,27.9,-5038.8,-125.4,-74.4,13.2,-3.3,-168.0,116.4,97.8,-7.2,-5.7,-315.3,-358.8,-0.6,101.7,127.8,-76.5,0,3516,0,95,0, 
1.9567,170.1,-192.9,-18.0,-38.1,52.5,-69.3,34.8,29.4,-3853.2,-148.2,-81.9,15.3,-30.3,-168.3,114.9,99.0,-6.9,-6.0,-315.3,-324.3,-0.6,99.3,132.9,-70.8,0,3522,0,96,0, 
1.9600,164.7,-210.6,-26.1,-45.9,36.0,-82.8,26.7,21.6,1926.6,-147.6,-81.9,5.1,-15.0,-171.9,114.3,92.7,-6.9,-5.7,-322.2,-375.6,-0.6,89.7,115.8,-88.8,0,3528,0,97,0, 
1.9633,165.3,-216.0,-58.5,-58.5,37.2,-76.5,34.5,20.4,2297.1,-119.7,-95.1,5.4,-24.3,-166.5,113.1,93.0,-7.2,-6.0,-364.5,-339.3,-0.9,116.4,122.7,-76.8,0,3534,0,98,0, 
1.9667,154.5,-231.3,-52.2,-57.0,27.9,-76.2,39.0,21.6,-5483.4,-105.0,-97.8,3.3,-30.3,-157.2,121.5,103.2,-6.9,-5.4,-339.6,-347.7,-0.6,120.0,142.5,-68.1,0,3540,0,99,0, 
1.9700,164.4,-189.9,-16.2,-39.6,36.6,-68.7,44.7,33.6,-12300.6,-136.2,-87.3,3.3,-35.7,-161.1,113.7,99.3,-7.2,-5.7,-324.3,-362.1,-0.9,116.4,136.5,-76.5,0,3546,0,100,0, 
1.9733,165.3,-219.3,-60.9,-59.7,20.4,-76.2,39.6,20.4,-9781.2,-118.2,-111.0,-17.1,-38.7,-170.1,104.1,98.4,-6.9,-5.7,-366.6,-373.5,-0.6,111.9,132.3,-74.7,0,3552,0,101,0, 
1.9767,173.4,-216.3,-54.3,-64.8,6.6,-89.1,34.2,15.6,-2593.5,-120.6,-105.9,-31.8,-7.2,-171.0,111.3,96.9,-7.2,-5.4,-351.6,-412.5,-0.6,108.9,122.1,-81.3,0,3558,0,102,0, 
1.9800,168.0,-189.0,-26.1,-50.7,28.8,-83.4,30.0,21.9,-1259.7,-141.6,-98.7,-12.0,-30.9,-178.2,102.0,92.4,-7.2,-5.4,-348.3,-377.4,-0.9,89.4,122.1,-80.7,0,3564,0,103,0, 
1.9833,150.6,-218.1,-55.5,-52.5,37.8,-75.9,35.4,21.6,-7632.3,-99.6,-97.8,5.4,-22.2,-176.1,111.6,85.5,-7.2,-6.0,-349.2,-352.8,-0.3,128.7,122.4,-62.4,0,3570,0,104,0, 
1.9867,172.8,-154.2,-22.8,-50.1,13.5,-99.3,27.9,20.7,-12819.3,-135.9,-98.7,-18.0,-31.5,-149.1,111.9,96.0,-6.9,-6.0,-338.1,-386.1,-0.3,109.2,117.6,-89.1,0,3576,0,105,0, 
1.9900,162.0,-203.4,-42.3,-56.7,23.4,-85.8,36.6,12.3,-9855.3,-109.8,-109.2,-17.1,-77.1,-186.9,115.8,110.4,-6.6,-6.3,-350.1,-369.6,-0.3,111.3,138.9,-66.6,0,3582,0,106,0, 
1.9933,179.1,-207.9,-65.1,-66.3,17.7,-98.4,22.2,4.8,-2297.1,-128.4,-120.0,-15.0,0.3,-169.8,113.4,87.0,-6.9,-5.7,-363.0,-356.4,-0.6,80.1,113.1,-96.0,0,3588,0,107,0, 
1.9967,177.9,-197.4,-50.4,-62.1,24.9,-90.3,27.6,10.8,-815.1,-105.0,-111.3,-27.9,-86.7,-171.9,111.0,86.7,-6.6,-6.0,-353.7,-391.5,-0.9,83.4,125.4,-103.5,0,3594,0,108,0, 
2.0000,137.4,-247.5,-58.5,-65.1,7.2,-93.9,31.2,6.0,-6076.2,-94.8,-91.5,-8.4,-36.6,-183.3,111.9,107.4,-6.9,-5.7,-324.9,-387.6,-0.6,111.0,144.3,-85.2,0,3600,0,109,0, 
2.0033,144.3,-244.2,-63.9,-56.4,42.9,-70.5,33.0,12.6,-11263.2,-116.1,-85.8,12.0,-16.2,-189.3,107.1,78.3,-6.9,-5.1,-344.7,-336.6,-0.9,129.9,134.7,-68.4,0,3606,0,110,0, 
2.0067,162.0,-197.7,-9.9,-47.1,39.3,-81.0,24.9,15.6,-8002.8,-139.5,-82.8,4.2,-54.9,-183.9,103.2,80.4,-7.2,-6.0,-296.4,-336.3,-0.6,80.7,124.2,-92.4,0,3612,0,111,0, 
2.0100,169.8,-205.2,-75.3,-80.1,4.2,-88.5,27.6,3.3,-370.5,-102.3,-130.8,-34.5,-47.7,-184.8,118.2,94.5,-6.9,-6.3,-399.3,-423.6,-0.9,129.9,133.5,-83.7,0,3618,0,112,0, 
2.0133,165.9,-182.1,-24.3,-54.3,19.8,-78.0,29.7,15.6,1556.1,-102.9,-99.6,-27.3,-27.9,-184.8,104.7,69.0,-6.6,-5.7,-340.5,-389.7,-0.3,119.7,120.3,-84.3,0,3624,0,113,0, 
2.0167,136.8,-270.0,-78.3,-74.7,16.2,-78.6,36.3,1.8,-4446.0,-75.9,-102.3,-24.9,-49.5,-189.6,117.9,91.8,-6.9,-6.0,-354.9,-399.3,-1.2,127.2,137.7,-84.6,0,3630,0,114,0, 
2.0200,168.9,-124.8,47.7,-30.6,42.9,-80.1,29.4,23.4,-9781.2,-159.9,-85.5,-10.2,58.2,-177.0,110.7,81.0,-6.9,-5.7,-277.8,-336.6,-0.6,104.4,119.7,-83.4,0,3636,0,115,0, 
2.0233,169.8,-200.4,-66.6,-61.2,36.3,-72.9,37.5,9.9,-6594.9,-100.5,-107.7,-7.8,-150.6,-180.3,109.8,89.1,-6.9,-6.0,-384.3,-360.0,-0.9,114.0,132.6,-78.3,0,3642,0,116,0, 
2.0267,168.3,-270.6,-59.4,-64.2,16.5,-79.2,36.0,0.6,1407.9,-78.3,-87.0,-12.9,-32.1,-180.3,115.5,94.5,-6.9,-6.3,-301.8,-376.2,-0.6,132.0,142.2,-69.9,0,3648,0,117,0, 
2.0300,163.8,-246.6,-94.2,-73.5,9.3,-87.6,36.9,5.7,2815.8,-65.1,-102.9,-13.8,-3.3,-185.7,118.5,85.8,-6.9,-5.4,-370.2,-375.9,-0.6,131.7,133.8,-70.8,0,3654,0,118,0, 
2.0333,159.9,-200.4,-9.9,-44.7,35.1,-83.1,37.8,16.5,-2667.6,-89.4,-88.8,-3.0,-15.3,-182.4,119.4,89.1,-6.9,-5.7,-304.8,-335.7,-0.3,81.6,129.0,-93.6,0,3660,0,119,0, 
2.0367,161.1,-178.8,-25.5,-50.1,24.9,-88.2,37.2,20.1,-7780.5,-110.4,-86.7,1.8,-19.2,-182.7,111.3,85.8,-6.9,-6.0,-346.5,-375.9,-1.2,117.3,126.6,-100.8,0,3666,0,120,0, 
2.0400,171.6,-192.9,-50.7,-59.4,28.2,-89.7,33.6,11.7,-4371.9,-111.9,-96.0,-21.6,15.6,-179.7,114.3,83.7,-7.2,-6.0,-327.6,-352.5,-0.6,108.6,123.9,-90.0,0,3672,0,121,0, 
2.0433,179.7,-182.4,9.3,-45.6,13.2,-103.5,27.0,14.4,3408.6,-67.8,-90.0,-25.2,-84.0,-184.5,111.3,69.3,-6.6,-5.7,-322.2,-420.9,-0.6,129.3,117.3,-88.8,0,3678,0,122,0, 
2.0467,162.6,-253.5,-83.1,-64.2,30.3,-85.5,38.1,-0.6,5705.7,-81.3,-98.1,-3.6,-4.2,-187.8,120.6,107.4,-6.6,-6.0,-369.6,-360.6,-0.6,119.7,145.5,-77.4,0,3684,0,123,0, 
2.0500,161.4,-194.1,-14.7,-28.5,57.6,-74.4,38.1,20.4,0.0,-101.7,-63.9,15.9,-27.9,-174.3,110.7,73.5,-6.9,-5.7,-271.2,-325.5,-0.6,83.7,117.6,-88.5,0,3690,0,124,0, 
2.0533,155.1,-208.8,-58.8,-58.5,26.4,-87.0,36.6,6.9,-5409.3,-71.1,-95.7,-8.1,11.1,-176.7,122.1,94.8,-7.2,-5.7,-348.6,-383.7,-0.6,125.1,132.0,-75.9,0,3696,0,125,0, 
2.0567,178.5,-145.8,17.4,-31.8,49.8,-60.0,32.1,22.8,-2297.1,-128.4,-89.1,-10.5,-4.2,-168.3,110.7,69.3,-6.6,-6.0,-326.7,-395.7,0.0,102.9,120.0,-89.4,0,3702,0,126,0, 
2.0600,170.4,-249.6,-78.3,-63.0,25.2,-81.9,35.1,0.9,5705.7,-69.3,-101.4,-3.3,-7.5,-176.1,123.9,100.5,-6.6,-5.7,-375.0,-360.3,-0.6,136.2,139.5,-77.7,0,3708,0,127,0, 
2.0633,174.0,-169.2,-34.5,-42.6,45.0,-80.7,33.6,17.4,7410.0,-115.8,-90.3,12.6,-52.8,-179.7,108.9,72.9,-6.6,-5.7,-368.1,-309.0,-0.6,119.7,127.2,-66.0,0,3714,0,128,0, 
2.0667,163.2,-153.9,-11.1,-47.1,27.0,-82.2,31.2,18.9,1556.1,-71.4,-90.0,-3.0,-19.5,-177.0,118.8,81.6,-7.2,-5.4,-348.3,-375.3,-1.2,124.8,134.1,-84.9,0,3720,0,129,0, 
2.0700,150.3,-246.0,-67.8,-64.2,23.4,-81.3,38.7,3.9,-3705.0,-67.8,-93.3,-26.1,4.5,-174.9,123.6,94.2,-6.6,-6.0,-348.3,-382.8,-0.9,135.9,142.5,-77.1,0,3726,0,130,0, 
2.0733,164.7,-228.0,-87.9,-68.4,27.0,-81.3,34.2,3.3,-222.3,-50.4,-102.6,-21.0,-22.5,-177.9,118.8,87.6,-7.2,-5.4,-355.5,-369.6,-0.9,114.3,131.4,-80.4,0,3732,0,131,0, 
2.0767,180.6,-216.0,-53.7,-63.3,26.1,-78.0,35.4,1.2,7335.9,-93.6,-120.0,-26.7,-12.9,-174.9,107.1,85.2,-6.9,-6.3,-425.7,-370.2,-0.6,95.7,131.7,-85.5,0,3738,0,132,0, 
2.0800,177.0,-191.7,-19.5,-47.7,23.1,-76.8,36.3,9.9,8595.6,-84.9,-75.6,-13.2,3.3,-182.1,108.0,82.2,-7.2,-6.0,-296.7,-392.4,-0.9,126.3,132.6,-80.1,0,3744,0,133,0, 
2.0833,157.5,-191.1,-16.8,-33.3,55.2,-67.5,35.4,13.5,2964.0,-121.8,-66.3,44.4,1.8,-187.5,112.2,80.1,-6.9,-5.7,-352.5,-295.8,-0.6,112.8,135.3,-68.4,0,3750,0,134,0, 
2.0867,149.7,-210.0,-71.1,-62.7,31.2,-57.3,35.7,3.9,-2000.7,-80.4,-106.5,7.5,-43.5,-188.4,118.2,85.2,-6.9,-6.0,-426.3,-350.7,-0.9,106.5,129.6,-90.0,0,3756,0,135,0, 
2.0900,171.0,-205.2,-66.6,-61.5,27.3,-88.5,31.5,3.3,1037.4,-84.0,-96.0,-18.9,-6.6,-175.8,124.8,83.1,-6.9,-6.0,-365.1,-377.4,-0.9,135.6,131.7,-85.8,0,3762,0,136,0, 
2.0933,182.1,-216.9,-60.6,-60.0,18.0,-95.7,26.7,1.5,8002.8,-35.4,-98.1,-10.2,-9.0,-171.6,123.3,88.2,-7.2,-5.7,-370.2,-381.0,-0.6,126.3,126.6,-92.4,0,3768,0,137,0, 
2.0967,173.7,-206.1,-63.6,-55.2,36.6,-80.1,32.1,1.2,9855.3,-84.9,-96.9,4.5,5.7,-175.8,117.3,81.3,-6.9,-5.7,-393.0,-330.0,-0.9,132.6,132.6,-78.9,0,3774,0,138,0, 
2.1000,169.8,-154.2,52.5,-25.8,37.2,-75.0,28.2,18.3,3408.6,-104.7,-58.5,8.7,-18.0,-172.8,113.1,83.4,-6.9,-5.4,-302.1,-346.8,-0.3,108.9,125.7,-79.8,0,3780,0,139,0, 
2.1033,153.6,-183.9,-55.8,-55.5,48.0,-60.0,39.0,8.1,-2074.8,-103.8,-108.3,-10.8,-25.2,-189.6,114.6,95.1,-6.6,-5.7,-439.5,-351.6,-0.9,141.0,139.8,-77.4,0,3786,0,140,0, 
2.1067,174.6,-157.5,32.7,-24.6,38.4,-75.9,27.9,22.8,1185.6,-115.2,-41.4,8.4,-29.4,-188.1,102.9,64.8,-6.9,-5.7,-290.7,-350.1,-0.6,114.9,118.5,-75.0,0,3792,0,141,0, 
2.1100,175.5,-254.4,-145.2,-84.9,10.8,-87.3,26.4,-7.8,8817.9,-4.8,-116.1,-14.1,-4.2,-174.3,122.1,92.4,-7.2,-6.0,-462.0,-381.6,-0.3,156.9,137.7,-73.5,0,3798,0,142,0, 
2.1133,181.2,-156.0,27.6,-25.8,43.8,-71.4,29.1,21.0,10374.0,-65.4,-58.8,8.7,-0.6,-172.8,112.8,83.7,-6.6,-6.0,-274.8,-345.3,-0.3,112.2,123.9,-83.7,0,3804,0,143,0, 
2.1167,153.3,-210.6,-83.1,-56.7,44.1,-72.3,28.5,5.4,3853.2,-70.2,-83.4,26.1,-22.5,-189.9,112.5,82.8,-6.9,-5.7,-419.7,-314.1,-0.6,138.6,131.1,-76.8,0,3810,0,144,0, 
2.1200,158.1,-198.0,-31.2,-49.2,36.6,-53.4,33.3,15.9,-1630.2,-71.1,-74.7,2.4,10.8,-185.4,109.5,80.7,-6.9,-6.3,-344.1,-377.1,-0.3,118.8,125.4,-82.5,0,3816,0,145,0, 
2.1233,171.3,-164.1,-12.6,-52.8,17.1,-74.1,30.3,12.0,1556.1,-80.7,-93.6,-18.9,-37.2,-186.0,106.8,82.5,-7.2,-5.7,-408.9,-399.3,-0.9,116.7,124.8,-88.8,0,3822,0,146,0, 
2.1267,167.4,-241.5,-67.8,-64.2,27.9,-84.9,30.9,3.9,8743.8,-73.2,-111.6,-30.3,-18.6,-182.1,114.9,77.4,-7.2,-5.4,-390.6,-361.8,-0.6,109.8,122.4,-73.8,0,3828,0,147,0, 
2.1300,160.5,-195.0,-22.2,-58.2,4.5,-87.0,29.1,7.2,10374.0,-100.5,-129.3,-62.4,-25.8,-192.6,108.3,75.3,-6.9,-6.0,-398.7,-429.3,-1.2,125.4,117.6,-104.4,0,3834,0,148,0, 
2.1333,163.2,-174.6,-24.0,-40.5,48.6,-63.0,36.6,22.2,3705.0,-92.7,-87.3,-9.9,34.8,-183.9,102.9,70.5,-6.9,-6.0,-348.6,-357.9,-0.9,117.9,120.9,-72.3,0,3840,0,149,0, 
2.1367,151.8,-211.2,-76.5,-65.1,19.2,-76.2,39.0,9.9,-1630.2,-12.3,-93.0,15.0,-15.6,-173.1,124.8,97.5,-6.9,-5.7,-427.5,-334.8,-1.2,173.7,143.1,-72.6,0,3846,0,150,0, 
2.1400,166.8,-203.7,-63.3,-51.3,53.4,-61.8,40.8,12.9,444.6,-76.8,-85.8,25.5,-13.2,-184.8,117.3,90.6,-6.6,-6.0,-409.8,-316.8,-0.9,118.5,136.5,-78.0,0,3852,0,151,0, 
2.1433,175.5,-175.2,-3.9,-42.6,42.9,-68.7,31.8,15.6,8151.0,-46.8,-94.2,14.4,-12.3,-183.3,107.7,76.5,-6.6,-6.0,-397.5,-327.6,-0.9,152.1,128.4,-68.4,0,3858,0,152,0, 
2.1467,164.4,-240.6,-106.2,-72.3,22.2,-78.9,31.2,-2.1,9484.8,-21.6,-87.3,11.1,11.7,-171.0,121.5,90.9,-6.9,-6.0,-381.0,-341.1,-0.9,153.9,128.4,-66.0,0,3864,0,153,0, 
2.1500,168.6,-98.1,53.4,-27.0,46.8,-69.9,34.2,26.7,2964.0,-78.0,-81.6,-14.7,20.4,-178.5,108.3,88.8,-6.9,-5.7,-304.8,-371.7,-0.9,148.5,127.8,-87.9,0,3870,0,154,0, 
2.1533,141.6,-230.4,-59.1,-42.3,68.1,-51.9,37.8,14.1,-2519.4,-77.7,-75.3,36.9,-25.2,-179.1,121.5,87.0,-6.6,-5.7,-381.6,-276.9,-0.6,137.7,132.6,-76.8,0,3876,0,155,0, 
2.1567,186.6,-63.3,71.7,-0.3,64.2,-63.0,30.6,35.7,148.2,-117.6,-13.8,62.7,-34.8,-177.3,101.4,67.2,-6.6,-6.0,-258.0,-230.4,-0.9,108.6,117.3,-83.7,0,3882,0,156,0, 
2.1600,173.4,-235.2,-100.8,-66.9,31.8,-63.3,33.6,1.8,7484.1,-9.6,-123.6,-21.9,-5.4,-159.3,111.9,90.0,-6.6,-5.4,-459.3,-409.8,-0.9,183.0,145.8,-51.0,0,3888,0,157,0, 
2.1633,154.8,-252.0,-57.3,-46.5,61.5,-52.5,36.0,6.3,8966.1,-24.3,-102.6,-3.3,-4.2,-173.1,117.9,98.1,-6.3,-6.0,-412.8,-371.7,-0.9,155.4,145.8,-58.2,0,3894,0,158,0, 
2.1667,152.1,-198.3,-59.1,-58.8,23.4,-72.9,30.6,7.5,2074.8,-30.9,-108.9,-10.2,19.2,-157.8,128.4,106.5,-6.3,-6.0,-414.6,-357.6,-0.9,140.7,135.3,-75.3,0,3900,0,159,0, 
2.1700,160.2,-192.9,-45.0,-56.1,29.1,-77.1,25.5,10.5,-4001.4,-40.5,-90.3,-4.5,5.4,-140.7,142.2,96.6,-6.9,-6.0,-395.7,-377.4,-0.6,181.5,137.4,-64.2,0,3906,0,160,0, 
2.1733,173.4,-175.5,2.1,-28.8,47.1,-48.3,30.6,27.3,-889.2,-38.4,-65.4,29.1,17.7,-163.8,87.6,69.3,-6.9,-5.7,-367.5,-324.3,-0.6,148.2,132.0,-62.7,0,3912,0,161,0, 
2.1767,169.2,-212.1,-84.9,-63.9,39.9,-48.9,30.6,3.3,6372.6,-23.1,-114.6,-3.3,-25.5,-172.5,117.9,96.0,-6.6,-6.0,-439.8,-324.6,-0.6,178.2,140.4,-57.0,0,3918,0,162,0, 
2.1800,169.5,-207.6,-41.1,-48.9,27.6,-92.7,22.5,8.1,8225.1,-23.7,-75.0,2.1,16.5,-156.3,114.3,83.1,-6.9,-5.4,-373.5,-346.8,-0.6,151.2,127.2,-67.2,0,3924,0,163,0, 
2.1833,160.2,-171.0,-35.1,-46.8,44.7,-54.6,30.6,15.6,1630.2,-27.9,-85.2,1.5,15.9,-154.8,119.1,87.9,-6.6,-6.0,-388.2,-324.0,-0.9,174.6,137.4,-52.5,0,3930,0,164,0, 
2.1867,153.0,-198.6,-52.5,-51.0,43.8,-62.7,33.6,13.5,-4001.4,-27.0,-80.4,15.6,12.9,-156.9,136.2,103.5,-7.2,-5.7,-357.3,-333.0,-0.9,160.8,138.3,-64.2,0,3936,0,165,0, 
2.1900,175.8,-141.3,22.8,-21.3,62.4,-50.1,36.0,29.7,-1111.5,-66.6,-65.4,32.7,21.3,-162.6,97.8,69.9,-6.9,-6.0,-338.4,-284.7,-0.6,160.8,129.9,-46.5,0,3942,0,166,0, 
2.1933,163.8,-231.3,-78.3,-64.8,31.5,-70.2,33.0,5.7,6446.7,-37.2,-103.8,-6.3,-10.2,-165.0,114.0,102.6,-7.2,-5.7,-396.6,-361.5,-0.9,164.1,144.6,-62.1,0,3948,0,167,0, 
2.1967,180.9,-57.0,111.6,-0.6,65.4,-59.1,31.8,41.7,7928.7,-146.7,-59.4,21.9,-21.6,-177.0,99.0,85.5,-6.9,-6.0,-300.0,-310.2,-0.6,102.9,129.6,-77.4,0,3954,0,168,0, 
2.2000,146.1,-229.2,-112.5,-54.9,62.4,-48.0,33.3,18.0,815.1,1.8,-111.6,18.0,0.9,-161.1,112.2,80.1,-6.9,-6.0,-443.4,-332.7,-0.6,161.7,126.3,-63.6,0,3960,0,169,0, 
2.2033,138.0,-239.4,-67.2,-57.3,28.8,-63.3,36.3,12.0,-4668.3,-16.5,-91.8,-6.6,25.8,-171.9,107.1,87.6,-7.2,-6.0,-367.5,-350.1,-0.6,181.2,137.4,-58.8,0,3966,0,170,0, 
2.2067,155.1,-184.8,-58.2,-66.6,22.2,-70.5,30.9,12.3,-1556.1,-27.3,-119.1,-30.9,2.1,-171.3,112.8,91.5,-6.9,-5.7,-410.1,-406.5,-0.6,174.6,135.3,-69.6,0,3972,0,171,0, 
2.2100,158.1,-221.1,-38.7,-49.8,54.9,-59.7,33.9,11.7,6520.8,-58.5,-74.1,30.6,6.3,-180.0,110.4,87.0,-6.9,-6.0,-311.7,-255.6,-0.9,149.7,129.3,-60.6,0,3978,0,172,0, 
2.2133,156.6,-198.3,-25.5,-56.7,35.1,-62.7,32.4,15.3,8076.9,-32.4,-103.2,-6.3,2.7,-179.4,107.1,89.7,-7.2,-5.7,-375.9,-381.0,-0.9,155.4,134.4,-63.3,0,3984,0,173,0, 
2.2167,141.9,-186.0,-4.2,-43.5,43.2,-60.3,38.1,21.9,1704.3,-49.5,-92.4,17.7,-2.7,-177.0,108.0,88.2,-7.2,-6.0,-391.5,-331.5,-0.6,175.5,135.9,-54.9,0,3990,0,174,0, 
2.2200,134.1,-208.5,-64.5,-60.3,37.2,-60.3,34.2,11.1,-3853.2,-27.3,-95.7,15.0,45.9,-174.6,109.2,104.7,-6.9,-6.0,-355.8,-340.5,-0.6,155.4,131.7,-67.2,0,3996,0,175,0, 
2.2233,151.5,-209.1,-9.3,-28.8,63.0,-48.9,43.2,26.1,-815.1,-64.8,-41.1,40.8,-34.2,-185.4,100.5,90.3,-6.9,-6.0,-277.5,-293.7,-0.3,142.8,136.2,-55.2,0,4002,0,176,0, 
2.2267,159.0,-191.7,-45.9,-67.2,21.6,-54.0,32.7,9.0,6669.0,-39.9,-128.4,-24.6,5.1,-180.6,109.5,107.4,-7.2,-5.7,-386.1,-392.1,-0.6,165.6,133.5,-69.9,0,4008,0,177,0, 
2.2300,151.8,-231.0,-83.7,-62.7,45.0,-80.4,24.6,5.1,9040.2,-35.4,-92.4,15.0,10.8,-178.2,110.7,84.9,-6.9,-6.0,-334.5,-330.9,-0.6,150.9,117.6,-76.5,0,4014,0,178,0, 
2.2333,151.2,-168.0,9.6,-31.5,53.4,-59.1,30.6,23.1,2223.0,-63.6,-72.6,17.1,47.4,-183.0,107.1,83.4,-6.6,-6.0,-281.4,-338.7,-0.6,146.4,124.2,-81.0,0,4020,0,179,0, 
2.2367,145.2,-188.4,-42.0,-45.9,43.2,-66.9,27.3,20.1,-2815.8,-8.1,-84.6,16.8,0.6,-176.7,117.6,72.6,-7.2,-6.0,-330.0,-330.6,-0.6,174.6,121.2,-68.7,0,4026,0,180,0, 
2.2400,156.0,-198.0,-24.3,-50.7,30.3,-71.7,29.4,10.5,444.6,-55.8,-96.0,-3.6,13.8,-183.0,113.4,90.3,-6.6,-6.0,-321.3,-373.2,-1.2,155.1,129.0,-74.7,0,4032,0,181,0, 
2.2433,160.8,-202.2,-42.0,-45.3,45.6,-69.9,21.9,10.8,8151.0,-65.4,-90.0,21.0,-31.5,-195.6,102.0,77.7,-6.9,-6.0,-322.5,-306.9,-0.6,131.1,111.9,-76.5,0,4038,0,182,0, 
2.2467,151.8,-222.6,-68.1,-63.9,38.4,-71.4,20.7,4.2,9558.9,-7.8,-117.3,-18.3,18.9,-183.9,111.0,74.7,-6.9,-5.7,-327.3,-363.0,-0.3,148.2,113.1,-66.0,0,4044,0,183,0, 
2.2500,157.8,-108.0,83.7,5.4,79.2,-55.5,24.3,41.7,3112.2,-138.9,-7.8,60.0,-9.0,-199.2,88.8,63.3,-6.6,-5.7,-141.0,-274.8,-0.6,106.8,101.4,-76.8,0,4050,0,184,0, 
2.2533,135.9,-209.7,-10.2,-42.6,51.0,-45.9,33.3,17.1,-2889.9,-30.6,-110.7,-0.9,-35.7,-187.8,113.4,91.5,-6.9,-6.3,-389.4,-365.4,-0.6,162.9,133.2,-62.7,0,4056,0,185,0, 
2.2567,144.9,-254.7,-159.3,-99.0,1.2,-84.0,25.8,-9.6,518.7,-4.8,-144.0,-24.0,10.5,-179.7,126.6,116.1,-7.2,-6.0,-369.6,-369.3,-0.9,195.0,140.7,-66.3,0,4062,0,186,0, 
2.2600,162.0,-199.8,-30.9,-49.8,42.0,-60.0,24.3,9.0,8447.4,-21.3,-108.9,-5.1,4.8,-188.1,107.7,81.6,-7.2,-5.7,-339.9,-357.0,-0.6,167.1,122.4,-57.9,0,4068,0,187,0, 
2.2633,151.8,-184.2,-34.5,-51.3,28.5,-63.3,22.5,14.4,10299.9,-75.6,-94.2,-16.5,10.2,-192.3,105.0,77.7,-6.9,-6.0,-294.0,-376.2,-0.6,150.0,112.8,-72.6,0,4074,0,188,0, 
2.2667,140.4,-195.3,-38.7,-43.2,55.5,-54.3,31.5,21.9,3260.4,-27.9,-94.2,16.2,18.0,-189.3,111.9,78.3,-7.2,-6.3,-334.2,-316.5,-0.6,152.7,117.0,-57.6,0,4080,0,189,0, 
2.2700,141.0,-150.0,-5.1,-37.2,41.4,-60.6,27.3,21.9,-2667.6,-78.3,-72.0,3.3,-6.0,-191.1,110.1,81.3,-6.9,-5.7,-206.4,-330.9,-0.6,152.4,118.5,-67.2,0,4086,0,190,0, 
2.2733,161.7,-136.5,-14.7,-31.5,69.9,-32.7,27.0,25.2,815.1,-38.7,-109.5,29.7,-35.7,-191.1,101.4,69.0,-6.9,-6.3,-334.5,-276.6,-0.3,102.3,110.4,-71.4,0,4092,0,191,0, 
2.2767,153.3,-270.3,-83.7,-60.9,34.2,-79.2,23.1,0.9,8225.1,-24.6,-106.2,21.0,47.7,-183.9,111.3,85.5,-6.3,-6.0,-338.7,-309.6,-0.9,154.5,119.7,-60.6,0,4098,0,192,0, 
2.2800,159.9,-192.0,-49.8,-57.9,26.7,-61.8,24.9,8.1,9558.9,-50.7,-105.6,-30.6,24.0,-184.5,110.7,88.2,-6.9,-6.0,-281.7,-408.9,-0.9,159.0,117.0,-65.4,0,4104,0,193,0, 
2.2833,137.7,-194.7,11.1,-37.2,35.1,-61.5,25.2,16.8,3038.1,-60.0,-92.7,-8.7,3.3,-191.4,106.5,84.9,-7.2,-5.4,-275.7,-386.4,-0.3,152.4,123.0,-69.9,0,4110,0,194,0, 
2.2867,135.6,-195.3,-59.7,-54.6,34.5,-63.3,28.5,10.2,-2148.9,-75.3,-91.2,12.6,-0.6,-191.7,116.1,89.4,-7.2,-5.7,-316.8,-330.3,-0.3,141.6,128.1,-65.4,0,4116,0,195,0, 
2.2900,156.0,-177.3,-3.6,-37.2,57.9,-55.5,27.6,21.6,1111.5,-56.7,-105.3,-2.4,11.4,-187.5,107.4,74.7,-6.9,-5.7,-305.1,-387.6,-0.3,151.5,113.1,-67.8,0,4122,0,196,0, 
2.2933,164.1,-205.2,-93.6,-64.2,30.0,-59.1,27.3,5.4,8447.4,-44.1,-112.2,7.2,-15.6,-186.9,113.7,89.7,-6.9,-6.0,-289.2,-301.5,-0.6,162.3,130.8,-54.3,0,4128,0,197,0, 
2.2967,168.3,-116.7,22.2,-42.0,25.8,-66.3,21.0,21.6,10151.7,-58.2,-126.3,-27.3,12.6,-188.1,105.3,76.5,-6.6,-5.7,-315.3,-390.3,-0.6,151.5,119.4,-72.3,0,4134,0,198,0, 
2.3000,134.7,-255.0,-77.4,-54.9,37.5,-56.1,27.6,4.8,3408.6,-25.2,-86.7,11.7,31.8,-182.4,112.5,75.3,-6.9,-6.0,-243.6,-334.8,-0.3,153.3,127.8,-53.7,0,4140,0,199,0, 
2.3033,149.1,-115.8,67.8,-25.5,36.3,-54.9,24.9,31.8,-1778.4,-61.8,-117.0,-6.3,15.0,-191.4,101.7,69.3,-6.6,-6.0,-347.4,-379.2,-0.9,132.0,102.9,-72.0,0,4146,0,200,0, 
2.3067,139.2,-274.5,-177.6,-92.7,18.9,-58.2,29.4,-10.5,1704.3,-33.0,-139.5,-20.7,1.2,-190.5,110.4,95.4,-6.9,-6.0,-334.5,-366.6,-0.6,166.5,124.5,-55.2,0,4152,0,201,0, 
2.3100,156.9,-201.3,9.0,-24.3,54.0,-52.8,26.4,17.1,8966.1,-93.6,-71.4,21.0,5.1,-209.1,90.3,72.0,-6.9,-6.0,-213.0,-285.9,-0.6,115.2,109.8,-80.1,0,4158,0,202,0, 
2.3133,144.6,-220.8,-41.4,-41.4,53.7,-31.5,30.9,12.3,10596.3,-76.2,-75.9,14.1,-22.8,-206.7,92.4,74.1,-6.6,-6.0,-224.1,-344.1,-1.2,127.2,123.6,-69.0,0,4164,0,203,0, 
2.3167,137.4,-228.3,-94.2,-71.4,23.7,-49.2,33.9,4.8,3260.4,-5.1,-129.6,-23.4,29.4,-187.5,115.5,100.2,-6.9,-5.7,-351.0,-391.2,-0.3,182.1,144.0,-55.2,0,4170,0,204,0, 
2.3200,137.4,-162.0,33.0,-28.5,42.0,-71.7,28.8,20.7,-2000.7,-72.6,-90.6,-1.8,1.2,-196.2,104.7,84.6,-6.9,-6.0,-256.2,-362.4,-0.9,167.4,128.1,-50.4,0,4176,0,205,0, 
2.3233,144.9,-230.4,-102.6,-57.3,42.6,-55.8,29.4,8.4,1407.9,-27.0,-93.3,15.6,26.4,-194.4,105.0,75.6,-7.2,-6.3,-263.1,-321.3,-0.6,141.3,132.0,-51.0,0,4182,0,206,0, 
2.3267,167.7,-120.0,64.8,-4.8,68.7,-57.9,25.8,30.0,9040.2,-96.3,-66.0,26.7,-20.1,-204.6,90.3,71.4,-6.6,-6.0,-203.4,-286.5,-0.6,125.4,118.2,-56.4,0,4188,0,207,0, 
2.3300,150.9,-259.5,-132.9,-77.7,29.1,-67.2,24.3,-6.9,10225.8,-3.0,-128.7,-15.6,59.1,-176.7,127.5,102.0,-6.9,-5.7,-323.7,-412.5,-0.6,181.5,126.6,-55.2,0,4194,0,208,0, 
2.3333,142.8,-150.9,82.2,9.9,76.2,-52.2,28.8,34.5,3408.6,-90.0,-26.1,50.7,-19.5,-204.0,108.3,76.2,-6.9,-6.0,-135.0,-303.3,-0.9,113.4,117.3,-59.1,0,4200,0,209,0, 
2.3367,148.8,-170.1,-21.6,-32.7,54.3,-65.7,24.3,17.7,-2000.7,-30.9,-89.4,28.8,14.7,-177.9,121.8,81.6,-6.9,-6.3,-230.4,-283.5,-0.9,175.5,124.5,-61.2,0,4206,0,210,0, 
2.3400,145.2,-200.1,-70.8,-52.8,32.1,-66.9,28.5,8.4,1185.6,-19.8,-106.8,-17.4,-3.6,-196.8,108.3,90.6,-7.2,-5.4,-291.9,-428.4,-0.9,182.4,134.4,-50.1,0,4212,0,211,0, 
2.3433,161.7,-181.2,-23.7,-35.1,41.1,-69.0,26.7,10.2,8743.8,-54.9,-93.0,9.0,15.6,-194.7,112.5,96.0,-7.2,-5.7,-245.7,-347.7,-0.6,126.6,130.2,-58.8,0,4218,0,212,0, 
2.3467,157.8,-203.7,-36.9,-35.1,59.7,-57.6,26.4,12.3,9855.3,-45.3,-96.9,7.8,39.0,-183.3,101.1,71.4,-6.9,-6.0,-274.5,-343.5,-0.3,174.3,133.5,-33.6,0,4224,0,213,0, 
2.3500,150.3,-169.5,-27.9,-44.4,33.3,-64.8,23.4,16.5,2964.0,-4.2,-110.7,0.3,36.9,-171.6,119.4,86.1,-6.9,-5.7,-270.3,-364.8,-1.2,191.7,137.4,-48.9,0,4230,0,214,0, 
2.3533,141.6,-194.1,-39.9,-41.7,46.5,-62.4,32.1,13.5,-3038.1,-38.7,-95.1,8.1,16.2,-187.8,114.6,93.3,-6.9,-5.7,-258.3,-340.2,-0.6,160.2,136.5,-47.1,0,4236,0,215,0, 
2.3567,158.1,-160.2,5.1,-39.3,29.4,-84.0,25.5,13.2,1185.6,-71.4,-84.3,-5.7,16.8,-184.5,108.6,99.3,-7.2,-5.7,-228.9,-384.6,-0.6,142.5,126.6,-67.2,0,4242,0,216,0, 
2.3600,169.5,-191.4,-51.9,-43.2,69.3,-53.4,22.8,7.5,8373.3,-51.9,-93.6,23.7,0.6,-179.7,113.4,72.3,-6.3,-6.0,-241.2,-309.9,-0.9,139.5,114.0,-54.3,0,4248,0,217,0, 
2.3633,150.9,-228.9,-90.0,-66.9,24.0,-57.6,22.8,0.6,9929.4,-4.8,-113.4,-12.9,14.1,-181.8,109.8,86.1,-7.2,-6.0,-269.4,-369.3,-0.3,176.4,125.4,-43.2,0,4254,0,218,0, 
2.3667,144.3,-194.7,-52.5,-59.7,18.3,-85.5,24.0,3.6,3482.7,-1.5,-105.6,-12.9,38.1,-175.5,105.3,79.2,-6.6,-5.7,-261.9,-384.0,-0.3,195.3,123.9,-43.2,0,4260,0,219,0, 
2.3700,147.0,-184.2,-32.7,-36.9,55.5,-51.3,31.2,20.1,-2148.9,-27.0,-90.0,15.6,29.7,-176.4,110.4,84.3,-6.9,-6.3,-225.3,-314.4,-0.6,157.8,124.8,-42.3,0,4266,0,220,0, 
2.3733,156.6,-158.1,9.3,-23.7,55.2,-59.1,26.1,23.7,1333.8,-80.4,-62.1,11.7,1.5,-193.8,92.1,69.9,-6.6,-5.7,-168.9,-356.7,-0.6,146.1,112.8,-52.8,0,4272,0,221,0, 
2.3767,162.6,-177.9,-21.6,-33.0,53.1,-60.3,25.2,14.4,8669.7,-69.6,-83.1,19.2,10.5,-183.0,113.1,75.3,-7.2,-6.0,-216.0,-265.8,-0.9,136.8,110.7,-51.6,0,4278,0,222,0, 
2.3800,154.2,-183.6,-78.3,-65.7,20.7,-70.5,29.1,7.8,10522.2,-16.5,-137.1,-39.6,12.0,-177.0,121.2,99.0,-6.9,-6.0,-300.0,-420.3,-0.6,181.8,126.0,-48.0,0,4284,0,223,0, 
2.3833,142.2,-191.7,-8.1,-32.7,37.2,-61.8,28.2,15.0,4223.7,-64.8,-74.7,1.2,38.7,-177.9,117.9,85.5,-7.2,-5.7,-174.9,-363.3,-0.6,165.3,120.3,-58.2,0,4290,0,224,0, 
2.3867,145.5,-189.6,-31.5,-29.1,66.3,-51.6,34.8,28.2,-1037.4,-54.9,-88.8,38.4,15.6,-182.7,103.8,76.8,-6.6,-6.0,-264.6,-285.3,-0.6,141.9,116.7,-48.6,0,4296,0,225,0, 
2.3900,168.6,-99.3,66.3,-8.4,59.7,-60.9,32.4,35.7,2371.2,-85.5,-81.9,17.1,38.7,-185.1,102.0,84.6,-6.6,-5.7,-192.6,-328.2,-0.6,139.5,119.1,-50.7,0,4302,0,226,0, 
2.3933,178.2,-90.9,37.2,-17.7,44.7,-64.2,31.2,41.1,10077.6,-83.4,-79.5,3.0,-39.0,-196.8,96.9,74.1,-7.2,-6.3,-144.3,-383.4,-0.9,117.3,109.2,-52.8,0,4308,0,227,0, 
2.3967,143.7,-252.0,-93.9,-52.2,55.8,-47.1,41.1,11.1,11856.0,-0.6,-101.4,3.9,28.2,-187.8,106.2,102.0,-6.6,-6.0,-227.1,-321.9,-0.9,198.3,142.5,-17.1,0,4314,0,228,0, 
2.4000,137.7,-199.8,-78.9,-51.6,49.2,-43.8,36.6,16.2,4742.4,-18.0,-112.8,10.8,24.0,-186.6,115.8,95.1,-6.9,-6.3,-275.4,-309.6,-0.9,178.8,138.6,-30.3,0,4320,0,229,0, 
2.4033,135.0,-207.6,-25.8,-30.6,67.5,-34.5,42.3,18.9,0.0,-38.7,-81.3,18.3,8.1,-197.1,110.1,101.7,-6.9,-6.3,-131.7,-316.2,-0.3,176.7,140.7,-30.3,0,4326,0,230,0, 
2.4067,154.8,-174.3,-4.5,-35.1,31.8,-59.1,33.0,17.1,2964.0,-64.8,-86.4,14.4,3.0,-195.9,100.8,75.9,-7.2,-5.7,-184.8,-363.0,-0.6,132.0,120.9,-52.2,0,4332,0,231,0, 
2.4100,151.2,-197.7,-81.6,-64.2,24.0,-67.2,30.3,0.9,11411.4,-53.1,-120.6,-11.1,-8.4,-204.3,101.4,93.0,-6.9,-6.0,-250.2,-361.2,-0.6,156.3,122.1,-48.3,0,4338,0,232,0, 
2.4133,148.2,-203.4,-98.4,-74.1,12.6,-81.3,25.8,-0.6,13263.9,-28.8,-143.4,-24.0,19.5,-190.8,107.1,76.8,-7.2,-6.0,-323.1,-360.0,-0.3,186.9,124.8,-38.7,0,4344,0,233,0, 
2.4167,134.1,-208.8,-30.3,-39.6,54.0,-64.8,30.6,8.7,6743.1,-75.9,-77.1,19.8,3.0,-189.3,124.8,83.7,-6.9,-5.7,-162.6,-324.0,-0.6,144.3,121.2,-49.5,0,4350,0,234,0, 
2.4200,137.1,-184.5,-12.3,-24.3,60.9,-53.7,32.7,20.1,1259.7,-71.4,-76.2,47.1,9.9,-196.8,94.2,55.8,-6.6,-6.3,-193.5,-277.5,-0.3,143.1,116.4,-44.1,0,4356,0,235,0, 
