Time,P3,C3,F3,Fz,F4,C4,P4,Cz,CM,A1,Fp1,Fp2,T3,T5,O1,O2,X3,X2,F7,F8,X1,A2,T6,T4,Trigger,Time_Offset,ADC_Status,ADC_Sequence,Event,Comments
0.0033,-106.8,-54.3,-219.3,-159.9,9313.2,-250.5,97.5,5991.3,48757.8,-76.8,5549.4,6668.7,72.6,6831.0,6383.4,6105.0,-6.6,-6.3,6440.7,6719.4,-0.9,-10.8,5771.1,-427.8,0,6,1034821877760,93,0, 
0.0067,-54.3,-43.2,-192.0,-108.0,7943.7,-307.2,148.5,9830.1,98034.3,-5.1,9830.1,9817.5,45.6,9827.1,9830.1,9830.1,-7.5,-5.7,9830.1,9830.1,-0.9,78.0,4497.9,-436.2,0,12,1034821877760,94,0, 
0.0100,30.0,-45.6,-148.5,-4.5,-6602.1,-646.2,247.5,-1171.2,-5261.1,183.9,-2380.8,-2082.0,-609.9,-153.0,-322.2,-1166.4,-6.9,-5.4,-1931.1,-1405.8,-1.2,279.0,-5553.9,-518.1,0,18,1034821877760,95,0, 
0.0133,13.2,-61.2,-151.2,-9.9,-9819.9,-746.7,246.9,-9830.1,-104999.7,183.9,-9830.1,-9817.8,-904.8,-9827.4,-9830.1,-9830.1,-6.9,-6.0,-9830.1,-9830.1,-0.9,288.9,-8841.3,-549.3,0,24,1034821877760,96,0, 
0.0167,-60.6,-62.1,-186.6,-90.3,-3400.5,-512.1,163.8,-8242.2,-67801.5,23.4,-5326.2,-5779.8,-489.9,-7390.2,-7998.9,-8189.4,-6.9,-5.7,-7434.6,-7269.6,-0.9,128.1,-2073.3,-492.6,0,30,1034821877760,97,0, 
0.0200,-94.8,-51.0,-209.4,-140.1,9176.1,-269.4,106.2,7403.7,45645.6,-76.2,5219.7,6465.6,26.1,8057.1,7665.6,7446.0,-6.9,-6.3,7076.7,7654.8,-0.9,20.7,5142.3,-440.4,0,36,1034821877760,98,0, 
0.0233,-49.5,-42.3,-181.8,-93.9,7950.6,-316.5,145.5,9830.1,92106.3,-2.7,9698.1,9817.5,35.4,9827.1,9830.1,9830.1,-7.2,-5.7,9830.1,9830.1,-0.9,90.6,4324.5,-446.4,0,42,1034821877760,99,0, 
0.0267,28.5,-41.4,-143.4,-3.6,-5910.3,-626.1,237.9,923.1,4075.5,170.1,-1340.7,-967.8,-560.4,1795.5,1624.2,854.7,-6.9,-6.3,-387.6,264.6,-0.6,261.3,-4670.7,-522.9,0,48,1034821877760,100,0, 
0.0300,32.1,-51.9,-133.5,7.8,-9819.9,-779.4,256.2,-9830.1,-108482.4,218.1,-9830.1,-9817.8,-944.1,-9827.4,-9830.1,-9830.1,-6.9,-5.7,-9830.1,-9830.1,-0.9,299.4,-9465.6,-565.8,0,54,1034821877760,101,0, 
0.0333,-48.9,-49.5,-181.2,-91.8,-3388.5,-516.3,164.7,-8186.1,-73729.5,48.6,-5725.2,-6040.2,-495.6,-7485.0,-8047.2,-8134.2,-6.9,-5.7,-7605.6,-7362.6,-0.6,124.8,-2217.3,-503.1,0,60,1034821877760,102,0, 
0.0367,-92.1,-48.3,-207.9,-154.2,9772.5,-254.1,100.2,7240.2,54463.5,-74.1,6358.5,7235.7,87.9,7846.2,7420.5,7301.4,-6.9,-5.7,7266.6,7668.3,-1.2,-0.3,6007.5,-438.3,0,66,1034821877760,103,0, 
0.0400,-34.8,-32.4,-186.9,-99.6,6807.0,-343.8,156.0,9830.1,88327.2,20.1,9239.1,9817.5,2.1,9827.1,9830.1,9830.1,-6.9,-6.6,9830.1,9830.1,-0.9,90.0,3704.7,-453.9,0,72,1034821877760,104,0, 
0.0433,34.5,-39.3,-154.2,-18.6,-6060.9,-630.6,244.5,767.4,-1482.0,180.6,-1916.7,-1606.5,-562.8,1438.5,1348.8,637.2,-7.2,-6.0,-996.6,-88.5,-0.9,255.0,-4820.4,-521.1,0,78,1034821877760,105,0, 
0.0467,30.9,-48.0,-146.7,-13.5,-9819.9,-752.4,252.3,-9830.1,-99294.0,201.3,-9830.1,-9817.8,-885.0,-9827.4,-9830.1,-9830.1,-6.6,-6.3,-9830.1,-9830.1,-0.3,276.6,-8666.7,-551.1,0,84,1034821877760,106,0, 
0.0500,-39.9,-54.0,-182.1,-93.3,-4671.0,-540.6,176.1,-8597.4,-77879.1,59.1,-6548.1,-6907.8,-531.6,-8073.3,-8540.7,-8573.4,-6.3,-6.3,-8157.0,-7959.3,-0.9,130.2,-2866.8,-498.0,0,90,1034821877760,107,0, 
0.0533,-90.9,-45.6,-206.7,-157.8,9417.6,-256.5,99.3,6305.7,49350.6,-78.0,5669.4,6931.8,82.5,6958.8,6420.9,6374.1,-6.6,-6.0,6669.3,6975.6,-1.2,-6.9,5875.8,-437.4,0,96,1034821877760,108,0, 
0.0567,-36.3,-26.7,-168.0,-94.2,7983.6,-312.6,152.1,9830.1,98478.9,12.3,9830.1,9817.5,60.9,9827.1,9830.1,9830.1,-7.2,-6.3,9830.1,9830.1,-1.2,82.8,4562.7,-441.9,0,102,1034821877760,109,0, 
0.0600,36.6,-27.0,-126.9,1.8,-6572.4,-662.7,242.1,-807.0,-4668.3,206.4,-2219.7,-1598.1,-597.9,-84.3,-191.7,-866.7,-6.9,-6.3,-1740.9,-1124.1,-0.9,271.5,-5472.6,-525.6,0,108,1034821877760,110,0, 
0.0633,30.0,-37.5,-126.9,3.6,-9819.9,-754.2,255.6,-9830.1,-103665.9,212.7,-9830.1,-9817.8,-877.8,-9827.4,-9830.1,-9830.1,-6.9,-5.7,-9830.1,-9830.1,-0.6,285.6,-8737.5,-543.6,0,114,1034821877760,111,0, 
0.0667,-38.7,-31.8,-159.6,-76.2,-3339.6,-517.2,177.0,-8137.8,-67727.4,67.5,-5285.7,-5530.5,-463.2,-7462.8,-7986.3,-8079.9,-6.6,-5.7,-7382.1,-7116.6,-0.3,138.9,-2085.6,-484.5,0,120,1034821877760,112,0, 
0.0700,-82.2,-27.3,-180.9,-132.6,9116.1,-278.1,117.3,7504.5,45571.5,-49.8,5220.0,6626.4,61.8,7993.2,7684.8,7562.1,-6.9,-6.3,7030.5,7699.5,-0.9,15.0,5208.0,-429.6,0,126,1034821877760,113,0, 
0.0733,-33.9,-12.6,-160.8,-90.3,8015.1,-311.1,155.7,9830.1,93514.2,23.7,9789.9,9817.5,71.7,9827.1,9830.1,9830.1,-6.9,-6.3,9830.1,9830.1,-0.9,90.0,4465.2,-435.3,0,132,1034821877760,114,0, 
0.0767,40.8,-15.6,-123.3,1.5,-5828.7,-623.4,245.4,1202.4,4890.6,198.0,-1188.0,-727.8,-533.7,1847.1,1791.9,1114.8,-6.9,-5.4,-166.8,589.8,-0.9,265.2,-4635.6,-517.5,0,138,1034821877760,115,0, 
0.0800,43.2,-31.2,-125.4,7.8,-9819.9,-776.7,263.1,-9830.1,-108111.9,242.4,-9830.1,-9817.8,-899.7,-9827.4,-9830.1,-9830.1,-7.2,-6.0,-9830.1,-9830.1,-0.9,308.7,-9418.8,-558.9,0,144,1034821877760,116,0, 
0.0833,-39.0,-30.9,-174.3,-93.9,-3288.9,-514.8,177.0,-8048.1,-71654.7,63.0,-5949.9,-6188.4,-460.2,-7513.8,-7945.2,-8015.7,-6.6,-5.7,-7512.0,-7343.7,-0.9,123.3,-2118.6,-495.3,0,150,1034821877760,117,0, 
0.0867,-80.1,-24.3,-199.8,-152.7,9742.8,-251.7,108.6,7388.4,55575.0,-50.7,6142.8,7065.9,109.5,7803.0,7531.8,7423.8,-6.9,-6.0,7321.8,7667.1,-0.9,8.4,6001.5,-438.3,0,156,1034821877760,118,0, 
0.0900,-30.6,-24.0,-176.4,-97.2,7049.4,-350.4,149.1,9830.1,90179.7,29.7,9306.3,9817.5,16.2,9827.1,9830.1,9830.1,-7.2,-6.6,9830.1,9830.1,-0.9,92.1,3819.0,-460.8,0,162,1034821877760,119,0, 
0.0933,34.8,-32.4,-146.7,-17.4,-5871.0,-642.9,231.6,999.0,1556.1,187.8,-1865.4,-1573.2,-552.3,1448.7,1538.7,889.5,-7.2,-6.0,-614.4,78.3,-0.9,256.5,-4681.5,-537.3,0,168,1034821877760,120,0, 
0.0967,42.3,-30.3,-133.8,-0.6,-9819.9,-750.9,253.5,-9830.1,-97367.4,216.9,-9830.1,-9817.8,-862.2,-9827.4,-9830.1,-9830.1,-6.9,-6.0,-9830.1,-9830.1,-0.9,291.0,-8652.9,-556.8,0,174,1034821877760,121,0, 
0.1000,-32.1,-38.4,-174.0,-84.9,-4485.3,-540.3,176.7,-8471.7,-76174.8,69.6,-6552.3,-7055.1,-522.9,-7996.2,-8374.8,-8427.6,-6.6,-6.0,-7994.4,-7890.6,0.0,121.8,-2824.8,-513.3,0,180,1034821877760,122,0, 
0.1033,-87.9,-33.0,-207.3,-162.9,9576.3,-250.2,100.5,6557.7,51944.1,-72.6,5811.9,6781.5,90.3,7139.4,6753.6,6653.4,-7.2,-6.3,6897.3,7103.1,-0.9,-7.8,5998.2,-446.7,0,186,1034821877760,123,0, 
0.1067,-33.9,-12.6,-177.3,-101.7,7978.2,-305.7,147.6,9830.1,100405.5,16.5,9830.1,9817.5,58.5,9827.1,9830.1,9830.1,-6.9,-6.0,9830.1,9830.1,-0.3,78.6,4589.4,-453.0,0,192,1034821877760,124,0, 
0.1100,43.5,-20.4,-139.5,-3.3,-6536.7,-651.9,241.5,-536.7,-2741.7,201.9,-2127.0,-1870.8,-607.5,97.5,217.5,-594.3,-7.5,-6.3,-1661.7,-1209.6,-0.9,266.7,-5407.5,-536.4,0,198,1034821877760,125,0, 
0.1133,36.0,-34.5,-143.1,-1.5,-9819.9,-740.7,244.8,-9830.1,-101220.6,213.9,-9830.1,-9817.8,-884.4,-9827.4,-9830.1,-9830.1,-6.9,-6.0,-9830.1,-9830.1,-0.3,278.1,-8672.7,-554.1,0,204,1034821877760,126,0, 
0.1167,-32.4,-37.8,-177.6,-84.3,-3365.7,-515.7,169.8,-8108.1,-66764.1,65.4,-5280.3,-5757.6,-485.1,-7469.1,-7869.3,-8042.1,-6.6,-6.0,-7296.0,-7257.3,-0.6,126.3,-2118.9,-497.7,0,210,1034821877760,127,0, 
0.1200,-81.6,-39.6,-206.1,-144.6,9058.8,-277.8,105.0,7539.0,46683.0,-54.0,5276.7,6564.0,30.0,7942.2,7834.8,7613.7,-7.2,-6.3,7102.8,7496.7,-0.9,13.5,5273.7,-440.7,0,216,1034821877760,128,0, 
0.1233,-40.5,-26.1,-185.7,-99.6,8103.0,-306.9,143.1,9830.1,96404.1,12.0,9830.1,9817.5,52.8,9827.1,9830.1,9830.1,-7.5,-6.3,9830.1,9830.1,-0.9,78.0,4629.9,-448.8,0,222,1034821877760,129,0, 
0.1267,40.8,-29.4,-137.7,1.8,-5686.5,-623.4,237.9,1456.8,7187.7,196.5,-836.7,-356.1,-562.8,1984.2,2361.3,1430.1,-6.9,-6.0,226.2,673.5,-1.2,254.7,-4583.7,-521.4,0,228,1034821877760,130,0, 
0.1300,42.3,-37.2,-127.5,14.7,-9819.9,-765.6,263.4,-9830.1,-106111.2,237.6,-9830.1,-9817.8,-940.5,-9827.4,-9830.1,-9830.1,-7.2,-6.0,-9830.1,-9830.1,-0.3,299.1,-9398.4,-550.5,0,234,1034821877760,131,0, 
0.1333,-39.3,-34.2,-167.4,-85.2,-3172.2,-499.2,167.1,-7959.0,-70172.7,52.8,-5521.8,-5817.6,-484.5,-7446.9,-7714.2,-7923.9,-6.6,-6.0,-7312.2,-7294.5,-0.6,124.8,-2091.6,-492.6,0,240,1034821877760,132,0, 
0.1367,-82.2,-25.8,-186.3,-143.7,9729.6,-237.3,101.7,7440.9,56241.9,-60.6,6402.6,7282.5,88.8,7849.5,7754.4,7473.3,-6.9,-6.0,7530.3,7687.8,-1.2,-5.1,5960.7,-431.4,0,246,1034821877760,133,0, 
0.1400,-32.7,-15.6,-164.4,-87.0,7308.3,-328.2,149.7,9830.1,91291.2,30.0,9525.0,9817.5,9.9,9827.1,9830.1,9830.1,-6.9,-6.3,9830.1,9830.1,-1.2,95.1,3864.3,-441.0,0,252,1034821877760,134,0, 
0.1433,31.2,-27.6,-132.9,-8.1,-5763.3,-619.5,233.7,1056.0,3779.1,182.4,-1482.6,-1032.3,-563.1,1478.1,1908.9,963.3,-6.6,-5.7,-239.7,159.6,-0.3,246.6,-4584.3,-519.3,0,258,1034821877760,135,0, 
0.1467,31.5,-39.3,-135.3,-3.0,-9819.9,-750.6,252.3,-9830.1,-96255.9,207.3,-9830.1,-9817.8,-878.7,-9827.4,-9830.1,-9830.1,-6.9,-5.7,-9830.1,-9830.1,-0.6,276.9,-8701.2,-548.4,0,264,0,136,0, 
0.1500,-42.0,-42.9,-169.2,-87.6,-4507.2,-537.6,176.1,-8375.1,-75804.3,66.0,-6411.6,-6801.6,-543.3,-7996.5,-8180.4,-8341.8,-6.6,-6.0,-7890.3,-7815.0,-0.3,129.3,-2836.5,-506.4,0,270,689881251840,137,0, 
0.1533,-92.4,-32.7,-204.6,-156.6,9630.9,-253.5,106.5,6767.7,53203.8,-74.7,6047.7,6993.6,90.6,7208.1,7106.7,6850.5,-6.6,-6.0,7001.4,7220.4,-0.6,-7.5,6071.1,-430.8,0,276,689881251840,138,0, 
0.1567,-39.6,-23.4,-180.6,-103.2,7972.8,-316.5,153.9,9830.1,101072.4,18.0,9830.1,9817.5,59.1,9827.1,9830.1,9830.1,-7.2,-5.7,9830.1,9830.1,-0.9,75.6,4601.7,-445.5,0,282,689881251840,139,0, 
0.1600,36.6,-33.9,-147.9,-14.1,-6534.0,-661.8,248.4,-350.4,-1704.3,195.0,-1878.9,-1848.9,-608.4,75.0,703.2,-474.9,-7.2,-6.3,-1745.7,-1376.1,-0.9,261.9,-5364.3,-530.1,0,288,1034821877760,140,0, 
0.1633,24.3,-38.4,-159.0,-17.7,-9819.9,-748.8,257.4,-9830.1,-99960.9,210.3,-9830.1,-9817.8,-888.9,-9827.4,-9830.1,-9830.1,-6.9,-6.0,-9830.1,-9830.1,-0.3,268.5,-8594.4,-557.4,0,294,1034821877760,141,0, 
0.1667,-45.3,-41.4,-199.2,-100.8,-3527.1,-523.8,176.1,-8179.2,-67282.8,53.7,-5226.6,-5781.3,-492.6,-7701.9,-7813.5,-8205.3,-6.0,-6.0,-7493.4,-7464.6,-0.6,123.3,-2209.5,-501.3,0,300,1034821877760,142,0, 
0.1700,-91.8,-42.6,-234.6,-169.2,8936.4,-277.8,109.2,7345.8,46312.5,-61.5,5339.1,6464.1,37.5,7554.3,7844.4,7254.6,-6.9,-6.0,6818.4,7212.3,-0.6,-4.2,5242.5,-444.6,0,306,1034821877760,143,0, 
0.1733,-44.4,-24.0,-201.3,-121.2,8181.0,-303.9,144.0,9830.1,97441.5,12.3,9830.1,9817.5,52.8,9827.1,9830.1,9830.1,-6.9,-5.7,9830.1,9830.1,-0.6,65.4,4667.7,-445.2,0,312,1034821877760,144,0, 
0.1767,37.2,-27.3,-157.2,-22.8,-5662.8,-626.1,245.7,1542.3,7706.4,184.8,-608.7,-361.8,-554.1,1904.4,2568.0,1436.1,-7.2,-5.7,179.4,504.0,-0.3,242.1,-4612.5,-521.1,0,318,1034821877760,145,0, 
0.1800,39.9,-31.8,-153.9,-7.8,-9819.9,-773.7,265.2,-9830.1,-106037.1,222.3,-9830.1,-9817.8,-927.9,-9827.4,-9830.1,-9830.1,-7.2,-5.4,-9830.1,-9830.1,0.0,288.9,-9423.6,-555.0,0,324,1034821877760,146,0, 
0.1833,-43.8,-33.6,-191.7,-99.9,-3531.9,-503.4,173.4,-7918.8,-69728.1,55.8,-5271.6,-5891.7,-473.4,-7504.8,-7594.8,-7908.6,-6.6,-6.3,-7355.4,-7385.7,-0.3,114.6,-2058.3,-495.9,0,330,1034821877760,147,0, 
0.1867,-82.5,-20.4,-217.5,-155.7,9615.9,-248.1,108.3,7444.2,55797.3,-57.6,6611.1,7278.6,87.9,7761.9,7849.8,7452.0,-6.6,-6.0,7458.0,7590.0,-1.2,-3.6,5934.9,-433.5,0,336,1034821877760,148,0, 
0.1900,-30.6,-12.6,-187.8,-97.8,7433.1,-333.6,155.1,9830.1,91958.1,31.8,9744.6,9817.5,22.5,9827.1,9830.1,9830.1,-6.9,-6.0,9830.1,9830.1,-0.6,91.8,3927.0,-452.1,0,342,1034821877760,149,0, 
0.1933,36.3,-26.7,-157.2,-18.9,-5771.4,-621.0,236.1,1068.0,5557.5,188.7,-883.2,-738.0,-539.1,1436.4,2071.5,972.3,-7.5,-6.0,-172.8,102.9,-0.9,245.1,-4493.7,-529.2,0,348,1034821877760,150,0, 
0.1967,40.2,-25.8,-147.9,-2.4,-9819.9,-760.2,257.7,-9830.1,-95959.5,227.7,-9830.1,-9817.8,-868.8,-9827.4,-9830.1,-9830.1,-7.2,-6.3,-9830.1,-9830.1,-0.6,283.8,-8710.5,-552.9,0,354,1034821877760,151,0, 
0.2000,-28.8,-22.8,-183.0,-81.6,-4701.6,-548.1,184.2,-8251.2,-75952.5,93.3,-6234.9,-6704.1,-513.9,-7959.3,-8040.6,-8233.8,-6.6,-6.0,-7820.7,-7864.8,-0.6,139.8,-2852.7,-501.9,0,360,1034821877760,152,0, 
0.2033,-82.2,-18.6,-216.0,-148.2,9570.6,-253.5,104.1,6995.4,54018.9,-52.5,6241.2,7073.4,108.0,7306.8,7318.8,7047.0,-7.2,-5.7,7096.8,7178.4,-0.9,-3.0,6130.5,-433.5,0,366,1034821877760,153,0, 
0.2067,-23.4,-2.7,-184.5,-89.4,7886.4,-317.4,151.8,9830.1,101517.0,30.6,9830.1,9817.5,87.9,9827.1,9830.1,9830.1,-7.2,-6.3,9830.1,9830.1,-0.9,80.7,4612.8,-441.6,0,372,1034821877760,154,0, 
0.2100,54.3,-9.0,-139.8,7.2,-6673.8,-653.4,251.4,-211.2,-1037.4,216.3,-1616.4,-1815.6,-575.7,113.7,846.0,-317.1,-7.2,-5.7,-1671.9,-1505.4,-0.9,267.0,-5311.2,-520.8,0,378,1034821877760,155,0, 
0.2133,46.5,-16.5,-140.1,4.2,-9819.9,-747.6,258.6,-9830.1,-98775.3,226.8,-9830.1,-9817.8,-864.3,-9827.4,-9830.1,-9830.1,-6.6,-6.0,-9830.1,-9830.1,-0.9,278.1,-8580.3,-539.7,0,384,1034821877760,156,0, 
0.2167,-26.4,-18.6,-181.8,-84.3,-3844.8,-528.9,184.5,-8370.6,-67653.3,84.3,-5082.9,-5845.5,-486.3,-7892.1,-7867.5,-8339.1,-6.9,-6.0,-7540.8,-7707.6,-0.6,130.5,-2251.5,-495.3,0,390,1034821877760,157,0, 
0.2200,-70.8,-18.0,-214.5,-148.2,8772.3,-267.6,121.2,6962.4,46534.8,-33.9,5564.1,6306.3,54.0,7261.5,7677.0,6977.7,-6.6,-5.7,6720.9,6896.1,-0.9,14.7,5265.0,-437.7,0,396,1034821877760,158,0, 
0.2233,-22.8,1.5,-189.0,-106.8,8193.0,-301.5,157.5,9830.1,98627.1,24.3,9830.1,9817.5,84.6,9827.1,9830.1,9830.1,-7.2,-6.0,9830.1,9830.1,-0.9,81.9,4768.8,-441.9,0,402,1034821877760,159,0, 
0.2267,52.5,-6.3,-148.2,-12.9,-5708.4,-628.5,249.0,1478.7,7854.6,203.1,-483.9,-445.2,-534.9,1895.1,2667.9,1470.0,-6.9,-5.7,148.2,348.9,-0.6,253.8,-4602.6,-522.6,0,408,1034821877760,160,0, 
0.2300,57.3,-17.4,-138.9,3.3,-9819.9,-762.9,268.8,-9830.1,-106185.3,242.4,-9830.1,-9817.8,-904.5,-9827.4,-9830.1,-9830.1,-6.9,-6.0,-9830.1,-9830.1,-1.2,303.9,-9401.1,-558.6,0,414,1034821877760,161,0, 
0.2333,-30.3,-20.4,-182.1,-96.0,-3532.5,-507.0,184.2,-7975.5,-69505.8,67.2,-5302.2,-6053.7,-463.2,-7537.5,-7597.2,-7903.8,-7.2,-6.0,-7369.8,-7496.7,-0.6,123.6,-2019.0,-496.5,0,420,1034821877760,162,0, 
0.2367,-74.7,-16.5,-207.6,-151.2,9603.3,-248.7,121.2,7350.9,54908.1,-51.9,6544.2,7173.3,91.2,7668.9,7823.4,7418.1,-6.6,-6.0,7426.2,7459.5,-0.9,-4.8,5889.6,-434.1,0,426,1034821877760,163,0, 
0.2400,-20.1,-5.4,-176.7,-90.9,7480.5,-322.8,171.0,9830.1,91513.5,41.1,9703.2,9817.5,30.9,9827.1,9830.1,9830.1,-7.5,-6.0,9830.1,9830.1,-0.9,91.8,3963.3,-449.7,0,432,1034821877760,164,0, 
0.2433,38.4,-16.8,-151.5,-15.3,-5742.6,-619.5,246.6,968.7,6150.3,184.5,-901.5,-989.4,-533.1,1276.5,2080.5,899.1,-6.9,-5.7,-216.0,-122.1,-0.9,250.5,-4385.7,-522.9,0,438,1034821877760,165,0, 
0.2467,45.3,-23.7,-143.4,2.1,-9819.9,-750.3,272.7,-9830.1,-96774.6,223.2,-9830.1,-9817.8,-882.9,-9827.4,-9830.1,-9830.1,-6.9,-5.7,-9830.1,-9830.1,-0.6,285.3,-8756.4,-548.1,0,444,1034821877760,166,0, 
0.2500,-28.8,-24.0,-180.6,-78.6,-4490.1,-534.3,190.8,-8198.7,-77064.0,71.7,-6222.0,-6870.3,-527.7,-7943.7,-7938.9,-8200.5,-6.9,-6.0,-7822.2,-7959.6,-0.6,126.6,-2834.7,-506.7,0,450,1034821877760,167,0, 
0.2533,-86.4,-21.0,-214.5,-155.7,9659.7,-238.2,109.5,7079.1,53648.4,-72.9,6222.6,6798.9,100.2,7358.4,7475.4,7080.0,-7.2,-6.0,7103.7,7108.8,-0.6,-15.0,6142.2,-436.8,0,456,1034821877760,168,0, 
0.2567,-24.6,7.2,-174.0,-95.4,7861.5,-308.1,159.3,9830.1,100776.0,13.8,9830.1,9817.5,70.8,9827.1,9830.1,9830.1,-7.2,-6.0,9830.1,9830.1,-0.9,73.2,4588.2,-446.7,0,462,1034821877760,169,0, 
0.2600,48.0,-6.9,-136.5,1.8,-6590.4,-654.6,248.7,-137.4,-889.2,194.4,-1558.2,-2048.4,-581.4,209.1,1001.1,-311.1,-6.9,-5.4,-1788.3,-1500.0,-0.9,264.0,-5215.5,-540.0,0,468,1034821877760,170,0, 
0.2633,39.6,-12.3,-135.3,-1.2,-9819.9,-747.6,257.7,-9830.1,-97886.1,206.4,-9830.1,-9817.8,-857.1,-9827.4,-9830.1,-9830.1,-7.2,-6.0,-9830.1,-9830.1,-0.3,267.9,-8482.8,-555.3,0,474,1034821877760,171,0, 
0.2667,-33.9,-27.3,-174.3,-83.4,-3707.1,-530.7,182.7,-8547.0,-68394.3,73.2,-5290.5,-6107.4,-485.4,-8027.4,-8141.7,-8544.9,-7.2,-5.7,-7675.2,-7875.3,-0.3,128.7,-2319.3,-505.5,0,480,1034821877760,172,0, 
0.2700,-77.1,-12.9,-195.0,-138.3,8806.5,-280.2,117.3,6748.5,46090.2,-60.6,5358.6,6141.6,61.5,7100.7,7330.2,6717.0,-6.0,-5.7,6600.0,6693.0,-0.9,3.6,5343.9,-448.5,0,486,1034821877760,173,0, 
0.2733,-32.4,0.6,-170.4,-90.3,8320.2,-304.2,147.9,9830.1,99664.5,12.9,9830.1,9817.5,81.9,9827.1,9830.1,9830.1,-6.3,-6.3,9830.1,9830.1,-0.6,74.4,4898.1,-456.3,0,492,1034821877760,174,0, 
0.2767,53.7,-0.3,-119.1,16.8,-5509.8,-617.1,250.2,1638.3,8373.3,202.8,-371.7,-391.2,-530.7,2039.4,2809.8,1500.0,-6.9,-5.7,335.1,370.5,-0.6,267.0,-4603.5,-518.4,0,498,1034821877760,175,0, 
0.2800,53.7,-9.3,-114.6,31.2,-9819.9,-764.4,271.5,-9830.1,-105592.5,242.1,-9830.1,-9817.8,-906.9,-9827.4,-9830.1,-9830.1,-7.2,-6.0,-9830.1,-9830.1,-0.6,312.3,-9396.6,-543.0,0,504,1034821877760,176,0, 
0.2833,-30.3,-9.3,-153.0,-59.4,-3305.4,-504.6,183.3,-7977.0,-68838.9,67.2,-5383.8,-6162.0,-460.8,-7494.9,-7572.9,-7957.2,-6.9,-6.0,-7313.1,-7499.1,-0.9,136.5,-1991.4,-483.0,0,510,1034821877760,177,0, 
0.2867,-71.1,-2.7,-178.2,-117.0,9626.4,-253.2,121.5,7331.7,54315.3,-44.7,6528.0,7125.6,105.3,7730.1,7850.4,7356.0,-6.6,-6.3,7443.9,7421.4,-0.6,21.9,5835.3,-420.0,0,516,1034821877760,178,0, 
0.2900,-20.7,6.9,-149.1,-66.3,7747.2,-320.4,161.1,9830.1,92402.7,44.4,9770.4,9817.5,44.7,9827.1,9830.1,9830.1,-6.6,-5.7,9830.1,9830.1,-0.9,104.1,4093.5,-438.6,0,522,1034821877760,179,0, 
0.2933,48.6,9.0,-110.4,19.8,-5533.5,-599.4,247.5,1160.4,8299.2,196.5,-684.9,-666.3,-502.8,1654.2,2376.9,1069.2,-6.9,-6.0,21.9,45.6,-0.6,262.5,-4239.9,-501.3,0,528,1034821877760,180,0, 
0.2967,53.4,1.2,-109.8,32.7,-9819.9,-737.1,267.3,-9830.1,-95885.4,231.9,-9830.1,-9817.8,-861.0,-9827.4,-9830.1,-9830.1,-6.9,-5.7,-9830.1,-9830.1,-0.6,306.9,-8760.6,-533.1,0,534,1034821877760,181,0, 
0.3000,-20.1,-6.6,-157.8,-55.5,-4250.4,-528.6,189.0,-8093.1,-75952.5,82.2,-6197.4,-6804.6,-515.1,-7762.2,-7741.5,-8063.4,-6.6,-6.0,-7756.5,-7887.0,-0.9,156.3,-2799.6,-482.7,0,540,1034821877760,182,0, 
0.3033,-83.4,-9.0,-196.2,-136.8,9723.0,-229.8,105.9,7206.6,55278.6,-58.2,6242.4,6868.2,111.9,7524.6,7703.4,7246.2,-6.3,-5.7,7152.3,7149.6,-0.9,3.3,6228.0,-421.5,0,546,1034821877760,183,0, 
0.3067,-20.7,6.3,-162.3,-78.6,7849.2,-308.4,155.7,9830.1,101887.5,35.4,9830.1,9817.5,81.9,9827.1,9830.1,9830.1,-6.9,-6.0,9830.1,9830.1,-0.9,97.2,4635.0,-438.9,0,552,1034821877760,184,0, 
0.3100,56.7,7.8,-121.2,22.2,-6554.1,-638.1,251.7,33.0,1259.7,213.9,-1491.3,-1815.9,-559.5,460.2,1353.3,-54.0,-7.2,-6.3,-1588.5,-1394.4,-0.9,285.0,-5094.9,-513.9,0,558,1034821877760,185,0, 
0.3133,48.9,-1.5,-113.7,24.9,-9819.9,-735.9,263.7,-9830.1,-95811.3,225.6,-9830.1,-9817.8,-834.0,-9827.4,-9830.1,-9830.1,-7.2,-6.0,-9830.1,-9830.1,-0.3,302.4,-8378.4,-530.4,0,564,1034821877760,186,0, 
0.3167,-17.4,-5.1,-154.5,-55.8,-3741.0,-524.7,189.0,-8751.3,-67801.5,82.5,-5278.5,-6092.1,-480.6,-8127.6,-8128.8,-8694.0,-6.9,-5.7,-7787.7,-7962.0,-0.9,159.0,-2358.3,-482.7,0,570,1034821877760,187,0, 
0.3200,-63.0,-2.4,-186.3,-121.2,8754.9,-268.8,118.2,6511.8,47275.8,-39.3,5296.2,6118.2,76.2,7014.6,7406.4,6566.4,-6.6,-6.3,6481.2,6592.8,-0.9,35.7,5403.0,-432.6,0,576,1034821877760,188,0, 
0.3233,-23.7,6.0,-164.4,-76.5,8453.1,-292.2,153.6,9830.1,101813.4,27.3,9830.1,9817.5,107.7,9827.1,9830.1,9830.1,-7.2,-6.0,9830.1,9830.1,-0.9,96.0,5013.3,-429.6,0,582,1034821877760,189,0, 
0.3267,55.5,4.2,-125.1,22.5,-5453.1,-626.4,255.3,1708.8,9707.1,205.5,-369.3,-348.3,-527.1,2126.7,3272.7,1620.6,-6.9,-6.0,398.4,442.8,-0.9,282.0,-4595.1,-507.0,0,588,1034821877760,190,0, 
0.3300,55.2,-5.7,-128.4,27.0,-9819.9,-777.3,275.4,-9830.1,-104184.6,234.6,-9830.1,-9817.8,-900.3,-9827.4,-9830.1,-9830.1,-6.6,-6.3,-9830.1,-9830.1,-0.6,318.9,-9336.0,-540.0,0,594,1034821877760,191,0, 
0.3333,-24.3,-1.8,-162.6,-64.2,-3303.3,-504.0,188.7,-7986.3,-67282.8,69.0,-5255.4,-6124.8,-440.7,-7496.7,-7414.8,-7971.3,-6.9,-5.7,-7323.6,-7462.5,-0.9,142.8,-1933.2,-478.5,0,600,1034821877760,192,0, 
0.3367,-67.8,6.0,-191.7,-126.6,9607.2,-261.0,123.9,7342.8,55130.4,-38.4,6561.3,7106.1,109.2,7738.2,8062.5,7350.6,-6.9,-5.4,7433.4,7433.1,-1.2,24.0,5801.7,-422.4,0,606,1034821877760,193,0, 
0.3400,-19.2,14.4,-169.5,-74.7,7902.3,-334.5,162.9,9830.1,94477.5,46.5,9830.1,9817.5,63.0,9827.1,9830.1,9830.1,-6.9,-6.0,9830.1,9830.1,-0.9,106.8,4211.1,-439.8,0,612,1034821877760,194,0, 
0.3433,48.3,7.8,-133.2,9.0,-5409.0,-620.4,245.7,1393.8,11411.4,203.4,-536.1,-619.8,-486.9,1869.6,3025.2,1281.6,-6.9,-5.7,209.7,161.7,-0.9,267.0,-4123.2,-503.4,0,618,1034821877760,195,0, 
0.3467,55.8,3.0,-114.0,30.9,-9819.9,-765.9,271.2,-9830.1,-94032.9,237.0,-9830.1,-9817.8,-842.7,-9827.4,-9830.1,-9830.1,-6.6,-6.3,-9830.1,-9830.1,-0.6,313.8,-8742.3,-540.0,0,624,1034821877760,196,0, 
0.3500,-27.0,-9.9,-164.1,-66.0,-4020.3,-556.5,190.2,-7986.0,-73877.7,83.7,-6033.6,-6721.2,-494.4,-7609.2,-7454.4,-7962.9,-6.9,-5.7,-7556.7,-7752.6,-0.9,150.9,-2710.5,-497.4,0,630,1034821877760,197,0, 
0.3533,-81.9,-1.5,-194.7,-140.7,9765.3,-261.9,109.5,7359.6,58390.8,-63.6,6387.9,6954.0,122.1,7674.6,8036.7,7382.1,-6.6,-6.0,7357.5,7265.7,-0.9,7.2,6360.9,-429.3,0,636,1034821877760,198,0, 
0.3567,-20.1,14.1,-160.5,-75.6,7883.1,-330.3,161.1,9830.1,104703.3,41.7,9830.1,9817.5,97.5,9827.1,9830.1,9830.1,-7.2,-6.0,9830.1,9830.1,-0.9,100.2,4701.6,-437.7,0,642,1034821877760,199,0, 
0.3600,50.4,7.8,-118.2,13.8,-6398.4,-657.0,256.8,388.2,5187.0,213.0,-1300.8,-1654.2,-562.8,797.1,2044.2,281.7,-6.9,-6.0,-1070.7,-1016.1,-0.6,280.8,-4980.3,-525.9,0,648,1034821877760,200,0, 
0.3633,38.7,-3.9,-119.1,12.9,-9819.9,-750.6,270.3,-9830.1,-91513.5,227.7,-9830.1,-9817.8,-847.5,-9827.4,-9830.1,-9830.1,-7.5,-6.3,-9830.1,-9830.1,-0.6,295.8,-8292.3,-536.1,0,654,1034821877760,201,0, 
0.3667,-32.1,-2.4,-153.0,-66.6,-3736.5,-540.9,191.1,-8885.4,-65208.0,82.2,-5389.8,-6154.8,-487.2,-8180.4,-7938.9,-8786.4,-6.9,-6.0,-7778.1,-8025.6,-0.9,151.5,-2395.8,-486.6,0,660,1034821877760,202,0, 
0.3700,-80.1,-5.7,-186.9,-130.2,8723.7,-283.5,116.7,6445.8,50165.7,-41.1,5303.7,6147.0,76.5,7032.3,7713.3,6552.6,-6.6,-5.7,6524.4,6576.0,-1.2,25.8,5436.6,-426.9,0,666,1034821877760,203,0, 
0.3733,-34.5,17.1,-159.6,-87.0,8523.9,-305.7,150.0,9830.1,106037.1,25.5,9830.1,9817.5,114.0,9827.1,9830.1,9830.1,-7.2,-6.0,9830.1,9830.1,-1.2,92.1,5120.1,-426.6,0,672,1034821877760,204,0, 
0.3767,41.7,7.5,-120.3,11.1,-5410.8,-646.5,243.0,1980.0,12967.5,210.0,-411.6,-7.2,-527.1,2445.0,3947.4,1915.2,-6.9,-5.7,660.9,757.5,-0.6,282.6,-4610.1,-507.0,0,678,1034821877760,205,0, 
0.3800,46.5,-6.0,-120.6,16.5,-9819.9,-781.5,266.1,-9830.1,-100479.6,238.8,-9830.1,-9817.8,-888.3,-9827.4,-9830.1,-9830.1,-6.6,-6.0,-9830.1,-9830.1,-0.3,306.0,-9231.9,-532.8,0,684,1034821877760,206,0, 
0.3833,-38.7,-7.8,-161.7,-78.0,-3341.7,-524.1,175.2,-7946.4,-63948.3,67.2,-5352.6,-5957.1,-439.5,-7384.2,-7115.1,-7932.6,-6.9,-5.7,-7244.1,-7414.2,-0.3,137.1,-1921.8,-474.6,0,690,1034821877760,207,0, 
0.3867,-78.0,5.4,-183.9,-130.2,9551.7,-274.5,115.8,7374.6,57057.0,-31.5,6346.2,7105.8,107.1,7838.7,8388.3,7383.6,-6.6,-6.0,7428.3,7438.8,-0.6,30.0,5727.3,-419.1,0,696,1034821877760,208,0, 
0.3900,-24.0,16.2,-162.0,-79.8,7915.5,-338.7,159.3,9830.1,97219.2,48.6,9830.1,9817.5,63.6,9827.1,9830.1,9830.1,-6.9,-6.0,9830.1,9830.1,-0.6,110.4,4226.1,-435.9,0,702,1034821877760,209,0, 
0.3933,42.0,12.6,-126.0,6.9,-5528.1,-628.2,246.0,1513.8,14227.2,201.3,-505.5,-349.5,-479.7,2120.1,3753.0,1424.7,-7.2,-5.7,188.1,314.4,-0.9,269.1,-4122.9,-504.0,0,708,1034821877760,210,0, 
0.3967,49.8,-1.8,-122.4,22.8,-9819.9,-765.9,270.0,-9830.1,-93143.7,247.2,-9830.1,-9817.8,-849.6,-9827.4,-9830.1,-9830.1,-6.9,-6.3,-9830.1,-9830.1,-1.2,314.7,-8910.6,-536.7,0,714,1034821877760,211,0, 
0.4000,-24.6,0.3,-165.6,-69.3,-4143.0,-546.3,187.8,-8132.4,-73581.3,85.8,-6201.9,-6709.8,-499.8,-7620.3,-7276.2,-8085.3,-6.9,-6.3,-7630.2,-7727.1,-0.6,158.7,-2827.8,-481.5,0,720,1034821877760,212,0, 
0.4033,-80.1,1.5,-200.4,-144.6,9677.1,-252.0,111.0,7145.4,58539.0,-56.4,6288.9,6895.2,130.5,7578.9,8191.5,7191.0,-6.9,-6.0,7107.6,7138.8,-0.9,8.7,6248.4,-415.8,0,726,1034821877760,213,0, 
0.4067,-21.0,15.6,-170.4,-87.3,7657.2,-325.5,164.1,9830.1,103740.0,38.4,9830.1,9817.5,85.2,9827.1,9830.1,9830.1,-6.9,-6.3,9830.1,9830.1,-0.9,106.5,4559.4,-430.5,0,732,1034821877760,214,0, 
0.4100,54.0,4.2,-139.8,2.4,-6574.5,-658.8,255.3,144.6,5112.9,208.2,-1440.0,-1648.5,-555.3,644.1,2223.3,52.5,-6.9,-6.0,-1343.1,-1222.2,-0.6,275.1,-5005.5,-510.6,0,738,1034821877760,215,0, 
0.4133,48.3,-0.9,-140.4,4.8,-9819.9,-755.1,267.3,-9830.1,-91365.3,231.0,-9830.1,-9817.8,-840.3,-9827.4,-9830.1,-9830.1,-6.6,-6.0,-9830.1,-9830.1,-0.3,294.9,-8363.7,-533.7,0,744,1034821877760,216,0, 
0.4167,-21.0,-6.6,-174.9,-69.6,-3929.4,-547.2,192.9,-9059.1,-66912.3,98.1,-5585.4,-6419.4,-477.6,-8493.9,-8232.3,-9047.1,-6.3,-5.7,-8117.4,-8292.3,-0.9,152.4,-2539.5,-474.9,0,750,1034821877760,217,0, 
0.4200,-73.5,-0.3,-208.5,-143.7,8681.4,-285.9,119.1,6215.1,49647.0,-38.1,5231.1,5948.1,66.0,6831.0,7541.4,6243.0,-6.9,-6.0,6235.5,6374.7,-0.9,15.9,5463.0,-420.3,0,756,1034821877760,218,0, 
0.4233,-23.7,12.3,-187.5,-99.0,8540.7,-308.1,152.4,9830.1,106555.8,20.4,9830.1,9817.5,110.7,9827.1,9830.1,9830.1,-7.2,-5.7,9830.1,9830.1,-1.2,82.8,5148.6,-421.8,0,762,1034821877760,219,0, 
0.4267,59.1,4.2,-143.1,-0.9,-5420.4,-649.8,257.1,1945.8,12893.4,208.8,-625.8,-181.8,-513.6,2478.0,4104.6,1833.9,-6.9,-6.0,477.3,762.6,-0.9,276.0,-4653.3,-509.1,0,768,1034821877760,220,0, 
0.4300,56.4,-2.7,-135.0,4.5,-9819.9,-785.1,276.0,-9830.1,-100109.1,237.6,-9830.1,-9817.8,-887.4,-9827.4,-9830.1,-9830.1,-7.2,-6.3,-9830.1,-9830.1,-0.6,306.0,-9200.4,-540.9,0,774,1034821877760,221,0, 
0.4333,-25.8,-6.6,-178.2,-91.8,-3348.9,-529.8,190.5,-8044.2,-63800.1,71.4,-5298.9,-6003.9,-456.3,-7489.2,-7098.9,-8033.4,-6.3,-5.7,-7350.0,-7450.2,-0.9,133.2,-1924.8,-481.2,0,780,1034821877760,222,0, 
0.4367,-65.7,-2.7,-198.6,-144.6,9537.9,-288.6,124.2,7285.5,56167.8,-44.4,6300.9,7016.4,86.1,7764.3,8426.1,7297.5,-7.2,-5.7,7328.4,7385.4,-0.6,20.7,5658.3,-424.8,0,786,1034821877760,223,0, 
0.4400,-17.7,5.7,-171.9,-94.2,8056.5,-345.0,168.6,9830.1,98034.3,39.6,9830.1,9817.5,53.4,9827.1,9830.1,9830.1,-6.6,-6.0,9830.1,9830.1,-1.2,105.6,4332.3,-430.5,0,792,1034821877760,224,0, 
0.4433,47.7,0.3,-145.2,-16.5,-5356.2,-637.2,248.7,1657.5,15709.2,190.5,-463.8,-338.4,-499.8,2327.4,4038.0,1587.3,-7.2,-6.0,243.9,414.0,-0.6,251.1,-4045.5,-506.4,0,798,1034821877760,225,0, 
0.4467,60.3,-5.1,-135.0,5.7,-9819.9,-785.1,276.3,-9830.1,-92773.2,234.0,-9830.1,-9817.8,-874.2,-9827.4,-9830.1,-9830.1,-7.2,-6.0,-9830.1,-9830.1,-0.6,304.5,-8919.6,-535.8,0,804,1034821877760,226,0, 
0.4500,-23.1,-17.4,-179.4,-87.3,-3905.4,-571.5,191.7,-8128.2,-72618.0,80.4,-6193.5,-6670.5,-514.5,-7547.7,-7225.5,-8101.5,-6.9,-6.0,-7545.6,-7626.9,-0.3,144.6,-2753.7,-494.4,0,810,1034821877760,227,0, 
0.4533,-76.5,-10.2,-203.4,-153.6,9725.4,-266.4,116.1,7166.4,60021.0,-52.2,6392.1,7004.1,123.3,7684.8,8332.2,7185.3,-6.9,-6.0,7159.2,7204.8,-1.2,3.6,6328.5,-419.1,0,816,1034821877760,228,0, 
0.4567,-22.8,6.6,-168.9,-90.0,7705.8,-336.0,167.1,9830.1,105296.1,34.8,9830.1,9817.5,72.9,9827.1,9830.1,9830.1,-6.9,-6.0,9830.1,9830.1,-0.6,99.6,4595.1,-425.7,0,822,1034821877760,229,0, 
0.4600,56.7,15.9,-115.8,14.1,-6415.2,-644.4,264.6,423.3,7854.6,213.0,-1197.6,-1328.4,-554.1,1202.1,3000.3,329.4,-6.6,-5.7,-914.1,-759.9,-0.9,287.1,-4838.4,-498.0,0,828,1034821877760,230,0, 
0.4633,48.9,4.8,-116.4,12.9,-9819.9,-747.9,271.2,-9830.1,-88327.2,229.2,-9830.1,-9817.8,-834.3,-9827.4,-9830.1,-9830.1,-6.9,-6.0,-9830.1,-9830.1,-0.3,293.7,-8267.7,-526.5,0,834,1034821877760,231,0, 
0.4667,-18.6,2.1,-151.2,-69.3,-3823.8,-542.4,199.8,-8989.2,-64985.7,78.9,-5532.9,-6372.6,-495.0,-8532.0,-8167.5,-8964.3,-6.9,-5.7,-8058.0,-8279.1,-0.9,149.1,-2539.8,-477.3,0,840,1034821877760,232,0, 
0.4700,-72.0,-1.5,-183.9,-137.4,8757.6,-283.8,126.0,6392.7,53055.6,-54.0,5348.1,5979.9,66.0,6939.6,7788.9,6433.2,-6.6,-5.7,6439.8,6521.4,-0.9,6.6,5566.8,-424.8,0,846,1034821877760,233,0, 
0.4733,-27.0,18.3,-153.0,-93.9,8699.1,-302.4,160.5,9830.1,111075.9,8.4,9830.1,9817.5,116.7,9827.1,9830.1,9830.1,-6.9,-6.0,9830.1,9830.1,-0.6,75.0,5338.5,-431.4,0,852,1034821877760,234,0, 
0.4767,54.6,9.3,-114.6,11.7,-5171.7,-640.5,256.8,2354.4,17117.1,200.4,-334.5,20.7,-536.1,2866.2,4656.3,2289.3,-6.9,-6.0,1018.5,1210.2,-0.9,273.9,-4593.9,-510.6,0,858,1034821877760,235,0, 
0.4800,53.7,2.7,-111.6,18.9,-9819.9,-783.3,277.8,-9830.1,-95218.5,224.4,-9830.1,-9817.8,-892.5,-9827.4,-9830.1,-9830.1,-6.9,-5.7,-9830.1,-9830.1,-0.3,297.0,-9058.2,-543.6,0,864,1034821877760,236,0, 
0.4833,-29.7,-7.5,-155.7,-71.1,-3180.0,-528.9,194.1,-7959.0,-58983.6,64.8,-5321.7,-5833.8,-453.0,-7338.9,-6658.5,-7913.1,-6.6,-6.0,-7090.5,-7309.5,-0.9,123.6,-1874.4,-480.3,0,870,1034821877760,237,0, 
0.4867,-66.9,1.8,-178.2,-126.6,9522.9,-270.9,129.3,7449.0,60021.0,-49.8,6252.3,7161.3,80.7,7929.3,8865.0,7470.6,-6.9,-5.7,7569.9,7554.9,-1.2,9.9,5687.4,-417.6,0,876,1034821877760,238,0, 
0.4900,-21.3,10.8,-151.5,-79.2,8302.5,-329.1,171.6,9830.1,103073.1,21.3,9830.1,9817.5,55.8,9827.1,9830.1,9830.1,-6.9,-5.7,9830.1,9830.1,-0.6,83.4,4497.0,-427.8,0,882,1034821877760,239,0, 
0.4933,42.3,4.8,-114.0,3.0,-5214.6,-622.5,249.0,2161.8,21118.5,180.6,-224.1,-11.1,-506.1,2813.4,5028.0,2007.3,-6.9,-5.7,881.1,807.6,-0.9,248.4,-3943.2,-511.5,0,888,1034821877760,240,0, 
0.4967,48.3,-7.2,-108.9,20.7,-9819.9,-780.3,273.6,-9830.1,-89290.5,228.6,-9830.1,-9817.8,-879.6,-9827.4,-9830.1,-9830.1,-6.9,-6.3,-9830.1,-9830.1,-0.6,292.8,-8980.5,-541.2,0,894,1034821877760,241,0, 
0.5000,-30.3,-11.7,-153.6,-69.6,-3915.6,-555.0,193.2,-8158.8,-69283.5,76.5,-6244.5,-6615.6,-515.4,-7564.2,-6865.8,-8171.7,-6.6,-5.7,-7401.0,-7653.0,-0.9,137.1,-2730.6,-489.0,0,900,1034821877760,242,0, 
0.5033,-79.8,1.8,-180.9,-136.2,9692.4,-242.4,119.7,7081.8,63059.1,-66.0,6294.3,6867.3,119.4,7657.2,8724.9,7072.5,-7.2,-6.0,7150.8,7069.2,-0.3,-8.7,6321.0,-412.2,0,906,1034821877760,243,0, 
0.5067,-22.5,13.8,-150.0,-79.8,7620.0,-328.8,163.2,9830.1,107000.4,27.3,9747.9,9817.5,74.1,9827.1,9830.1,9830.1,-7.2,-6.0,9830.1,9830.1,-0.9,85.8,4551.6,-423.9,0,912,1034821877760,244,0, 
0.5100,47.1,7.5,-113.1,11.7,-6340.8,-646.2,255.0,473.7,10299.9,198.3,-1281.9,-1321.8,-562.2,1465.8,3984.9,395.1,-7.2,-6.0,-763.5,-765.6,-0.9,263.1,-4808.7,-498.9,0,918,1034821877760,245,0, 
0.5133,40.5,-3.9,-114.6,6.9,-9819.9,-747.6,262.8,-9830.1,-86845.2,215.7,-9830.1,-9817.8,-856.2,-9827.4,-9830.1,-9830.1,-6.9,-6.0,-9830.1,-9830.1,-0.6,277.2,-8337.3,-524.4,0,924,1034821877760,246,0, 
0.5167,-25.8,-7.8,-147.3,-66.6,-4088.7,-550.8,190.2,-9126.6,-65874.9,73.2,-5945.7,-6732.9,-513.9,-8667.0,-8091.6,-9127.2,-6.9,-5.7,-8512.8,-8778.9,-0.3,138.9,-2745.3,-480.9,0,930,1034821877760,247,0, 
0.5200,-86.4,-8.4,-179.1,-139.2,8693.7,-289.2,110.1,6038.7,52092.3,-60.6,5103.6,5719.8,46.2,6668.7,7818.3,6033.3,-6.9,-6.0,6017.7,5992.5,-1.2,0.0,5476.8,-422.7,0,936,1034821877760,248,0, 
0.5233,-36.6,6.6,-159.9,-93.9,8635.2,-309.9,144.9,9830.1,110038.5,0.9,9830.1,9817.5,108.0,9827.1,9830.1,9830.1,-7.2,-6.0,9830.1,9830.1,-0.6,67.2,5203.2,-432.9,0,942,1034821877760,249,0, 
0.5267,42.3,1.2,-121.8,-0.6,-5313.6,-654.9,241.2,1797.6,14523.6,190.8,-800.4,-456.9,-558.9,2371.8,4358.7,1745.7,-6.9,-5.7,468.9,588.0,-1.2,251.4,-4749.6,-510.0,0,948,1034821877760,250,0, 
0.5300,44.4,-3.9,-114.9,-2.1,-9819.9,-789.3,263.7,-9830.1,-97737.9,214.5,-9830.1,-9817.8,-914.7,-9827.4,-9830.1,-9830.1,-6.9,-6.3,-9830.1,-9830.1,-0.9,278.1,-9196.5,-540.9,0,954,1034821877760,251,0, 
0.5333,-35.1,-12.9,-160.8,-96.0,-3383.4,-533.4,175.5,-8364.3,-62688.6,48.9,-5548.2,-6204.3,-478.8,-7701.6,-7002.9,-8301.6,-6.6,-5.7,-7550.1,-7710.6,-0.6,105.6,-2094.0,-487.5,0,960,1034821877760,252,0, 
0.5367,-78.3,-11.7,-193.2,-157.8,9469.8,-292.8,113.7,6971.7,54982.2,-67.5,5765.4,6889.5,57.9,7612.2,8607.0,7045.2,-6.6,-5.7,7134.0,7142.7,-0.3,-8.1,5418.9,-432.6,0,966,1034821877760,253,0, 
0.5400,-31.8,-4.5,-175.8,-108.9,8344.2,-337.2,153.6,9830.1,99738.6,5.4,9830.1,9817.5,45.3,9827.1,9830.1,9830.1,-6.9,-6.0,9830.1,9830.1,-1.2,66.0,4442.4,-444.6,0,972,1034821877760,254,0, 
0.5433,28.8,-16.5,-145.2,-28.8,-5184.3,-635.7,234.0,1730.7,18302.7,150.6,-526.5,-353.1,-515.4,2591.1,4669.2,1645.2,-7.5,-6.3,459.9,498.6,-0.6,213.6,-4001.7,-519.0,0,978,1034821877760,255,0, 
0.5467,43.2,-23.1,-133.8,-4.2,-9819.9,-796.2,261.0,-9830.1,-93366.0,208.8,-9830.1,-9817.8,-906.3,-9827.4,-9830.1,-9830.1,-7.2,-6.3,-9830.1,-9830.1,-0.3,275.4,-9170.1,-556.5,0,984,1034821877760,0,0, 
0.5500,-44.4,-33.9,-174.0,-94.8,-3929.7,-570.9,180.6,-8506.5,-73729.5,50.1,-6502.5,-6776.1,-535.8,-7834.8,-7279.5,-8469.3,-6.6,-5.7,-7688.7,-7877.7,-0.9,105.6,-2887.5,-512.4,0,990,1034821877760,1,0, 
0.5533,-95.7,-29.1,-206.4,-168.6,9671.1,-280.8,95.4,6558.6,58687.2,-98.4,6030.3,6782.4,99.6,7297.5,8296.2,6618.0,-6.9,-6.0,6792.6,6781.8,-0.9,-40.5,6188.4,-450.9,0,996,1034821877760,2,0, 
0.5567,-33.0,-12.6,-174.9,-105.0,7475.4,-351.3,150.9,9830.1,101739.3,3.0,9565.2,9817.5,45.6,9827.1,9830.1,9830.1,-6.9,-6.3,9830.1,9830.1,-1.2,60.6,4329.6,-462.3,0,1002,1034821877760,3,0, 
0.5600,33.6,-18.3,-135.9,-11.1,-6337.8,-664.5,238.5,-57.0,5409.3,173.7,-1929.3,-1795.5,-573.3,1092.0,3193.2,-43.5,-7.2,-5.7,-1402.8,-1232.7,-0.3,233.1,-4918.8,-527.4,0,1008,1034821877760,4,0, 
0.5633,32.7,-25.2,-126.9,-9.3,-9819.9,-777.9,253.5,-9830.1,-92699.1,192.3,-9830.1,-9817.8,-869.4,-9827.4,-9830.1,-9830.1,-6.6,-6.3,-9830.1,-9830.1,-0.9,258.0,-8550.3,-559.2,0,1014,1034821877760,5,0, 
0.5667,-33.6,-29.1,-161.7,-81.9,-4267.2,-576.6,181.2,-9344.4,-72840.3,53.4,-6481.8,-7038.6,-526.8,-8814.6,-8526.9,-9303.9,-6.9,-6.0,-8894.1,-8999.7,-0.3,115.8,-2922.3,-497.4,0,1020,1034821877760,6,0, 
0.5700,-87.3,-19.5,-197.1,-152.7,8696.1,-304.5,103.5,5629.2,46608.9,-78.6,4822.5,5704.8,53.4,6378.6,7086.3,5699.1,-6.6,-6.3,5653.5,5735.4,-0.9,-18.0,5425.5,-445.2,0,1026,1034821877760,7,0, 
0.5733,-41.4,-0.3,-177.3,-107.1,8651.4,-321.3,141.0,9830.1,105592.5,-10.8,9830.1,9817.5,108.9,9827.1,9830.1,9830.1,-6.9,-6.0,9830.1,9830.1,-1.2,53.1,5152.2,-445.2,0,1032,1034821877760,8,0, 
0.5767,40.8,-7.2,-135.6,-6.9,-5295.6,-667.5,243.0,1401.9,8966.1,188.7,-1300.2,-598.2,-554.4,1986.0,3213.3,1356.0,-6.9,-5.7,86.7,262.8,-0.9,247.5,-4866.6,-526.5,0,1038,1034821877760,9,0, 
0.5800,38.1,-17.1,-129.9,7.5,-9819.9,-795.6,264.0,-9830.1,-103814.1,211.2,-9830.1,-9817.8,-912.9,-9827.4,-9830.1,-9830.1,-6.9,-6.0,-9830.1,-9830.1,-0.6,281.4,-9296.7,-544.5,0,1044,1034821877760,10,0, 
0.5833,-36.3,-18.9,-163.5,-82.5,-3658.5,-543.0,181.2,-8734.2,-70987.8,60.3,-6110.7,-6562.2,-476.7,-8094.0,-7901.1,-8684.7,-6.6,-6.0,-7943.7,-8136.3,-0.6,115.2,-2333.1,-485.7,0,1050,1034821877760,11,0, 
0.5867,-81.0,-13.2,-189.6,-137.7,9353.7,-301.2,118.2,6304.2,44089.5,-53.1,4846.8,6384.3,25.2,7059.0,7574.4,6394.2,-6.9,-6.3,6541.5,6502.8,-0.6,11.4,5055.0,-429.0,0,1056,1034821877760,12,0, 
0.5900,-30.9,5.1,-160.8,-83.1,8140.8,-345.9,156.6,9830.1,88475.4,11.4,9012.9,9817.5,38.4,9827.1,9830.1,9830.1,-6.9,-6.3,9830.1,9830.1,-0.6,76.8,4085.1,-437.4,0,1062,1034821877760,13,0, 
0.5933,40.5,3.6,-122.4,4.2,-5526.6,-633.6,243.6,493.5,5853.9,178.5,-1658.1,-1431.3,-512.1,1364.7,2457.6,450.9,-6.9,-6.0,-825.9,-741.0,-0.9,242.1,-4334.1,-501.0,0,1068,1034821877760,14,0, 
0.5967,48.3,-5.4,-108.9,27.9,-9819.9,-803.7,272.1,-9830.1,-108482.4,233.7,-9830.1,-9817.8,-916.2,-9827.4,-9830.1,-9830.1,-6.9,-6.0,-9830.1,-9830.1,-0.9,303.3,-9588.6,-541.5,0,1074,1034821877760,15,0, 
0.6000,-31.2,-12.6,-158.1,-72.3,-4048.5,-571.2,185.1,-9129.9,-87956.7,73.2,-7040.4,-7171.8,-526.8,-8564.1,-8701.5,-9091.2,-6.9,-5.7,-8334.0,-8495.7,-1.2,135.6,-3119.7,-486.0,0,1080,1034821877760,16,0, 
0.6033,-84.0,-6.3,-187.8,-141.3,9632.1,-273.9,106.2,5569.2,43867.2,-69.3,5263.2,6363.9,100.8,6373.5,6351.3,5648.4,-6.3,-6.0,6100.8,6131.7,-0.9,-11.4,5873.1,-413.4,0,1086,1034821877760,17,0, 
0.6067,-19.8,9.3,-150.0,-79.5,7353.3,-340.2,158.7,9830.1,86919.3,36.9,9180.3,9817.5,59.7,9827.1,9830.1,9830.1,-7.2,-6.0,9830.1,9830.1,-1.2,89.7,4077.9,-422.4,0,1092,1034821877760,18,0, 
0.6100,45.0,-4.2,-113.7,12.3,-6170.7,-644.7,248.1,-820.2,-6965.4,186.0,-2417.1,-2010.9,-554.7,200.4,447.6,-824.1,-6.9,-6.0,-1897.5,-1705.2,-0.9,256.2,-4946.7,-495.0,0,1098,1034821877760,19,0, 
0.6133,47.4,-3.0,-103.8,21.6,-9819.9,-752.7,266.4,-9830.1,-105888.9,222.6,-9830.1,-9817.8,-855.6,-9827.4,-9830.1,-9830.1,-7.2,-6.3,-9830.1,-9830.1,-0.6,290.7,-8747.7,-522.9,0,1104,1034821877760,20,0, 
0.6167,-17.4,-4.2,-140.7,-54.6,-4476.6,-564.9,196.2,-9647.7,-88253.1,86.1,-7016.7,-7556.4,-531.9,-9205.8,-9528.6,-9605.4,-6.6,-6.0,-9138.0,-9205.2,-0.6,148.8,-3201.6,-480.0,0,1110,1034821877760,21,0, 
0.6200,-68.7,-3.0,-176.4,-127.8,8665.2,-292.8,118.8,4756.5,31122.0,-51.9,4371.0,5486.4,58.5,5436.0,4892.7,4845.0,-6.6,-6.0,4997.1,5100.0,-1.2,14.4,5175.9,-422.7,0,1116,1034821877760,22,0, 
0.6233,-30.6,1.2,-159.6,-88.2,8532.9,-318.6,151.2,9830.1,89512.8,14.7,9830.1,9817.5,87.9,9827.1,9830.1,9830.1,-6.9,-5.7,9830.1,9830.1,-0.6,73.2,4831.8,-426.6,0,1122,1034821877760,23,0, 
0.6267,57.6,2.7,-113.4,15.3,-5419.2,-654.9,252.9,338.7,-7484.1,205.2,-2042.4,-1309.5,-555.0,746.4,503.1,255.6,-6.9,-6.0,-836.4,-648.9,-0.9,271.8,-5089.8,-508.5,0,1128,1034821877760,24,0, 
0.6300,48.6,-14.1,-114.3,23.1,-9819.9,-795.9,273.0,-9830.1,-118782.3,228.3,-9830.1,-9817.8,-913.5,-9827.4,-9830.1,-9830.1,-7.2,-6.0,-9830.1,-9830.1,-0.9,293.4,-9467.7,-534.3,0,1134,1034821877760,25,0, 
0.6333,-28.8,-10.2,-147.6,-65.4,-3477.0,-540.9,186.6,-9044.4,-85437.3,71.1,-6419.4,-6585.9,-490.8,-8576.1,-9273.0,-9003.0,-6.6,-5.7,-8228.7,-8313.0,-0.6,130.8,-2468.7,-475.8,0,1140,1034821877760,26,0, 
0.6367,-73.8,-7.8,-177.3,-124.5,9391.8,-300.9,121.5,6012.9,30010.5,-46.5,4579.8,6321.9,36.6,6543.0,5460.9,6086.1,-7.2,-6.3,6371.7,6516.9,-0.6,15.6,4953.3,-425.1,0,1146,1034821877760,27,0, 
0.6400,-32.7,0.3,-158.4,-81.3,8428.5,-339.0,153.0,9830.1,77730.9,13.5,8995.8,9817.5,57.0,9827.1,9830.1,9830.1,-6.9,-6.0,9830.1,9830.1,-0.9,77.1,4169.4,-442.8,0,1152,1034821877760,28,0, 
0.6433,39.0,2.7,-119.4,10.8,-5222.7,-626.1,241.8,625.5,-3779.1,186.0,-1472.4,-950.7,-507.6,1058.1,-13.2,561.0,-7.2,-6.0,-568.2,-381.9,-0.6,253.5,-4289.4,-496.5,0,1158,1034821877760,29,0, 
0.6467,49.2,-12.3,-112.8,30.3,-9819.9,-798.9,268.8,-9830.1,-118708.2,237.6,-9830.1,-9817.8,-916.5,-9827.4,-9830.1,-9830.1,-7.2,-6.0,-9830.1,-9830.1,-0.9,303.9,-9653.7,-535.2,0,1164,1034821877760,30,0, 
0.6500,-34.8,-18.3,-161.1,-70.5,-3831.6,-559.5,186.6,-9190.2,-97812.0,73.2,-6913.5,-7054.8,-527.4,-8798.1,-9602.1,-9142.2,-6.6,-5.7,-8252.7,-8461.8,-0.9,122.1,-3162.9,-476.4,0,1170,1034821877760,31,0, 
0.6533,-86.1,-10.5,-191.7,-141.0,9661.8,-272.1,104.1,5548.8,33937.8,-67.5,5399.7,6363.9,95.7,6077.7,4398.9,5661.6,-7.2,-6.3,6332.4,6240.9,-0.9,-6.3,5764.5,-418.2,0,1176,1034821877760,32,0, 
0.6567,-31.8,-1.2,-159.9,-86.7,7385.1,-350.4,153.6,9830.1,76915.8,23.1,9140.7,9817.5,45.9,9827.1,9830.1,9830.1,-6.9,-6.3,9830.1,9830.1,-0.9,82.5,3969.3,-438.6,0,1182,1034821877760,33,0, 
0.6600,31.5,-6.9,-121.5,4.5,-5816.7,-657.3,238.5,-214.5,-14968.2,186.0,-2213.4,-1978.2,-543.3,263.4,-1997.7,-253.5,-6.9,-6.0,-1401.6,-1251.0,-0.3,246.9,-4868.1,-518.7,0,1188,1034821877760,34,0, 
0.6633,28.8,-12.9,-116.7,13.2,-9819.9,-777.0,255.9,-9830.1,-113965.8,212.4,-9830.1,-9817.8,-858.9,-9827.4,-9830.1,-9830.1,-6.9,-6.0,-9830.1,-9830.1,-0.6,274.2,-8811.9,-539.7,0,1194,1034821877760,35,0, 
0.6667,-33.6,-16.5,-153.0,-64.2,-4376.4,-582.3,183.3,-9549.9,-97441.5,81.3,-7116.9,-7834.5,-535.2,-9262.2,-9830.1,-9514.2,-7.2,-6.0,-8996.1,-9101.1,-0.3,136.5,-3303.9,-488.7,0,1200,1034821877760,36,0, 
0.6700,-93.3,-12.9,-186.6,-134.4,8761.2,-302.7,108.3,4861.5,23341.5,-66.6,4599.9,5506.2,51.9,5198.1,2964.9,4936.8,-6.3,-6.0,5288.4,5300.4,-0.9,-10.2,5206.8,-424.5,0,1206,1034821877760,37,0, 
0.6733,-47.7,-2.1,-165.0,-87.3,8610.0,-327.6,142.2,9830.1,82176.9,0.9,9830.1,9817.5,92.1,9827.1,9830.1,9830.1,-6.6,-6.0,9830.1,9830.1,-0.3,56.7,4812.0,-434.7,0,1212,1034821877760,38,0, 
0.6767,39.3,-6.9,-121.5,12.6,-5398.5,-666.3,241.5,307.5,-15486.9,190.8,-1848.3,-1581.9,-556.8,251.4,-1323.0,246.3,-6.6,-5.7,-755.1,-573.6,-0.6,255.3,-5139.9,-512.4,0,1218,1034821877760,39,0, 
0.6800,38.7,-14.1,-118.2,19.8,-9819.9,-791.4,267.0,-9830.1,-126340.5,223.8,-9830.1,-9817.8,-896.4,-9827.4,-9830.1,-9830.1,-6.6,-6.0,-9830.1,-9830.1,-0.3,287.4,-9502.2,-537.9,0,1224,1034821877760,40,0, 
0.6833,-43.5,-19.5,-159.0,-71.1,-3404.1,-546.3,178.2,-9055.5,-94032.9,68.7,-6318.6,-6909.3,-481.5,-8814.0,-9830.1,-9008.4,-6.6,-5.7,-8225.7,-8307.6,-0.9,125.7,-2586.9,-480.0,0,1230,1034821877760,41,0, 
0.6867,-85.5,-13.5,-182.1,-130.5,9414.3,-306.0,114.9,6054.0,21044.4,-47.1,4487.7,5879.1,29.7,6240.3,3716.1,6122.1,-6.9,-6.0,6444.0,6590.7,-1.2,10.5,4847.4,-432.9,0,1236,1034821877760,42,0, 
0.6900,-45.9,-2.1,-167.1,-95.7,8496.0,-349.5,146.4,9830.1,70617.3,11.1,9182.1,9817.5,48.3,9827.1,9830.1,9830.1,-7.5,-6.0,9830.1,9830.1,-0.6,66.6,4246.8,-441.3,0,1242,1034821877760,43,0, 
0.6933,28.5,-7.5,-124.8,-3.6,-4975.5,-642.0,235.8,1037.1,-9781.2,173.4,-1184.1,-909.0,-510.0,1025.1,-1758.3,953.7,-7.2,-5.4,-85.2,236.4,-0.3,233.7,-4214.4,-506.1,0,1248,1034821877760,44,0, 
0.6967,33.9,-21.9,-117.0,14.4,-9819.9,-816.9,260.7,-9830.1,-124784.4,222.0,-9830.1,-9817.8,-919.5,-9827.4,-9830.1,-9830.1,-6.9,-5.4,-9830.1,-9830.1,-0.6,284.4,-9632.7,-547.5,0,1254,1034821877760,45,0, 
0.7000,-41.1,-21.3,-155.4,-80.4,-3496.8,-580.5,177.0,-9045.3,-102332.1,63.9,-6693.0,-6907.5,-535.8,-8841.6,-9830.1,-9005.1,-6.9,-6.0,-8103.6,-8203.8,-0.6,123.6,-3042.3,-492.9,0,1260,1034821877760,46,0, 
0.7033,-97.2,-21.6,-189.0,-153.6,9716.1,-292.8,101.4,5999.1,29121.3,-74.7,5613.6,6605.4,82.5,6095.1,3504.3,6072.3,-6.9,-6.0,6616.2,6633.3,-0.6,-16.2,5838.3,-427.5,0,1266,1034821877760,47,0, 
0.7067,-42.0,-7.8,-157.5,-90.6,7412.1,-372.3,149.1,9830.1,72025.2,11.1,9241.5,9817.5,25.5,9827.1,9830.1,9830.1,-6.9,-6.0,9830.1,9830.1,-1.5,74.1,4025.7,-447.9,0,1272,1034821877760,48,0, 
0.7100,28.2,-18.3,-117.6,-1.8,-5602.8,-673.2,230.7,858.0,-18525.0,181.8,-1843.5,-1549.8,-568.5,360.3,-3194.1,693.0,-7.2,-6.3,-753.0,-580.2,-0.6,241.2,-4787.1,-525.0,0,1278,1034821877760,49,0, 
0.7133,29.1,-23.1,-115.8,12.6,-9819.9,-797.4,255.9,-9830.1,-119004.6,216.6,-9830.1,-9817.8,-888.6,-9827.4,-9830.1,-9830.1,-6.9,-6.0,-9830.1,-9830.1,-0.9,274.2,-8847.3,-548.4,0,1284,1034821877760,50,0, 
0.7167,-29.1,-19.8,-139.2,-59.7,-4497.3,-599.1,192.6,-9377.1,-103814.1,82.8,-7182.6,-7945.2,-553.8,-9332.7,-9830.1,-9382.8,-6.6,-6.3,-8917.5,-8991.3,-0.6,141.6,-3402.0,-491.7,0,1290,1034821877760,51,0, 
0.7200,-87.0,-18.6,-175.2,-139.5,8785.2,-307.2,109.8,4980.6,18525.0,-60.3,4652.7,5634.3,46.5,4878.6,1929.3,4955.1,-6.9,-5.7,5385.9,5445.6,-0.6,2.7,5256.3,-425.1,0,1296,1034821877760,52,0, 
0.7233,-37.8,-2.7,-147.6,-89.1,8698.5,-336.9,152.1,9830.1,77879.1,7.2,9830.1,9817.5,89.7,9827.1,9830.1,9830.1,-7.2,-6.3,9830.1,9830.1,-0.6,69.9,4895.7,-424.5,0,1302,1034821877760,53,0, 
0.7267,45.0,-7.5,-103.5,12.9,-5376.6,-676.5,248.7,322.2,-18895.5,198.0,-1583.1,-1184.1,-566.4,-21.3,-2389.2,166.8,-6.6,-5.4,-641.1,-366.3,-0.6,270.3,-5029.2,-506.7,0,1308,1034821877760,54,0, 
0.7300,34.5,-21.0,-113.1,20.7,-9819.9,-814.2,261.3,-9830.1,-127748.4,222.9,-9830.1,-9817.8,-906.9,-9827.4,-9830.1,-9830.1,-6.6,-6.3,-9830.1,-9830.1,-0.3,291.6,-9276.9,-544.8,0,1314,1034821877760,55,0, 
0.7333,-37.2,-20.4,-150.0,-66.0,-3148.8,-569.4,180.9,-8821.5,-95589.0,72.6,-6008.1,-6499.5,-479.1,-8786.7,-9830.1,-8811.9,-6.9,-6.0,-7910.1,-7998.6,-0.3,134.4,-2490.3,-486.3,0,1320,1034821877760,56,0, 
0.7367,-76.5,-16.8,-170.4,-124.2,9465.6,-323.4,120.3,6610.8,19340.1,-40.5,4818.3,6345.9,48.0,6418.5,3387.9,6619.8,-6.9,-6.3,6951.9,7053.6,-0.6,20.4,4996.2,-423.3,0,1326,1034821877760,57,0, 
0.7400,-35.4,-2.7,-149.7,-90.0,8583.0,-353.4,154.5,9830.1,71284.2,14.4,9702.0,9817.5,67.2,9827.1,9830.1,9830.1,-6.6,-6.0,9830.1,9830.1,-1.2,72.3,4527.6,-432.3,0,1332,1034821877760,58,0, 
0.7433,37.8,-8.1,-112.8,0.6,-4766.1,-654.3,246.0,1879.5,-9188.4,186.6,-590.4,-50.7,-494.4,1371.0,-1903.2,1768.8,-6.9,-6.0,724.5,1040.7,-0.6,250.2,-4052.1,-510.0,0,1338,1034821877760,59,0, 
0.7467,45.3,-11.4,-100.8,23.4,-9819.9,-830.7,275.4,-9830.1,-125451.3,238.5,-9830.1,-9817.8,-914.4,-9827.4,-9830.1,-9830.1,-7.2,-6.0,-9830.1,-9830.1,-0.6,304.5,-9537.9,-546.6,0,1344,1034821877760,60,0, 
0.7500,-34.2,-15.9,-139.8,-66.9,-3291.6,-586.8,194.7,-8844.9,-102332.1,80.7,-6392.1,-6476.4,-521.4,-8831.4,-9830.1,-8821.8,-6.3,-5.4,-7890.6,-7943.4,-0.6,142.8,-2914.8,-484.2,0,1350,1034821877760,61,0, 
0.7533,-83.4,-16.5,-167.4,-130.2,9757.2,-289.8,117.6,6408.3,28899.0,-59.1,5863.5,6810.3,90.9,6206.7,3399.3,6452.7,-6.6,-6.0,6916.2,6986.1,-0.6,7.2,5901.0,-417.6,0,1356,1034821877760,62,0, 
0.7567,-30.0,-4.8,-136.2,-72.3,7475.4,-366.3,160.5,9830.1,72025.2,32.4,9390.0,9817.5,39.9,9827.1,9830.1,9830.1,-6.9,-5.4,9830.1,9830.1,-1.2,92.4,4147.2,-430.8,0,1362,1034821877760,63,0, 
0.7600,35.1,-11.7,-105.6,12.3,-5137.5,-665.1,246.0,1830.9,-16153.8,192.6,-1284.0,-1074.9,-533.7,1010.7,-2708.1,1781.7,-6.6,-6.0,169.5,428.7,-0.6,254.7,-4520.7,-506.7,0,1368,1034821877760,64,0, 
0.7633,39.6,-17.4,-99.0,26.4,-9819.9,-811.8,264.9,-9830.1,-116707.5,221.4,-9830.1,-9817.8,-864.0,-9827.4,-9830.1,-9830.1,-6.9,-6.0,-9830.1,-9830.1,-0.9,288.3,-8724.3,-536.7,0,1374,1034821877760,65,0, 
0.7667,-28.5,-18.3,-130.5,-51.3,-3718.2,-614.7,198.0,-9098.1,-101961.6,86.4,-6819.6,-7650.3,-549.3,-9178.5,-9830.1,-9066.9,-6.3,-6.0,-8597.1,-8639.4,-0.9,148.5,-3299.7,-486.9,0,1380,1034821877760,66,0, 
0.7700,-92.1,-19.2,-177.3,-133.8,9066.0,-328.5,112.5,5472.9,21785.4,-63.3,5264.4,6084.9,55.5,5142.9,2404.8,5531.7,-6.9,-5.7,5942.7,6024.9,-0.9,-4.2,5484.6,-426.3,0,1386,1034821877760,67,0, 
0.7733,-45.3,-10.2,-154.5,-93.3,8821.5,-356.4,151.2,9830.1,81510.0,4.2,9830.1,9817.5,90.9,9827.1,9830.1,9830.1,-6.9,-6.3,9830.1,9830.1,-0.9,68.1,5066.4,-430.5,0,1392,1034821877760,68,0, 
0.7767,38.7,-16.5,-106.8,12.9,-5247.0,-695.4,255.0,503.4,-15486.9,198.3,-1035.9,-778.2,-558.6,9.9,-2213.7,459.0,-6.9,-5.7,-163.8,77.4,-0.9,267.3,-4899.3,-504.3,0,1398,1034821877760,69,0, 
0.7800,32.4,-28.5,-101.4,22.5,-9819.9,-821.1,270.0,-9830.1,-123450.6,222.3,-9830.1,-9817.8,-909.0,-9827.4,-9830.1,-9830.1,-6.9,-5.7,-9830.1,-9830.1,-0.9,290.4,-9088.8,-527.4,0,1404,1034821877760,70,0, 
0.7833,-45.3,-36.9,-150.0,-66.3,-2503.2,-588.6,183.6,-8658.0,-92921.4,54.6,-5718.0,-6405.3,-499.2,-8778.3,-9830.1,-8620.5,-6.3,-6.0,-7723.8,-7822.5,-0.6,129.9,-2473.2,-481.2,0,1410,1034821877760,71,0, 
0.7867,-92.4,-40.2,-182.4,-133.5,9642.0,-339.6,117.0,6934.5,21340.8,-64.5,5029.2,6231.0,28.5,6435.9,3611.1,6964.5,-6.9,-6.6,7127.4,7265.7,-0.6,-2.1,5013.0,-432.0,0,1416,1034821877760,72,0, 
0.7900,-51.6,-28.5,-153.6,-93.0,8627.4,-368.1,148.2,9830.1,74915.1,2.1,9830.1,9817.5,68.1,9827.1,9830.1,9830.1,-6.9,-5.7,9830.1,9830.1,-0.9,66.0,4710.3,-431.7,0,1422,1034821877760,73,0, 
0.7933,27.6,-27.3,-105.9,6.0,-4420.5,-666.9,240.6,2394.3,-5853.9,170.7,-127.8,213.6,-510.0,1499.4,-1260.6,2301.9,-7.2,-5.7,1305.6,1550.4,-0.6,240.3,-3989.1,-505.8,0,1428,1034821877760,74,0, 
0.7967,42.3,-31.2,-88.2,29.1,-9819.9,-849.6,272.4,-9830.1,-122783.7,233.1,-9830.1,-9817.8,-931.2,-9827.4,-9830.1,-9830.1,-6.6,-6.0,-9830.1,-9830.1,-0.6,298.5,-9515.4,-548.7,0,1434,1034821877760,75,0, 
0.8000,-39.3,-36.9,-138.6,-69.3,-2544.9,-607.8,185.1,-8708.7,-98997.6,69.9,-6161.4,-6476.1,-520.5,-8835.0,-9830.1,-8685.0,-7.2,-5.7,-7773.3,-7875.0,-0.9,131.4,-2804.4,-494.4,0,1440,1034821877760,76,0, 
0.8033,-92.1,-27.3,-166.2,-138.6,9819.6,-317.7,108.6,6689.7,31863.0,-60.6,6137.7,6805.2,99.9,6283.5,3959.1,6730.8,-6.9,-6.0,7032.9,7155.9,-0.6,-3.9,5972.4,-425.7,0,1446,1034821877760,77,0, 
0.8067,-36.6,-17.1,-133.2,-83.4,7699.8,-391.2,156.3,9830.1,75507.9,31.5,9679.5,9817.5,67.8,9827.1,9830.1,9830.1,-7.5,-6.3,9830.1,9830.1,-0.6,80.1,4270.5,-445.8,0,1452,1034821877760,78,0, 
0.8100,32.7,-20.1,-92.7,5.4,-4767.3,-690.0,245.4,2453.4,-10892.7,196.8,-718.8,-483.3,-500.1,1483.8,-1270.8,2347.5,-6.6,-6.3,793.8,1251.0,-0.6,249.6,-4323.3,-517.2,0,1458,1034821877760,79,0, 
0.8133,35.1,-32.1,-88.2,15.0,-9819.9,-825.6,265.8,-9830.1,-111891.0,237.9,-9830.1,-9817.8,-825.9,-9827.4,-9830.1,-9830.1,-7.2,-5.4,-9830.1,-9830.1,-0.9,290.7,-8593.2,-540.9,0,1464,1034821877760,80,0, 
0.8167,-37.5,-37.8,-128.4,-69.6,-3514.2,-638.1,191.7,-8927.7,-98182.5,102.9,-6689.4,-7637.7,-517.5,-9085.2,-9830.1,-8924.1,-6.6,-6.3,-8387.1,-8404.2,-0.6,153.6,-3235.2,-499.2,0,1470,1034821877760,81,0, 
0.8200,-92.7,-36.0,-171.0,-142.2,9182.1,-338.1,112.2,5792.1,26750.1,-49.2,5484.6,6132.6,91.5,5285.4,3272.1,5785.2,-6.9,-6.3,6244.8,6310.2,-0.9,4.2,5654.1,-425.4,0,1476,1034821877760,82,0, 
0.8233,-47.4,-16.5,-141.0,-93.6,8880.6,-369.0,153.6,9830.1,86252.4,21.6,9830.1,9817.5,122.4,9827.1,9830.1,9830.1,-6.6,-6.0,9830.1,9830.1,-0.9,71.4,5202.9,-427.2,0,1482,1034821877760,83,0, 
0.8267,38.7,-21.0,-98.1,10.2,-5250.6,-720.6,251.4,728.1,-11337.3,202.8,-790.8,-802.8,-531.0,-51.0,-1840.8,573.0,-6.9,-5.7,-64.2,269.1,-0.9,261.3,-4806.9,-513.6,0,1488,1034821877760,84,0, 
0.8300,33.9,-30.9,-95.4,17.7,-9819.9,-842.1,264.0,-9830.1,-118337.7,228.9,-9830.1,-9817.8,-874.8,-9827.4,-9830.1,-9830.1,-6.9,-6.0,-9830.1,-9830.1,-0.6,277.5,-8922.9,-541.8,0,1494,1034821877760,85,0, 
0.8333,-38.1,-33.6,-128.1,-66.3,-2366.1,-612.9,186.3,-8591.1,-89512.8,78.0,-5702.4,-6522.9,-483.3,-8781.6,-9830.1,-8596.8,-6.9,-5.7,-7734.9,-7721.4,-0.9,126.9,-2467.8,-487.5,0,1500,1034821877760,86,0, 
0.8367,-90.6,-31.8,-161.1,-131.7,9536.4,-367.8,121.8,7037.7,24156.6,-46.5,5018.7,5892.0,45.3,6482.1,4333.2,7012.2,-6.6,-6.6,6907.2,7373.4,-1.2,-1.8,5032.8,-434.4,0,1506,1034821877760,87,0, 
0.8400,-51.6,-20.4,-140.4,-90.0,8658.6,-389.7,151.2,9830.1,78990.6,12.6,9830.1,9817.5,88.8,9827.1,9830.1,9830.1,-6.9,-6.0,9830.1,9830.1,-0.9,62.7,4819.2,-437.1,0,1512,1034821877760,88,0, 
0.8433,26.7,-24.0,-99.9,3.9,-4348.5,-689.7,246.6,2558.7,-2445.3,186.3,-1.8,113.7,-483.6,1584.9,-365.1,2405.1,-7.2,-5.4,1282.8,1814.7,-0.6,237.6,-3947.4,-507.3,0,1518,1034821877760,89,0, 
0.8467,36.9,-25.8,-93.0,26.7,-9819.9,-867.0,279.0,-9830.1,-120634.8,244.5,-9830.1,-9817.8,-907.2,-9827.4,-9830.1,-9830.1,-7.2,-6.0,-9830.1,-9830.1,-0.6,297.0,-9490.5,-551.1,0,1524,1034821877760,90,0, 
0.8500,-45.6,-26.1,-136.5,-70.5,-2455.5,-622.2,189.3,-8713.5,-96700.5,79.5,-6189.3,-6682.2,-493.8,-8878.8,-9766.8,-8696.4,-6.9,-6.0,-7910.1,-7907.1,-0.6,125.4,-2823.9,-490.2,0,1530,1034821877760,91,0, 
0.8533,-93.6,-26.1,-168.3,-137.4,9819.6,-338.7,116.1,6663.9,32752.2,-58.8,5870.4,6618.6,97.2,6160.5,4402.2,6686.4,-7.2,-6.3,6927.3,7135.5,-0.6,-12.6,5854.2,-424.8,0,1536,1034821877760,92,0, 
0.8567,-39.6,-8.1,-133.2,-81.0,7794.6,-397.2,162.0,9830.1,75952.5,24.6,9633.6,9817.5,64.2,9827.1,9830.1,9830.1,-6.6,-6.0,9830.1,9830.1,-0.9,83.7,4236.6,-434.4,0,1542,1034821877760,93,0, 
0.8600,28.5,-18.6,-96.6,7.2,-4638.0,-692.7,244.2,2308.5,-9262.5,190.5,-857.4,-622.2,-504.9,1290.9,-417.6,2140.2,-6.9,-6.0,768.3,1461.6,-0.6,245.1,-4248.0,-513.3,0,1548,1034821877760,94,0, 
0.8633,33.0,-21.0,-81.3,21.3,-9819.9,-820.8,271.8,-9830.1,-111742.8,226.2,-9830.1,-9817.8,-856.2,-9827.4,-9830.1,-9830.1,-6.9,-6.0,-9830.1,-9830.1,-0.9,278.4,-8681.4,-536.4,0,1554,1034821877760,95,0, 
0.8667,-32.7,-25.5,-108.0,-51.0,-3588.0,-626.7,203.4,-9055.8,-99516.3,96.3,-7028.4,-7822.5,-541.2,-9174.0,-9830.1,-9046.8,-6.9,-5.7,-8499.0,-8447.7,-0.9,146.4,-3351.0,-492.0,0,1560,1034821877760,96,0, 
0.8700,-89.4,-19.5,-148.8,-129.9,9284.4,-323.1,119.7,5545.8,26157.3,-52.8,5317.8,6030.9,75.0,5206.8,3558.0,5578.2,-6.6,-6.3,6135.6,6314.1,-0.6,-5.1,5608.8,-417.6,0,1566,1034821877760,97,0, 
0.8733,-42.0,-3.0,-118.5,-74.1,8867.4,-355.2,160.2,9830.1,85363.2,22.2,9830.1,9817.5,114.3,9827.1,9830.1,9830.1,-7.2,-5.7,9830.1,9830.1,-0.9,70.2,5099.1,-422.1,0,1572,1034821877760,98,0, 
0.8767,42.6,-7.8,-76.5,22.5,-5240.7,-702.3,257.4,508.5,-12152.4,203.4,-1026.6,-874.5,-536.7,-396.3,-2052.0,319.2,-7.2,-6.0,-411.9,70.2,-0.9,258.0,-4851.9,-509.1,0,1578,1034821877760,99,0, 
0.8800,34.2,-20.1,-77.7,24.3,-9819.9,-831.9,273.6,-9830.1,-118485.9,222.9,-9830.1,-9817.8,-867.0,-9827.4,-9830.1,-9830.1,-6.9,-5.7,-9830.1,-9830.1,-0.6,282.6,-8955.0,-540.6,0,1584,1034821877760,100,0, 
0.8833,-36.3,-22.5,-121.5,-60.6,-2370.3,-600.9,198.9,-8749.5,-91291.2,78.6,-5830.8,-6430.8,-498.6,-8974.2,-9830.1,-8767.2,-6.9,-6.3,-7899.3,-7789.5,-0.9,131.4,-2630.4,-485.1,0,1590,1034821877760,101,0, 
0.8867,-79.2,-19.5,-146.4,-120.9,9416.7,-352.5,138.0,6835.5,22007.7,-40.8,4680.6,5928.9,36.3,5990.1,3751.5,6774.0,-6.9,-6.3,6549.6,7177.8,-0.9,9.9,4930.8,-427.2,0,1596,1034821877760,102,0, 
0.8900,-39.6,-7.2,-129.9,-86.4,8705.7,-371.7,166.5,9830.1,78175.5,16.2,9830.1,9817.5,97.8,9827.1,9830.1,9830.1,-6.6,-6.0,9830.1,9830.1,-0.6,70.5,4846.5,-441.6,0,1602,1034821877760,103,0, 
0.8933,39.3,-7.5,-93.0,4.2,-4241.1,-684.6,252.3,2458.2,-3334.5,184.8,-104.4,477.3,-481.5,1359.3,-499.5,2241.6,-7.5,-5.7,1093.2,1863.6,-0.9,237.9,-3959.1,-523.5,0,1608,1034821877760,104,0, 
0.8967,40.2,-26.4,-92.1,23.1,-9819.9,-865.2,278.7,-9830.1,-122413.2,231.6,-9830.1,-9817.8,-916.8,-9827.4,-9830.1,-9830.1,-6.6,-6.0,-9830.1,-9830.1,-0.9,285.0,-9510.6,-568.8,0,1614,1034821877760,105,0, 
0.9000,-43.5,-34.5,-140.7,-72.9,-2349.3,-621.0,190.5,-8763.0,-97812.0,64.5,-6387.9,-6707.7,-512.7,-8935.2,-9822.9,-8762.4,-6.6,-6.0,-8167.8,-7958.1,-0.9,122.1,-2823.6,-505.2,0,1620,1034821877760,106,0, 
0.9033,-90.9,-23.4,-170.1,-140.7,9790.8,-342.0,123.9,6564.6,30529.2,-60.0,5711.7,6682.5,99.6,6042.9,4222.2,6557.4,-6.6,-5.4,6692.4,7133.1,-0.6,-8.1,5768.4,-432.9,0,1626,1034821877760,107,0, 
0.9067,-40.8,-15.6,-149.7,-89.1,7995.9,-412.8,165.9,9830.1,74248.2,20.4,9638.7,9817.5,63.3,9827.1,9830.1,9830.1,-7.2,-6.0,9830.1,9830.1,-0.9,77.1,4234.2,-451.5,0,1632,1034821877760,108,0, 
0.9100,32.1,-14.1,-108.3,0.0,-4484.4,-693.9,254.1,2170.2,-9410.7,185.1,-717.9,-244.8,-490.2,1093.8,-558.3,1998.6,-6.9,-5.4,739.8,1501.8,-0.6,238.5,-4155.9,-519.6,0,1638,1034821877760,109,0, 
0.9133,33.9,-21.3,-99.9,14.7,-9819.9,-832.2,276.9,-9830.1,-112780.2,225.3,-9830.1,-9817.8,-847.5,-9827.4,-9830.1,-9830.1,-6.9,-6.3,-9830.1,-9830.1,-0.6,285.9,-8700.6,-552.3,0,1644,1034821877760,110,0, 
0.9167,-40.2,-30.6,-139.8,-70.8,-3612.9,-646.2,204.9,-9065.1,-101294.7,85.5,-7161.9,-7641.3,-537.0,-9207.3,-9830.1,-9054.6,-6.9,-6.0,-8534.7,-8405.1,-0.9,141.3,-3415.2,-505.8,0,1650,1034821877760,111,0, 
0.9200,-94.2,-23.7,-172.8,-145.8,9405.6,-344.1,124.5,5645.4,25564.5,-62.7,5252.1,6366.6,92.7,5263.5,3656.1,5700.0,-6.9,-6.0,6159.3,6468.3,-1.5,-7.8,5658.0,-434.7,0,1656,1034821877760,112,0, 
0.9233,-43.2,-11.1,-140.1,-93.3,8840.4,-366.9,165.6,9830.1,84548.1,18.3,9830.1,9817.5,135.9,9827.1,9830.1,9830.1,-6.9,-6.0,9830.1,9830.1,-1.2,74.1,5076.3,-430.5,0,1662,1034821877760,113,0, 
0.9267,39.0,-11.4,-100.2,7.2,-5166.3,-702.9,264.0,584.1,-12374.7,209.7,-964.5,-486.3,-528.6,-498.6,-2291.4,459.0,-6.6,-6.0,-436.2,98.1,-0.6,268.5,-4775.4,-509.1,0,1668,1034821877760,114,0, 
0.9300,25.8,-24.9,-102.0,5.4,-9819.9,-843.0,268.8,-9830.1,-117670.8,223.5,-9830.1,-9817.8,-861.0,-9827.4,-9830.1,-9830.1,-6.9,-6.0,-9830.1,-9830.1,-0.9,286.2,-8854.5,-543.3,0,1674,1034821877760,115,0, 
0.9333,-35.1,-22.8,-133.8,-71.1,-2334.9,-610.5,205.5,-8784.3,-91809.9,84.0,-5887.5,-6180.0,-483.3,-9064.8,-9830.1,-8772.6,-6.3,-5.7,-7912.2,-7803.3,-0.9,141.0,-2632.2,-481.2,0,1680,1034821877760,116,0, 
0.9367,-86.4,-28.2,-174.6,-144.9,9326.7,-356.7,126.6,6762.3,21414.9,-39.6,4662.6,6221.7,39.9,5680.2,3438.9,6768.6,-6.6,-6.0,6446.7,7052.4,-0.9,11.7,4959.9,-432.0,0,1686,1034821877760,117,0, 
0.9400,-51.3,-14.1,-150.6,-102.9,8772.3,-363.6,156.0,9830.1,79657.5,12.9,9830.1,9817.5,109.5,9827.1,9830.1,9830.1,-7.2,-6.0,9830.1,9830.1,-0.9,63.0,5003.1,-434.1,0,1692,1034821877760,118,0, 
0.9433,23.7,-24.0,-115.5,-12.3,-4126.8,-680.7,248.1,2553.9,-3260.4,189.6,327.9,1076.1,-484.5,1444.5,-368.1,2440.8,-6.9,-5.7,1597.2,2221.8,-0.9,240.9,-3909.0,-507.9,0,1698,1034821877760,119,0, 
0.9467,40.5,-28.5,-102.9,12.0,-9819.9,-856.5,277.2,-9830.1,-122931.9,249.3,-9830.1,-9817.8,-901.8,-9827.4,-9830.1,-9830.1,-6.9,-6.0,-9830.1,-9830.1,-0.9,297.9,-9465.0,-563.1,0,1704,1034821877760,120,0, 
0.9500,-45.3,-39.0,-156.0,-91.5,-2175.9,-623.7,177.6,-8676.9,-97515.6,70.8,-5958.0,-6263.7,-496.8,-8888.1,-9812.7,-8652.6,-7.2,-6.3,-7878.0,-7803.6,-0.6,119.7,-2736.6,-507.6,0,1710,1034821877760,121,0, 
0.9533,-88.8,-29.4,-174.9,-145.8,9735.3,-342.9,117.0,6660.6,29788.2,-48.0,6039.3,7036.5,100.5,6128.7,4228.2,6699.6,-6.6,-6.0,7053.6,7359.6,-1.2,-20.7,5769.3,-444.0,0,1716,1034821877760,122,0, 
0.9567,-37.8,-9.6,-140.7,-90.6,8246.4,-392.7,159.9,9830.1,74322.3,42.3,9830.1,9817.5,68.7,9827.1,9830.1,9830.1,-7.2,-6.0,9830.1,9830.1,-0.6,65.4,4327.2,-454.2,0,1722,1034821877760,123,0, 
0.9600,25.8,-21.6,-109.5,-11.7,-4315.5,-688.2,238.8,2190.6,-7632.3,195.3,-334.5,303.9,-485.7,1236.6,-547.2,2080.5,-7.5,-5.4,1150.2,1752.9,-0.6,219.6,-4030.2,-529.5,0,1728,1034821877760,124,0, 
0.9633,35.7,-30.9,-106.2,-0.9,-9819.9,-837.0,266.4,-9830.1,-112335.6,229.8,-9830.1,-9817.8,-857.1,-9827.4,-9830.1,-9830.1,-6.6,-6.0,-9830.1,-9830.1,-0.9,262.5,-8735.7,-554.4,0,1734,1034821877760,125,0, 
0.9667,-39.6,-40.8,-147.3,-87.0,-3591.0,-646.5,187.5,-9006.3,-101813.4,72.9,-7068.6,-7433.1,-555.9,-9145.8,-9804.3,-8991.3,-6.6,-5.7,-8436.3,-8347.2,-0.6,122.4,-3445.2,-518.1,0,1740,1034821877760,126,0, 
0.9700,-101.4,-36.3,-189.3,-167.1,9531.6,-345.9,107.1,5869.8,25860.9,-87.0,5416.2,6477.9,69.9,5438.1,3812.1,5946.0,-6.6,-6.0,6307.2,6557.1,-1.2,-27.3,5711.7,-451.5,0,1746,1034821877760,127,0, 
0.9733,-51.6,-27.0,-165.0,-114.0,8802.3,-378.3,144.6,9830.1,84251.7,-15.3,9830.1,9817.5,106.5,9827.1,9830.1,9830.1,-6.6,-6.0,9830.1,9830.1,-0.9,56.4,5093.1,-444.9,0,1752,1034821877760,128,0, 
0.9767,24.6,-33.9,-128.4,-17.1,-5182.8,-716.7,245.1,758.4,-12226.5,168.9,-786.0,-430.2,-547.2,-436.5,-2282.4,700.2,-6.9,-6.0,-440.1,43.5,-1.2,251.4,-4741.2,-535.2,0,1758,1034821877760,129,0, 
0.9800,25.2,-39.6,-123.3,-4.8,-9819.9,-833.1,258.3,-9830.1,-116411.1,189.0,-9830.1,-9817.8,-862.2,-9827.4,-9830.1,-9830.1,-6.9,-6.3,-9830.1,-9830.1,-0.9,274.5,-8744.4,-561.9,0,1764,1034821877760,130,0, 
0.9833,-44.1,-34.2,-149.4,-91.8,-2414.7,-618.0,181.2,-8842.5,-92254.5,48.6,-5828.4,-6318.0,-505.5,-9152.1,-9830.1,-8829.9,-6.6,-6.0,-8007.3,-7897.5,-0.9,128.4,-2727.3,-502.8,0,1770,1034821877760,131,0, 
0.9867,-89.4,-25.2,-176.1,-143.7,9214.2,-354.6,117.0,6540.3,20748.0,-60.9,4761.9,6031.5,37.5,5411.7,2995.5,6458.7,-6.6,-6.0,6273.6,6884.4,-0.6,9.0,4935.9,-441.0,0,1776,1034821877760,132,0, 
0.9900,-50.4,-8.7,-156.9,-106.5,8870.7,-356.7,149.1,9830.1,80472.6,3.6,9830.1,9817.5,111.6,9827.1,9830.1,9830.1,-6.9,-5.7,9830.1,9830.1,-0.9,62.7,5079.3,-439.5,0,1782,1034821877760,133,0, 
0.9933,26.1,-18.3,-113.1,-11.7,-4019.7,-682.2,239.1,2690.7,-1926.6,189.3,284.4,897.3,-477.6,1517.7,-203.1,2567.1,-6.9,-5.7,1429.2,2167.8,-0.9,249.0,-3948.6,-514.8,0,1788,1034821877760,134,0, 
0.9967,43.5,-24.6,-103.8,12.0,-9819.9,-854.1,276.3,-9830.1,-121375.8,243.6,-9830.1,-9817.8,-901.2,-9827.4,-9830.1,-9830.1,-6.9,-6.0,-9830.1,-9830.1,-0.9,300.6,-9519.9,-549.3,0,1794,1034821877760,135,0, 
1.0000,-42.9,-29.1,-148.5,-78.6,-2143.5,-611.4,191.1,-8633.1,-95589.0,78.0,-6095.4,-6561.3,-496.2,-8881.5,-9799.8,-8631.6,-6.3,-6.3,-7973.7,-7831.8,-0.6,129.0,-2694.3,-486.3,0,1800,1034821877760,136,0, 
1.0033,-90.6,-19.2,-175.2,-145.5,9689.7,-338.7,118.5,6706.2,30603.3,-53.4,5823.6,6790.5,97.5,6095.1,4296.0,6697.2,-6.9,-6.3,6929.7,7257.9,-0.6,-3.3,5671.5,-432.6,0,1806,1034821877760,137,0, 
1.0067,-44.7,-9.9,-150.6,-92.1,8370.0,-405.0,156.3,9830.1,75582.0,28.8,9830.1,9817.5,75.3,9827.1,9830.1,9830.1,-7.2,-6.0,9830.1,9830.1,-0.6,77.7,4331.4,-450.6,0,1812,1034821877760,138,0, 
1.0100,24.9,-14.1,-117.3,-11.4,-4198.5,-687.3,240.3,2298.9,-5112.9,180.0,-183.0,252.9,-474.9,1277.1,-264.3,2185.2,-7.2,-6.0,1223.4,1758.9,-0.9,229.2,-3921.0,-514.2,0,1818,1034821877760,139,0, 
1.0133,25.5,-26.4,-105.9,6.3,-9819.9,-838.8,266.4,-9830.1,-110927.7,222.6,-9830.1,-9817.8,-863.4,-9827.4,-9830.1,-9830.1,-6.9,-5.7,-9830.1,-9830.1,-0.9,282.3,-8781.3,-560.7,0,1824,1034821877760,140,0, 
1.0167,-45.0,-33.9,-141.6,-71.7,-3589.5,-638.1,196.5,-8881.8,-100701.9,88.5,-7029.6,-7411.5,-544.5,-9065.1,-9740.7,-8867.1,-6.6,-6.0,-8358.6,-8248.2,-0.6,132.9,-3440.1,-510.0,0,1830,1034821877760,141,0, 
1.0200,-101.7,-26.4,-171.6,-146.1,9624.3,-325.8,117.3,6192.6,27787.5,-59.7,5459.7,6412.8,87.6,5637.0,4112.4,6243.3,-6.6,-6.3,6399.9,6761.4,-0.6,-20.4,5758.8,-436.5,0,1836,1034821877760,142,0, 
1.0233,-49.2,-3.6,-138.3,-91.8,8766.9,-368.1,157.2,9830.1,86030.1,15.6,9830.1,9817.5,116.1,9827.1,9830.1,9830.1,-6.9,-6.0,9830.1,9830.1,-1.2,56.4,5117.7,-450.3,0,1842,1034821877760,143,0, 
1.0267,30.9,-9.3,-97.2,0.9,-5177.7,-710.7,254.7,1038.6,-10299.9,195.9,-735.0,-587.4,-531.9,-196.2,-1794.0,914.7,-7.2,-6.0,-470.7,223.2,-0.6,248.4,-4688.4,-526.8,0,1848,1034821877760,144,0, 
1.0300,23.7,-24.0,-101.4,1.2,-9819.9,-837.6,261.9,-9830.1,-113817.6,218.7,-9830.1,-9817.8,-876.9,-9827.4,-9830.1,-9830.1,-6.6,-6.0,-9830.1,-9830.1,-0.6,268.8,-8705.4,-560.7,0,1854,1034821877760,145,0, 
1.0333,-45.0,-26.1,-140.7,-80.1,-2475.9,-624.6,189.0,-8949.9,-91439.4,69.3,-5849.1,-6418.2,-501.6,-9228.0,-9830.1,-8922.9,-6.6,-6.6,-8077.5,-7946.7,-0.6,128.7,-2799.0,-515.4,0,1860,1034821877760,146,0, 
1.0367,-99.6,-27.6,-169.8,-148.8,9138.3,-372.0,121.5,6204.0,21711.3,-58.8,4784.4,5916.6,30.0,5223.6,2933.7,6197.1,-6.9,-6.0,6157.5,6753.9,-0.9,-9.0,4992.0,-455.4,0,1866,1034821877760,147,0, 
1.0400,-59.7,-12.9,-150.3,-109.5,8912.7,-375.3,148.8,9830.1,82621.5,2.1,9830.1,9817.5,112.5,9827.1,9830.1,9830.1,-6.9,-6.0,9830.1,9830.1,-0.9,40.2,5190.9,-453.6,0,1872,1034821877760,148,0, 
1.0433,23.1,-15.9,-102.3,-8.7,-4015.2,-693.9,245.7,2788.2,-296.4,187.2,389.1,930.6,-481.8,1674.9,82.2,2678.1,-7.2,-6.0,1498.5,2208.6,-0.9,229.5,-3902.1,-524.4,0,1878,1034821877760,149,0, 
1.0467,29.1,-21.9,-92.1,9.6,-9819.9,-858.6,276.0,-9830.1,-120042.0,234.9,-9830.1,-9817.8,-909.9,-9827.4,-9830.1,-9830.1,-6.9,-6.3,-9830.1,-9830.1,-0.6,282.9,-9478.5,-570.9,0,1884,1034821877760,150,0, 
1.0500,-51.0,-22.8,-133.5,-82.5,-2220.3,-607.5,192.3,-8630.7,-93884.7,69.6,-6145.8,-6648.3,-495.0,-8858.7,-9726.9,-8613.3,-6.9,-6.0,-7996.2,-7839.9,-0.9,115.5,-2654.7,-506.1,0,1890,1034821877760,151,0, 
1.0533,-103.8,-21.0,-170.4,-152.4,9637.8,-338.7,117.6,6669.3,30677.4,-56.1,5702.7,6742.8,81.6,6092.4,4471.2,6670.8,-6.9,-6.0,6837.3,7242.9,-0.9,-12.0,5618.1,-446.7,0,1896,1034821877760,152,0, 
1.0567,-50.4,-1.2,-142.5,-94.8,8494.2,-390.6,165.3,9830.1,76545.3,25.5,9830.1,9817.5,71.7,9827.1,9830.1,9830.1,-7.5,-5.7,9830.1,9830.1,-0.9,70.2,4415.4,-455.1,0,1902,1034821877760,153,0, 
1.0600,20.7,-5.4,-108.6,-12.6,-4108.5,-667.2,248.4,2262.0,-2741.7,183.3,-326.1,584.4,-470.1,1344.9,-64.2,2130.6,-6.9,-5.7,1155.0,1835.7,-0.6,228.9,-3798.0,-521.4,0,1908,1034821877760,154,0, 
1.0633,29.1,-17.1,-104.4,2.4,-9819.9,-833.4,273.3,-9830.1,-110038.5,233.1,-9830.1,-9817.8,-855.9,-9827.4,-9830.1,-9830.1,-7.2,-6.0,-9830.1,-9830.1,-0.9,273.0,-8820.6,-559.8,0,1914,1034821877760,155,0, 
1.0667,-41.1,-24.9,-139.5,-76.8,-3553.2,-636.9,202.5,-8821.5,-100331.4,96.3,-7096.8,-7338.3,-541.2,-8981.1,-9694.5,-8806.5,-6.9,-6.0,-8368.2,-8247.0,-0.3,135.0,-3465.0,-506.4,0,1920,1034821877760,156,0, 
1.0700,-102.3,-17.7,-176.4,-155.4,9718.8,-327.3,118.2,6319.2,28899.0,-60.9,5365.2,6471.3,97.2,5784.9,4295.4,6347.4,-6.9,-6.0,6458.1,6805.5,-0.9,-20.1,5784.3,-444.9,0,1926,1034821877760,157,0, 
1.0733,-56.7,-10.8,-145.8,-102.9,8669.7,-363.6,154.8,9830.1,86178.3,21.3,9830.1,9817.5,105.3,9827.1,9830.1,9830.1,-7.2,-6.3,9830.1,9830.1,-0.9,53.1,5062.8,-452.1,0,1932,1034821877760,158,0, 
1.0767,31.8,-9.6,-103.2,-6.9,-5163.9,-694.2,252.9,1105.2,-9114.3,200.4,-772.5,-504.3,-521.4,-50.1,-1484.1,955.5,-6.9,-6.0,-330.0,294.0,-0.9,245.1,-4596.3,-526.5,0,1938,1034821877760,159,0, 
1.0800,29.4,-18.6,-95.4,6.9,-9819.9,-822.9,266.4,-9830.1,-111816.9,228.9,-9830.1,-9817.8,-847.5,-9827.4,-9830.1,-9830.1,-6.9,-6.0,-9830.1,-9830.1,-0.3,270.3,-8619.0,-557.1,0,1944,1034821877760,160,0, 
1.0833,-41.4,-25.8,-131.1,-77.1,-2532.3,-618.0,196.2,-9120.6,-91291.2,93.6,-6071.7,-6473.1,-501.3,-9298.8,-9830.1,-9115.8,-6.3,-6.0,-8178.0,-8096.1,-0.9,128.7,-2878.5,-507.6,0,1950,1034821877760,161,0, 
1.0867,-89.1,-21.9,-164.7,-141.6,9068.4,-357.0,124.8,5894.4,22007.7,-36.9,4542.0,5754.3,60.0,5140.8,2908.8,5858.7,-7.2,-6.3,5962.8,6492.0,-0.6,-1.5,4999.2,-450.0,0,1956,1034821877760,162,0, 
1.0900,-49.5,-8.1,-141.0,-106.2,9008.1,-357.6,153.9,9830.1,84177.6,16.8,9830.1,9817.5,121.8,9827.1,9830.1,9830.1,-7.2,-6.3,9830.1,9830.1,-1.2,53.1,5259.6,-448.5,0,1962,1034821877760,163,0, 
1.0933,37.2,-9.3,-87.9,2.4,-3889.5,-669.9,255.6,2866.2,889.2,199.2,308.1,1000.5,-480.3,1917.6,428.7,2712.6,-7.2,-6.0,1526.4,2239.2,-0.6,239.4,-3931.5,-517.8,0,1968,1034821877760,164,0, 
1.0967,41.1,-18.9,-82.2,21.3,-9819.9,-837.6,279.3,-9830.1,-118189.5,241.2,-9830.1,-9817.8,-898.2,-9827.4,-9830.1,-9830.1,-6.9,-5.7,-9830.1,-9830.1,-0.9,281.1,-9463.2,-562.8,0,1974,1034821877760,165,0, 
1.1000,-45.0,-28.5,-123.3,-71.4,-2083.2,-595.2,194.1,-8651.4,-91884.0,72.6,-6213.3,-6577.2,-489.3,-8829.6,-9648.9,-8640.0,-6.6,-5.7,-7970.4,-7859.4,-0.6,110.1,-2600.4,-501.6,0,1980,1034821877760,166,0, 
1.1033,-91.2,-21.6,-155.1,-140.1,9631.8,-337.8,120.6,6696.3,31196.1,-45.3,5716.8,6747.9,72.0,6160.5,4686.6,6705.0,-6.9,-5.7,6909.6,7224.6,-0.6,-16.2,5534.1,-443.7,0,1986,1034821877760,167,0, 
1.1067,-45.6,-13.8,-132.6,-91.2,8701.2,-390.0,156.9,9830.1,78768.3,21.6,9830.1,9817.5,71.1,9827.1,9830.1,9830.1,-7.2,-6.3,9830.1,9830.1,-0.6,63.6,4524.6,-450.6,0,1992,1034821877760,168,0, 
1.1100,20.1,-18.3,-100.2,-9.3,-3807.6,-665.1,236.7,2638.5,1778.4,180.6,425.1,918.6,-463.8,1696.5,445.8,2545.8,-6.9,-6.0,1586.1,2143.2,-0.6,221.7,-3612.3,-515.1,0,1998,1034821877760,169,0, 
1.1133,32.1,-22.2,-86.4,15.3,-9819.9,-821.4,269.4,-9830.1,-105740.7,236.1,-9830.1,-9817.8,-858.6,-9827.4,-9830.1,-9830.1,-7.2,-5.7,-9830.1,-9830.1,-0.6,270.3,-8701.5,-556.5,0,2004,1034821877760,170,0, 
1.1167,-36.9,-30.0,-127.2,-62.1,-3239.1,-633.9,198.0,-8666.4,-95440.8,90.6,-6664.5,-7195.2,-541.5,-8830.8,-9532.5,-8651.7,-6.6,-6.0,-8229.0,-8144.4,-0.9,127.5,-3324.6,-514.8,0,2010,1034821877760,171,0, 
1.1200,-99.9,-21.6,-164.7,-138.3,9747.0,-324.3,116.1,6756.0,33937.8,-62.7,5836.2,6606.6,89.7,6236.4,5027.4,6784.5,-7.5,-6.0,6765.9,7091.1,-0.9,-26.4,5899.8,-444.6,0,2016,1034821877760,172,0, 
1.1233,-38.7,1.2,-131.4,-84.3,8789.1,-355.5,166.8,9830.1,91217.1,22.5,9830.1,9817.5,131.7,9827.1,9830.1,9830.1,-7.2,-6.0,9830.1,9830.1,-0.9,54.6,5207.4,-447.6,0,2022,1034821877760,173,0, 
1.1267,36.9,-9.6,-90.0,10.8,-4638.3,-677.7,257.7,2303.7,666.9,195.0,369.6,363.0,-481.8,1339.8,305.4,2215.8,-7.2,-6.0,858.9,1463.4,-0.9,234.3,-4172.4,-525.3,0,2028,1034821877760,174,0, 
1.1300,32.1,-19.5,-96.0,12.9,-9819.9,-807.9,270.3,-9830.1,-99590.4,222.3,-9714.9,-9817.8,-814.5,-9827.4,-9830.1,-9830.1,-6.9,-6.0,-9830.1,-9830.1,-0.6,253.8,-8168.4,-554.1,0,2034,1034821877760,175,0, 
1.1333,-34.5,-23.7,-136.8,-63.0,-2337.0,-611.7,204.0,-8838.6,-80324.4,94.8,-5311.2,-6072.6,-494.1,-8955.9,-9822.6,-8816.1,-6.9,-6.3,-7711.5,-7719.0,-0.6,123.0,-2681.4,-502.2,0,2040,1034821877760,176,0, 
1.1367,-86.1,-17.4,-171.3,-133.5,9098.1,-340.8,127.2,6708.9,32900.4,-47.7,5468.1,6358.8,54.9,6134.7,4895.4,6683.7,-6.9,-6.0,6847.8,7139.7,-0.9,-11.4,5232.6,-441.3,0,2046,1034821877760,177,0, 
1.1400,-52.2,-11.1,-159.3,-103.5,9248.4,-348.0,146.7,9830.1,96330.0,-0.3,9830.1,9817.5,135.0,9827.1,9830.1,9830.1,-6.9,-5.7,9830.1,9830.1,-0.3,36.9,5605.5,-447.6,0,2052,1034821877760,178,0, 
1.1433,25.5,-19.5,-124.2,-9.9,-3205.5,-666.9,240.9,4608.6,17487.6,183.3,2125.8,2332.5,-444.9,3801.9,3413.1,4532.1,-6.9,-6.0,3453.0,3902.7,-0.3,215.7,-3360.6,-531.6,0,2058,1034821877760,179,0, 
1.1467,37.5,-17.1,-107.7,16.8,-9819.9,-821.7,275.4,-9830.1,-93291.9,232.2,-9609.9,-9817.8,-845.4,-9827.4,-9830.1,-9830.1,-7.2,-6.0,-9830.1,-9830.1,-0.9,269.7,-8418.9,-561.9,0,2064,1034821877760,180,0, 
1.1500,-41.7,-18.6,-138.0,-65.1,-1936.8,-605.1,191.7,-8166.3,-70024.5,82.8,-4512.6,-5745.3,-475.5,-8244.3,-8733.3,-8121.9,-6.9,-6.0,-7191.6,-7209.3,-0.9,114.0,-2265.3,-503.1,0,2070,1034821877760,181,0, 
1.1533,-90.9,-14.7,-174.0,-132.0,9412.2,-346.8,122.1,7750.2,46312.5,-43.2,6428.4,7106.1,76.8,7367.7,7182.3,7770.6,-6.6,-6.0,7723.5,7961.4,-0.6,-14.7,5575.8,-448.2,0,2076,1034821877760,182,0, 
1.1567,-46.8,-1.8,-147.3,-90.6,9081.9,-373.2,156.0,9830.1,98478.9,19.5,9830.1,9817.5,111.6,9827.1,9830.1,9830.1,-7.2,-6.0,9830.1,9830.1,-0.6,40.8,5131.2,-447.3,0,2082,1034821877760,183,0, 
1.1600,19.8,-7.8,-117.3,-12.9,-2978.7,-654.3,234.9,5320.2,27639.3,179.4,2729.1,2873.7,-403.2,4654.2,5487.9,5225.7,-6.6,-5.4,4053.6,4371.0,-0.9,202.8,-2817.3,-522.6,0,2088,1034821877760,184,0, 
1.1633,36.0,-11.1,-104.1,13.5,-9819.9,-810.0,267.9,-9830.1,-74618.7,234.9,-8122.5,-9817.8,-778.8,-9827.4,-9830.1,-9830.1,-6.9,-5.7,-9830.1,-9830.1,-0.9,256.8,-7793.7,-555.3,0,2094,1034821877760,185,0, 
1.1667,-30.6,-12.6,-134.1,-55.8,-2854.5,-614.1,204.9,-8233.8,-64467.0,105.9,-4954.5,-6276.3,-486.3,-8270.4,-8043.6,-8223.6,-6.3,-6.0,-7480.5,-7564.5,-0.6,133.8,-2753.7,-508.2,0,2100,1034821877760,186,0, 
1.1700,-84.6,-5.1,-161.4,-125.1,9444.0,-337.2,126.0,7786.2,53055.6,-31.8,6368.1,6935.1,102.9,7475.1,8295.3,7772.7,-6.9,-6.0,7588.5,7817.4,-0.6,-6.3,5651.1,-439.5,0,2106,1034821877760,187,0, 
1.1733,-39.3,11.1,-134.4,-83.1,8999.1,-354.0,158.4,9830.1,109668.0,31.8,9830.1,9817.5,138.9,9827.1,9830.1,9830.1,-7.2,-6.0,9830.1,9830.1,-1.2,58.5,5412.3,-442.2,0,2112,1034821877760,188,0, 
1.1767,29.4,6.6,-97.5,-0.6,-3465.0,-652.2,243.3,5091.0,32159.4,187.8,2450.7,2577.6,-425.7,4631.1,7063.8,4989.0,-6.9,-6.0,3704.1,4054.5,-0.6,211.8,-3085.2,-514.5,0,2118,1034821877760,189,0, 
1.1800,36.0,-2.4,-96.0,15.9,-9819.9,-787.2,267.9,-9830.1,-65652.6,223.8,-7815.0,-9817.8,-759.0,-9827.4,-9830.1,-9830.1,-7.5,-6.3,-9830.1,-9830.1,-0.6,256.2,-7382.7,-538.8,0,2124,1034821877760,190,0, 
1.1833,-24.6,-9.0,-124.5,-52.2,-2756.7,-612.3,200.1,-8567.1,-54759.9,108.9,-4526.1,-5989.8,-481.5,-8437.5,-7262.1,-8519.4,-6.0,-5.7,-7509.3,-7734.0,-0.6,133.8,-2632.8,-495.6,0,2130,1034821877760,191,0, 
1.1867,-78.0,-13.5,-153.3,-125.4,8822.7,-355.2,130.5,7321.8,52833.3,-36.0,5741.7,6331.2,57.0,7142.4,9121.2,7335.9,-6.6,-6.3,7083.3,7247.7,-0.6,-6.3,5163.9,-441.6,0,2136,1034821877760,192,0, 
1.1900,-49.8,-7.8,-137.1,-95.1,9244.2,-354.9,148.8,9830.1,113521.2,9.9,9830.1,9817.5,141.0,9827.1,9830.1,9830.1,-6.9,-6.3,9830.1,9830.1,-0.9,42.6,5562.6,-447.6,0,2142,1034821877760,193,0, 
1.1933,27.0,-8.4,-104.7,-9.9,-3110.1,-651.6,238.2,5326.8,39198.9,183.6,2694.0,2751.9,-400.8,5015.1,8292.0,5211.9,-7.2,-5.7,3969.0,4203.3,-0.6,211.5,-2910.6,-515.4,0,2148,1034821877760,194,0, 
1.1967,37.8,-25.2,-101.4,8.7,-9819.9,-811.5,269.1,-9830.1,-67208.7,232.2,-8671.5,-9817.8,-788.4,-9827.4,-9818.1,-9830.1,-6.9,-5.7,-9830.1,-9830.1,-0.9,266.1,-7895.7,-554.1,0,2154,1034821877760,195,0, 
1.2000,-34.5,-33.9,-143.7,-69.9,-2736.6,-613.8,197.1,-8585.7,-52388.7,96.0,-4875.0,-6215.1,-471.6,-8328.0,-6478.8,-8522.4,-6.3,-6.3,-7625.4,-7817.4,-0.9,127.8,-2485.5,-504.0,0,2160,1034821877760,196,0, 
1.2033,-80.7,-27.3,-171.6,-135.6,9086.4,-357.0,135.0,7378.2,58168.5,-27.3,5748.3,6376.8,71.1,7415.1,9830.1,7406.1,-6.6,-5.7,7178.7,7304.1,-0.9,-0.9,5241.0,-443.1,0,2166,1034821877760,197,0, 
1.2067,-42.0,-8.7,-150.0,-95.7,9007.8,-371.7,162.9,9830.1,110853.6,33.6,9830.1,9817.5,131.7,9827.1,9474.6,9830.1,-6.6,-6.0,9830.1,9830.1,-0.9,64.8,5117.1,-443.7,0,2172,1034821877760,198,0, 
1.2100,26.7,-12.6,-113.4,-13.2,-2993.4,-639.9,245.1,5185.8,42459.3,192.6,2337.6,2507.7,-378.6,5168.1,9257.1,5065.8,-6.9,-6.0,3927.0,4102.2,-0.9,219.3,-2664.6,-503.1,0,2178,1034821877760,199,0, 
1.2133,40.2,-17.1,-101.1,10.8,-9819.9,-790.8,280.2,-9830.1,-59576.4,246.3,-8164.2,-9817.8,-755.1,-9827.4,-8820.3,-9830.1,-6.9,-6.0,-9830.1,-9830.1,-0.9,276.6,-7603.2,-531.6,0,2184,1034821877760,200,0, 
1.2167,-28.2,-22.2,-138.9,-63.3,-3372.0,-630.9,210.9,-8982.9,-53129.7,117.3,-5423.1,-6985.8,-492.9,-8661.3,-6698.1,-8949.6,-6.9,-5.4,-8201.1,-8343.6,-0.3,150.3,-2907.0,-497.1,0,2190,1034821877760,201,0, 
1.2200,-83.7,-12.6,-163.2,-130.2,9044.4,-352.2,134.4,6655.8,59428.2,-24.6,5696.1,6045.9,76.5,6983.1,9830.1,6693.3,-6.6,-5.7,6624.6,6734.1,-0.6,12.3,5328.3,-430.8,0,2196,1034821877760,202,0, 
1.2233,-42.6,-3.0,-145.8,-90.3,9040.2,-376.2,163.2,9830.1,116411.1,36.9,9830.1,9817.5,146.7,9827.1,9370.2,9830.1,-6.9,-5.7,9830.1,9830.1,-0.9,70.5,5282.1,-427.5,0,2202,0,203,0, 
1.2267,28.2,-4.5,-108.3,-2.7,-3571.2,-659.7,246.9,4205.7,40162.2,200.7,1851.6,1732.2,-405.0,4529.1,9342.0,4161.0,-7.2,-5.7,2928.0,3117.6,-0.9,234.0,-3048.3,-498.6,0,2208,344672190464,204,0, 
1.2300,35.1,-15.6,-98.4,15.0,-9819.9,-793.2,272.4,-9830.1,-57872.1,239.4,-8485.5,-9817.8,-747.9,-9827.4,-8972.7,-9830.1,-6.9,-6.0,-9830.1,-9830.1,-0.9,276.6,-7454.1,-532.2,0,2214,344672190464,205,0, 
1.2333,-20.4,-10.8,-126.3,-47.7,-3207.6,-611.4,210.3,-9159.6,-48535.5,120.9,-5304.0,-6790.8,-470.1,-8678.1,-5901.0,-9094.8,-6.6,-6.3,-8212.5,-8408.1,-0.9,155.7,-2770.2,-484.5,0,2220,1034014474240,206,0, 
1.2367,-72.3,-1.5,-156.6,-113.7,8652.3,-366.3,138.3,6205.8,55426.8,0.9,4916.1,5544.6,56.7,6723.3,9830.1,6278.7,-6.9,-6.0,6130.8,6213.6,-0.6,30.6,4785.9,-432.0,0,2226,1034014474240,207,0, 
1.2400,-33.6,15.3,-136.2,-84.3,9032.4,-366.3,168.0,9830.1,111965.1,45.0,9830.1,9817.5,136.5,9827.1,9296.4,9830.1,-6.6,-5.7,9830.1,9830.1,-0.6,79.5,5059.2,-424.8,0,2232,1034282909696,208,0, 
1.2433,34.8,8.7,-95.1,-0.6,-3429.0,-648.3,250.5,3924.3,40532.7,202.8,1615.2,1686.6,-387.9,4405.2,9443.4,3876.3,-6.6,-6.0,2770.2,2880.3,-0.6,235.2,-2984.1,-488.4,0,2238,1034282909696,209,0, 
1.2467,43.5,-4.2,-83.4,20.7,-9819.9,-797.1,279.9,-9830.1,-60836.1,252.3,-8865.9,-9817.8,-743.7,-9827.4,-8855.4,-9830.1,-6.9,-6.3,-9830.1,-9830.1,-0.3,291.9,-7699.5,-522.3,0,2244,1034282909696,210,0, 
1.2500,-21.0,-9.3,-120.3,-52.8,-2993.7,-620.7,207.6,-9051.9,-49276.5,118.2,-5435.7,-6605.7,-462.3,-8568.9,-5861.7,-9005.1,-6.3,-6.3,-8226.3,-8391.6,-0.3,152.7,-2658.6,-478.2,0,2250,1034282909696,211,0, 
1.2533,-68.1,2.1,-144.9,-114.6,8890.5,-368.1,144.6,6318.0,58020.3,-10.2,5117.7,5839.5,63.3,6927.0,9830.1,6384.9,-6.9,-6.0,6295.5,6425.1,-0.6,22.5,4944.6,-422.7,0,2256,1034282909696,212,0, 
1.2567,-30.3,12.6,-128.1,-79.8,8942.7,-381.9,172.2,9830.1,110779.5,42.3,9830.1,9817.5,119.7,9827.1,9345.6,9830.1,-6.9,-6.3,9830.1,9830.1,-0.6,70.8,4840.8,-423.0,0,2262,1034282909696,213,0, 
1.2600,35.1,6.0,-94.8,6.9,-3500.4,-645.9,254.1,3509.7,39347.1,201.3,1220.4,1267.8,-387.6,4207.5,9210.6,3483.6,-6.9,-5.4,2327.1,2580.9,-0.9,237.0,-3050.1,-480.6,0,2268,1034282909696,214,0, 
1.2633,48.0,-3.9,-80.4,30.0,-9819.9,-795.3,280.5,-9830.1,-62244.0,248.1,-9157.8,-9817.8,-755.4,-9827.4,-8844.6,-9830.1,-7.2,-6.3,-9830.1,-9830.1,-0.6,288.9,-7810.5,-519.3,0,2274,1034282909696,215,0, 
1.2667,-17.4,-11.7,-114.3,-44.4,-3356.4,-618.6,210.0,-9324.6,-53500.2,115.2,-6047.1,-7247.7,-467.7,-8847.0,-6646.8,-9283.8,-6.6,-5.7,-8615.4,-8712.3,-0.6,161.7,-2948.4,-479.7,0,2280,1034282909696,216,0, 
1.2700,-66.0,-0.9,-150.0,-107.4,8937.6,-352.8,136.2,5858.7,56612.4,-14.4,4948.5,5596.8,80.7,6663.0,9830.1,5930.7,-6.9,-6.3,5966.7,6062.4,-0.9,30.3,5014.8,-420.3,0,2286,1034282909696,217,0, 
1.2733,-28.5,14.7,-133.2,-70.2,9023.4,-363.6,170.7,9830.1,113373.0,41.7,9830.1,9817.5,145.5,9827.1,9402.9,9830.1,-7.2,-6.0,9830.1,9830.1,-0.9,80.7,5085.6,-416.1,0,2292,1034282909696,218,0, 
1.2767,50.7,9.0,-93.0,19.8,-3521.7,-631.5,258.6,3301.8,39124.8,205.8,1087.8,1227.9,-386.1,4238.1,9192.3,3273.9,-6.9,-6.0,2285.1,2351.4,-0.9,248.1,-3107.1,-481.2,0,2298,1034282909696,219,0, 
1.2800,54.3,-3.9,-87.6,33.3,-9819.9,-777.3,280.5,-9830.1,-62392.2,245.7,-9284.7,-9817.8,-754.8,-9827.4,-8856.0,-9830.1,-6.9,-6.6,-9830.1,-9830.1,-0.9,289.2,-7782.6,-519.0,0,2304,1034282909696,220,0, 
1.2833,-12.9,-11.4,-126.0,-45.9,-3424.5,-606.0,215.1,-9468.3,-54167.1,115.2,-6246.6,-7294.8,-482.7,-8918.1,-6716.1,-9427.5,-6.9,-6.0,-8743.2,-8875.2,-0.6,159.0,-2985.3,-479.7,0,2310,1034282909696,221,0, 
1.2867,-69.9,-7.8,-152.7,-115.8,8733.0,-351.6,140.1,5597.7,53426.1,-16.5,4504.5,5166.3,57.9,6578.7,9830.1,5669.7,-6.6,-6.3,5572.8,5695.8,-0.6,24.0,4803.9,-423.3,0,2316,1034282909696,222,0, 
1.2900,-39.0,8.7,-131.4,-80.4,9210.9,-338.7,168.6,9830.1,113521.2,29.1,9830.1,9817.5,141.9,9827.1,9428.4,9830.1,-7.2,-6.6,9830.1,9830.1,-0.9,71.4,5262.3,-418.2,0,2322,1034282909696,223,0, 
1.2933,35.1,6.9,-87.9,10.5,-3106.5,-618.0,252.0,3760.2,42385.2,189.6,1472.1,1563.9,-389.4,4777.5,9180.6,3752.4,-6.9,-6.0,2741.4,2815.2,-0.6,235.5,-2892.9,-484.8,0,2328,1034282909696,224,0, 
1.2967,42.9,-4.5,-73.8,33.9,-9819.9,-776.4,285.9,-9830.1,-62614.5,243.6,-9368.7,-9817.8,-766.8,-9827.4,-8823.6,-9830.1,-7.2,-6.3,-9830.1,-9830.1,-0.9,297.6,-7914.0,-516.9,0,2334,1034282909696,225,0, 
1.3000,-19.5,-5.4,-114.9,-42.3,-3571.8,-605.1,219.0,-9570.3,-55056.3,118.8,-6393.0,-7520.1,-491.7,-9002.7,-6935.7,-9531.0,-6.9,-6.0,-8849.7,-8976.9,-0.6,167.4,-3064.2,-474.6,0,2340,1034282909696,226,0, 
1.3033,-70.5,1.5,-144.0,-105.0,8691.9,-349.8,146.1,5335.2,51795.9,-9.9,4306.5,4845.6,39.6,6415.2,9830.1,5407.2,-6.6,-6.3,5357.1,5475.9,-0.6,35.1,4685.4,-420.3,0,2346,1034282909696,227,0, 
1.3067,-34.2,12.6,-128.7,-73.5,9118.8,-348.0,171.3,9830.1,109742.1,34.5,9830.1,9817.5,120.6,9827.1,9425.1,9830.1,-6.6,-6.0,9830.1,9830.1,-0.9,77.7,4994.1,-414.6,0,2352,1034282909696,228,0, 
1.3100,29.4,3.3,-97.5,7.8,-2901.3,-612.9,251.4,3737.1,42162.9,189.0,1423.5,1406.1,-380.4,4831.2,9372.6,3706.8,-6.6,-5.7,2752.8,2932.8,-0.6,232.8,-2726.7,-480.6,0,2358,1034282909696,229,0, 
1.3133,43.8,-7.2,-85.8,30.6,-9819.9,-775.2,279.0,-9830.1,-60169.2,240.3,-9082.2,-9817.8,-753.3,-9827.4,-8466.9,-9830.1,-6.9,-5.7,-9830.1,-9830.1,-0.9,291.3,-7778.1,-519.6,0,2364,1034282909696,230,0, 
1.3167,-22.5,-15.6,-124.8,-42.6,-3777.9,-620.4,211.2,-9612.6,-56167.8,115.8,-6636.9,-7781.1,-499.2,-9014.4,-7209.0,-9574.2,-6.6,-6.3,-8919.3,-9017.7,-0.6,161.4,-3245.4,-487.2,0,2370,1034282909696,231,0, 
1.3200,-75.0,-15.3,-158.7,-112.5,8612.7,-363.3,141.6,5037.6,50239.8,-17.7,4080.9,4554.0,40.8,6362.1,9821.1,5110.5,-6.9,-5.7,5080.8,5295.0,-0.6,26.4,4587.0,-423.6,0,2376,1034282909696,232,0, 
1.3233,-42.9,-6.6,-141.0,-78.0,9052.5,-371.7,165.6,9830.1,107222.7,27.0,9830.1,9817.5,105.3,9827.1,9559.2,9830.1,-6.6,-6.0,9830.1,9830.1,-0.3,76.8,4782.9,-433.5,0,2382,1034282909696,233,0, 
1.3267,21.6,-18.3,-117.3,-8.4,-3256.5,-646.8,242.1,2989.2,37642.8,176.4,805.2,732.9,-406.2,4410.3,8935.2,2960.4,-7.2,-6.3,1957.8,2211.6,-0.6,219.0,-3000.6,-491.4,0,2388,1034282909696,234,0, 
1.3300,28.5,-23.7,-111.0,14.1,-9819.9,-797.1,269.4,-9830.1,-61428.9,227.1,-9063.9,-9817.8,-777.6,-9827.4,-8821.2,-9830.1,-6.6,-6.0,-9830.1,-9830.1,-0.6,273.9,-7656.3,-536.7,0,2394,1034282909696,235,0, 
1.3333,-27.9,-25.5,-135.3,-49.5,-3585.9,-623.1,208.2,-9640.8,-55056.3,109.8,-6232.8,-7550.7,-499.2,-9017.4,-7182.9,-9604.5,-6.9,-5.7,-8927.1,-9024.3,-0.6,156.0,-3122.1,-489.6,0,2400,1034282909696,236,0, 
1.3367,-81.3,-18.6,-169.5,-115.8,8427.0,-376.2,138.6,4864.2,47794.5,-25.2,4006.5,4513.5,19.5,6237.3,9627.9,4941.0,-6.6,-5.7,4859.1,5177.1,-0.9,20.1,4428.9,-442.2,0,2406,1034282909696,237,0, 
1.3400,-46.2,-6.3,-156.0,-87.6,9052.5,-372.0,162.3,9830.1,105444.3,24.9,9678.9,9817.5,112.5,9827.1,9714.0,9830.1,-7.2,-6.0,9830.1,9830.1,-0.9,66.6,4769.7,-436.8,0,2412,1034282909696,238,0, 
1.3433,21.3,-9.9,-126.9,-5.4,-3427.2,-649.8,242.4,2715.9,35123.4,175.8,507.9,636.9,-409.8,4209.6,8511.6,2731.2,-7.2,-5.7,1722.6,2016.0,-0.9,222.9,-3068.4,-510.6,0,2418,1034282909696,239,0, 
1.3467,28.5,-20.7,-119.4,11.4,-9819.9,-799.2,267.9,-9830.1,-66393.6,225.6,-9458.1,-9817.8,-775.2,-9827.4,-9228.6,-9830.1,-7.2,-6.0,-9830.1,-9830.1,-0.9,273.0,-7886.1,-542.7,0,2424,1034282909696,240,0, 
1.3500,-38.1,-33.3,-158.4,-65.1,-3321.9,-627.9,198.6,-9519.0,-56167.8,92.7,-6344.7,-7378.2,-486.9,-8729.1,-7129.2,-9461.4,-7.2,-6.3,-8715.0,-8838.9,-0.9,136.2,-2964.6,-510.6,0,2430,1034282909696,241,0, 
1.3533,-92.1,-35.4,-193.2,-136.5,8689.8,-381.3,126.9,5220.0,49498.8,-37.2,4110.6,5027.1,35.4,6714.6,9558.3,5345.1,-6.6,-6.0,5453.7,5594.1,-0.9,5.4,4578.9,-449.1,0,2436,1034282909696,242,0, 
1.3567,-60.6,-27.0,-175.5,-99.3,8977.2,-387.0,151.2,9830.1,103665.9,7.2,9391.8,9817.5,72.9,9827.1,9830.1,9830.1,-6.9,-6.0,9830.1,9830.1,-0.9,55.5,4637.1,-455.7,0,2442,1034282909696,243,0, 
1.3600,8.7,-30.6,-132.3,-20.1,-3541.5,-658.2,234.3,2624.7,33493.2,162.0,221.1,467.7,-433.5,4233.3,8063.4,2658.9,-7.2,-6.0,1623.9,1886.4,-0.6,209.7,-3153.3,-515.4,0,2448,1034282909696,244,0, 
1.3633,22.8,-38.1,-127.2,-0.3,-9819.9,-812.7,262.8,-9830.1,-68616.6,215.7,-9595.2,-9817.8,-810.9,-9827.4,-9398.7,-9830.1,-7.2,-6.3,-9830.1,-9830.1,-0.6,259.2,-8010.6,-548.7,0,2454,1034282909696,245,0, 
1.3667,-40.8,-43.8,-158.4,-73.2,-3837.0,-643.8,199.2,-9548.4,-60762.0,82.5,-6856.2,-7653.3,-529.2,-8848.8,-7701.6,-9487.8,-6.9,-6.6,-8884.5,-8977.2,-0.3,131.7,-3200.1,-504.0,0,2460,1034282909696,246,0, 
1.3700,-96.6,-44.4,-196.2,-144.0,8773.5,-374.7,121.8,5192.1,49202.4,-46.8,4052.4,5010.3,17.1,6657.3,9118.5,5337.6,-7.2,-6.3,5357.4,5505.9,-0.9,-7.2,4772.7,-447.9,0,2466,1034282909696,247,0, 
1.3733,-49.8,-25.2,-173.7,-103.8,8963.7,-379.5,155.7,9830.1,105666.6,7.8,9730.8,9817.5,87.6,9827.1,9830.1,9830.1,-6.9,-5.7,9830.1,9830.1,-0.6,51.6,4788.3,-437.1,0,2472,1034282909696,248,0, 
1.3767,15.9,-27.0,-140.4,-21.0,-3705.0,-659.1,241.2,2501.1,31788.9,171.6,82.8,487.2,-443.1,4184.1,7734.3,2573.1,-7.2,-6.0,1440.6,1710.3,-0.6,222.9,-3307.2,-503.4,0,2478,1034282909696,249,0, 
1.3800,30.9,-33.0,-125.4,2.4,-9819.9,-810.3,270.0,-9830.1,-70987.8,220.2,-9667.2,-9817.8,-817.2,-9827.4,-9536.4,-9830.1,-6.9,-6.0,-9830.1,-9830.1,-0.9,267.6,-8081.4,-537.0,0,2484,1034282909696,250,0, 
1.3833,-35.7,-35.4,-154.5,-73.8,-4033.5,-642.3,200.4,-9772.2,-64022.4,94.8,-6959.7,-7710.3,-542.1,-9029.4,-8010.0,-9720.0,-6.6,-6.0,-9048.6,-9180.6,-0.3,146.7,-3305.7,-489.0,0,2490,1034282909696,251,0, 
1.3867,-90.9,-33.0,-188.4,-140.1,8499.3,-384.0,121.5,4578.9,43867.2,-40.5,3641.4,4642.2,2.4,6257.7,8696.4,4750.5,-6.6,-6.0,4880.1,4928.7,-0.6,1.2,4536.3,-435.0,0,2496,1034282909696,252,0, 
1.3900,-51.6,-24.0,-165.6,-107.7,9230.1,-378.6,147.0,9830.1,105222.0,6.3,9830.1,9817.5,102.3,9827.1,9830.1,9830.1,-6.6,-6.0,9830.1,9830.1,-1.2,50.1,5048.4,-423.9,0,2502,1034282909696,253,0, 
1.3933,24.0,-18.0,-122.1,-13.8,-3339.3,-651.6,240.6,2886.6,33419.1,182.4,459.3,1059.6,-425.4,4396.5,7418.7,2967.0,-6.9,-5.7,1946.1,2103.6,-0.9,223.8,-3173.1,-489.6,0,2508,1034282909696,254,0, 
1.3967,30.0,-35.1,-115.2,2.1,-9819.9,-819.3,265.5,-9830.1,-72840.3,228.0,-9764.7,-9817.8,-813.9,-9827.4,-9732.9,-9830.1,-6.9,-5.7,-9830.1,-9830.1,-0.9,275.4,-8214.9,-528.6,0,2514,1034282909696,255,0, 
1.4000,-41.7,-42.9,-156.3,-73.5,-3674.1,-642.6,194.7,-9667.5,-61725.3,93.0,-6726.3,-7353.9,-521.4,-8862.9,-7884.0,-9595.2,-6.6,-5.4,-8913.6,-9015.0,-0.6,136.2,-3104.7,-493.8,0,2520,1034282909696,0,0, 
1.4033,-90.9,-36.0,-177.3,-134.1,8562.6,-386.4,127.5,4890.3,43570.8,-31.2,3438.9,4671.9,-4.8,6493.5,8658.3,5067.9,-6.6,-5.7,5046.3,5235.6,-0.6,9.6,4410.0,-426.9,0,2526,1034282909696,1,0, 
1.4067,-59.1,-23.4,-162.3,-94.8,9011.7,-396.0,151.2,9830.1,98256.6,15.3,8987.7,9817.5,65.1,9827.1,9830.1,9830.1,-6.9,-5.7,9830.1,9830.1,-0.6,63.0,4537.8,-431.7,0,2532,1034282909696,2,0, 
1.4100,12.0,-23.4,-121.8,-10.2,-3354.9,-660.0,231.3,2689.8,30899.7,165.9,113.1,648.6,-420.3,4243.2,7144.5,2761.5,-6.6,-5.7,1647.0,1932.0,-0.9,216.9,-3038.4,-489.0,0,2538,1034282909696,3,0, 
1.4133,29.4,-25.5,-110.7,15.0,-9819.9,-831.0,267.3,-9830.1,-75433.8,240.6,-9705.9,-9817.8,-809.4,-9827.4,-9531.9,-9830.1,-6.6,-6.0,-9830.1,-9830.1,-0.6,280.8,-8350.8,-536.7,0,2544,1034282909696,4,0, 
1.4167,-37.2,-30.3,-141.6,-53.7,-4476.3,-659.7,201.9,-9789.9,-73284.9,114.3,-7419.9,-8075.7,-549.9,-9262.5,-8859.6,-9735.9,-7.2,-6.0,-9264.0,-9306.3,-0.6,153.3,-3674.4,-492.0,0,2550,1034282909696,5,0, 
1.4200,-91.2,-28.2,-172.5,-127.5,8585.7,-392.7,127.8,4087.2,36827.7,-21.0,3123.3,4186.2,13.5,5636.7,7520.1,4275.0,-6.9,-6.3,4198.8,4479.3,-0.9,14.7,4406.1,-433.5,0,2556,1034282909696,6,0, 
1.4233,-51.6,-17.7,-150.0,-85.2,8574.3,-412.5,157.5,9830.1,90550.2,34.2,8605.5,9817.5,68.4,9827.1,9830.1,9830.1,-7.2,-6.0,9830.1,9830.1,-0.9,65.1,4227.6,-430.5,0,2562,1034282909696,7,0, 
1.4267,19.8,-16.5,-112.2,1.2,-4857.6,-703.2,240.6,304.2,10225.8,193.5,-1940.4,-1899.9,-488.7,1769.4,4152.0,348.6,-6.9,-6.0,-1030.8,-710.7,-0.9,234.0,-4116.9,-501.9,0,2568,1034282909696,8,0, 
1.4300,30.9,-23.4,-108.3,21.3,-9819.9,-862.2,265.5,-9830.1,-97589.7,247.2,-9830.1,-9817.8,-865.5,-9827.4,-9830.1,-9830.1,-7.2,-6.3,-9830.1,-9830.1,-0.9,281.4,-9082.8,-535.2,0,2574,1034282909696,9,0, 
1.4333,-26.4,-25.2,-135.3,-44.1,-5811.0,-702.3,207.0,-9830.1,-99664.5,124.5,-8732.1,-9261.6,-611.1,-9827.4,-9830.1,-9830.1,-6.6,-6.3,-9805.2,-9830.1,-0.3,165.0,-4677.9,-492.6,0,2580,1034821877760,10,0, 
1.4367,-89.4,-24.6,-174.9,-123.6,7371.6,-436.5,128.7,-787.5,741.0,-13.5,344.1,592.5,-89.7,1167.9,2465.7,-516.9,-6.9,-5.7,-191.7,123.6,-0.9,19.5,3104.1,-438.0,0,2586,1034821877760,11,0, 
1.4400,-55.5,-7.8,-156.3,-94.2,8524.2,-429.0,147.0,9830.1,60762.0,31.2,6102.9,8838.6,21.0,9827.1,9830.1,9830.1,-6.9,-6.3,9830.1,9830.1,-0.9,59.4,3677.4,-436.8,0,2592,1034821877760,12,0, 
1.4433,26.7,-7.5,-112.5,0.9,-4889.4,-709.2,240.6,-2761.5,-18154.5,199.2,-3423.0,-3744.0,-517.5,-1278.3,-167.4,-2655.0,-7.2,-5.7,-3671.7,-3271.8,-0.6,237.3,-4656.9,-504.6,0,2598,1034821877760,13,0, 
1.4467,32.4,-24.0,-106.5,18.0,-9819.9,-889.2,261.3,-9830.1,-131157.0,243.9,-9830.1,-9817.8,-922.5,-9827.4,-9830.1,-9830.1,-6.9,-6.0,-9830.1,-9830.1,-0.6,284.4,-9830.1,-549.0,0,2604,1034821877760,14,0, 
1.4500,-42.6,-29.7,-141.3,-64.5,-4513.8,-681.6,189.6,-9830.1,-114929.1,101.4,-8695.8,-9115.5,-576.3,-9827.4,-9830.1,-9830.1,-6.9,-6.0,-9830.1,-9830.1,-0.9,134.4,-3961.8,-495.3,0,2610,36219193966592,15,0, 
1.4533,-85.2,-20.4,-169.8,-123.6,8705.7,-421.2,121.8,917.1,-6150.3,-21.6,948.6,1842.9,-35.7,2289.9,367.8,1131.6,-6.6,-5.7,1506.3,1960.5,-0.3,13.2,3655.2,-444.9,0,2616,36219193966592,16,0, 
1.4567,-52.2,-13.5,-155.7,-89.1,8434.5,-442.8,148.8,9830.1,45942.0,29.4,5458.8,8182.2,-1.5,9827.1,9830.1,9830.1,-7.2,-5.4,9830.1,9830.1,-0.9,61.8,3363.3,-444.3,0,2622,36219193966592,17,0, 
1.4600,15.3,-17.7,-118.8,-12.3,-4185.0,-702.6,228.3,-2226.0,-23860.2,176.1,-3049.8,-3081.0,-489.6,-1101.6,-3375.3,-2121.0,-6.6,-5.7,-3175.2,-2663.7,-0.3,220.8,-4043.4,-507.6,0,2628,36219193966592,18,0, 
1.4633,30.3,-29.4,-113.7,12.9,-9819.9,-879.6,267.6,-9830.1,-135677.1,240.9,-9830.1,-9817.8,-918.0,-9827.4,-9830.1,-9830.1,-7.5,-6.0,-9830.1,-9830.1,-0.6,279.9,-9771.6,-544.5,0,2634,36219193966592,19,0, 
1.4667,-45.0,-35.7,-146.1,-67.5,-4542.6,-687.3,192.3,-9830.1,-129897.3,97.5,-8687.1,-9057.0,-605.4,-9827.4,-9830.1,-9830.1,-6.9,-5.4,-9830.1,-9830.1,-1.2,135.9,-4455.9,-489.9,0,2640,36219193966592,20,0, 
1.4700,-96.3,-29.7,-175.5,-136.5,9037.2,-392.4,117.9,1556.1,-9484.8,-40.5,1690.2,3122.1,6.0,2518.8,-2331.3,1710.6,-6.9,-6.0,2761.2,2950.8,-0.9,-6.0,4311.0,-417.6,0,2646,36219193966592,21,0, 
1.4733,-49.2,-8.1,-148.8,-90.3,8328.9,-423.6,154.8,9830.1,45126.9,27.6,6592.5,9817.5,15.0,9827.1,9830.1,9830.1,-7.2,-6.0,9830.1,9830.1,-0.6,60.9,3668.1,-427.5,0,2652,36219193966592,22,0, 
1.4767,15.3,-16.8,-109.8,-7.2,-4428.0,-702.0,236.7,-2186.7,-34086.0,182.4,-2979.3,-3045.6,-501.0,-1344.9,-7114.2,-2103.6,-6.9,-6.0,-2862.9,-2337.9,-0.9,222.0,-4399.2,-499.2,0,2658,36219193966592,23,0, 
1.4800,18.0,-30.0,-109.2,6.6,-9819.9,-851.4,254.1,-9830.1,-135232.5,226.8,-9830.1,-9817.8,-873.6,-9827.4,-9830.1,-9830.1,-6.9,-6.3,-9830.1,-9830.1,-0.9,261.6,-9057.3,-540.6,0,2664,36219193966592,24,0, 
1.4833,-45.0,-33.6,-149.4,-66.6,-4521.9,-681.0,191.7,-9830.1,-129452.7,99.9,-8591.1,-9208.2,-593.4,-9827.4,-9830.1,-9830.1,-6.6,-6.0,-9830.1,-9830.1,-0.9,140.7,-4281.0,-495.6,0,2670,36219193966592,25,0, 
1.4867,-105.0,-39.3,-190.2,-145.8,8342.1,-400.8,119.4,1731.0,-17339.4,-37.8,1961.7,3228.3,-26.7,2222.4,-4201.8,1831.2,-6.6,-6.0,2732.4,3038.4,-0.9,2.4,4025.1,-430.5,0,2676,36219193966592,26,0, 
1.4900,-66.6,-23.1,-165.6,-106.5,9233.1,-396.3,144.6,9830.1,49572.9,8.7,7930.2,9817.5,72.0,9827.1,9830.1,9830.1,-7.2,-6.0,9830.1,9830.1,-1.2,45.3,4485.0,-434.4,0,2682,36219193966592,27,0, 
1.4933,12.9,-21.0,-117.9,-7.5,-3885.9,-704.7,241.2,257.4,-30529.2,188.1,-1955.1,-1352.4,-504.9,306.0,-6596.1,190.5,-6.9,-5.7,-747.0,-239.1,-0.6,224.1,-4272.3,-503.1,0,2688,36219193966592,28,0, 
1.4967,17.1,-32.7,-111.0,3.0,-9819.9,-869.4,258.6,-9830.1,-140715.9,225.3,-9830.1,-9817.8,-900.9,-9827.4,-9830.1,-9830.1,-6.9,-5.7,-9830.1,-9830.1,-0.6,265.2,-9342.9,-541.8,0,2694,36219193966592,29,0, 
1.5000,-61.2,-44.4,-142.5,-81.6,-3596.7,-669.0,176.7,-9830.1,-122561.4,72.6,-7659.6,-8071.2,-571.5,-9827.4,-9830.1,-9830.1,-6.6,-6.3,-9368.7,-9418.2,-0.3,109.8,-3525.3,-504.6,0,2700,36219193966592,30,0, 
1.5033,-114.6,-53.7,-182.4,-157.2,8938.2,-420.6,101.4,3998.7,-12671.1,-52.5,2835.6,4422.9,-36.6,4131.6,-4637.1,4102.5,-6.9,-6.0,4658.1,4872.9,-0.9,-13.8,4080.9,-452.1,0,2706,36219193966592,31,0, 
1.5067,-82.5,-48.9,-172.5,-128.4,9180.3,-428.1,123.3,9830.1,45942.0,-2.7,7742.7,9817.5,19.8,9827.1,9830.1,9830.1,-6.9,-6.3,9830.1,9830.1,-0.9,33.6,4195.2,-448.2,0,2712,36219193966592,32,0, 
1.5100,-3.6,-43.8,-124.2,-42.0,-3265.5,-694.2,215.4,1713.9,-22155.9,158.7,-664.5,0.9,-465.9,1561.5,-6490.5,1711.5,-6.9,-5.7,787.5,1294.5,-0.9,196.8,-3460.8,-505.5,0,2718,36219193966592,33,0, 
1.5133,6.0,-57.6,-118.8,-14.7,-9819.9,-887.7,246.6,-9830.1,-134121.0,222.3,-9830.1,-9817.8,-911.4,-9827.4,-9773.1,-9830.1,-7.2,-6.0,-9830.1,-9830.1,-0.3,266.4,-9266.1,-561.3,0,2724,36219193966592,34,0, 
1.5167,-58.2,-57.6,-151.8,-96.6,-3895.8,-686.7,178.2,-9750.0,-125599.5,77.7,-7658.4,-7940.7,-588.6,-9625.5,-9830.1,-9706.2,-6.9,-6.0,-9032.1,-9025.5,-0.6,124.2,-3828.9,-507.3,0,2730,36219193966592,35,0, 
1.5200,-114.9,-51.9,-183.0,-171.9,9255.0,-393.6,102.6,4772.1,-3186.3,-57.0,4063.5,5415.9,6.0,4665.9,-2862.3,4883.7,-6.6,-6.0,5327.7,5652.9,-0.6,-25.5,4887.9,-434.7,0,2736,36219193966592,36,0, 
1.5233,-65.4,-34.8,-159.0,-122.4,8517.6,-420.9,136.2,9830.1,52462.8,8.4,8972.4,9817.5,43.8,9827.1,9830.1,9830.1,-7.2,-6.3,9830.1,9830.1,-0.6,48.0,4319.7,-441.0,0,2742,36219193966592,37,0, 
1.5267,4.5,-38.7,-123.3,-39.3,-3684.0,-704.1,222.0,2426.4,-23712.0,171.0,-586.8,114.0,-490.2,1730.1,-7049.1,2377.2,-7.2,-5.4,1065.6,1591.5,-0.9,212.4,-3711.6,-510.6,0,2748,36219193966592,38,0, 
1.5300,18.6,-32.7,-112.5,-17.7,-9819.9,-846.0,251.4,-9830.1,-122413.2,224.4,-9662.7,-9817.8,-833.7,-9827.4,-9462.6,-9830.1,-6.6,-5.7,-9830.1,-9830.1,-0.6,263.7,-8324.4,-536.4,0,2754,36219193966592,39,0, 
1.5333,-44.1,-38.4,-142.2,-86.7,-3925.2,-676.5,189.0,-9644.7,-115299.6,100.2,-7116.6,-7781.4,-567.9,-9657.9,-9830.1,-9623.4,-7.2,-5.7,-9074.1,-9073.5,-0.9,136.2,-3623.7,-495.6,0,2760,36219193966592,40,0, 
1.5367,-106.8,-37.8,-174.3,-160.2,8557.8,-393.6,108.6,5059.5,148.2,-37.8,4319.7,5574.9,17.1,4709.7,-1739.4,5121.6,-6.9,-6.3,5455.8,5763.9,-0.9,-6.3,4798.2,-430.5,0,2766,36219193966592,41,0, 
1.5400,-61.2,-20.1,-148.2,-120.6,9543.6,-387.0,135.9,9830.1,69061.2,19.5,9830.1,9817.5,125.1,9827.1,9830.1,9830.1,-7.5,-6.3,9830.1,9830.1,-0.6,46.2,5432.4,-423.6,0,2772,36219193966592,42,0, 
1.5433,19.8,-17.7,-107.1,-16.5,-3329.4,-698.1,229.5,3303.3,-9484.8,186.6,1006.8,1903.5,-460.2,2712.6,-3045.0,3244.2,-6.9,-6.0,2580.6,3024.9,-1.2,225.3,-3513.9,-496.8,0,2778,36219193966592,43,0, 
1.5467,34.8,-28.2,-88.5,9.6,-9819.9,-852.9,259.8,-9830.1,-117448.5,244.2,-9830.1,-9817.8,-837.9,-9827.4,-9830.1,-9830.1,-6.6,-5.7,-9830.1,-9830.1,-0.6,278.4,-8490.3,-525.6,0,2784,36219193966592,44,0, 
1.5500,-40.8,-34.5,-136.8,-81.9,-3126.9,-651.3,183.0,-8932.5,-99219.9,98.7,-5896.5,-6396.3,-515.7,-8999.4,-9830.1,-8921.7,-6.6,-6.6,-7967.4,-7958.7,-0.9,131.1,-2838.0,-485.7,0,2790,36219193966592,45,0, 
1.5533,-94.8,-32.1,-167.1,-145.5,9015.0,-406.2,109.5,6844.5,10596.3,-25.8,4949.1,6457.5,16.2,6336.3,654.0,6802.8,-6.6,-6.0,6933.3,7230.6,-0.6,7.2,4746.0,-429.3,0,2796,36219193966592,46,0, 
1.5567,-64.2,-26.1,-148.8,-116.1,9365.7,-411.0,130.8,9830.1,70691.4,18.3,9830.1,9817.5,96.0,9827.1,9830.1,9830.1,-7.5,-6.0,9830.1,9830.1,-1.2,57.3,5051.4,-435.9,0,2802,36219193966592,47,0, 
1.5600,9.9,-21.9,-113.7,-25.5,-2771.1,-687.3,214.5,5062.5,3408.6,183.0,1991.1,2836.2,-417.9,4134.0,-904.2,4880.4,-6.3,-5.7,3830.4,4338.6,-0.6,216.9,-2834.4,-497.1,0,2808,36219193966592,48,0, 
1.5633,28.2,-29.4,-98.7,5.7,-9819.9,-869.1,252.9,-9830.1,-108260.1,250.2,-9286.2,-9817.8,-845.1,-9827.4,-9830.1,-9830.1,-7.2,-6.3,-9830.1,-9830.1,-0.6,285.0,-8597.1,-540.0,0,2814,36219193966592,49,0, 
1.5667,-43.8,-32.7,-130.2,-76.5,-3512.7,-678.3,181.8,-8804.4,-98775.3,108.9,-6243.9,-6679.5,-534.0,-8929.5,-9830.1,-8789.7,-6.9,-6.0,-7903.8,-7970.4,-0.3,143.1,-3208.5,-489.3,0,2820,36219193966592,50,0, 
1.5700,-102.3,-28.5,-169.2,-153.6,9241.5,-397.8,103.8,7073.4,23637.9,-40.2,5741.4,6652.2,62.1,6469.2,2537.4,7053.6,-6.9,-6.0,7117.5,7363.5,-1.2,0.6,5489.1,-427.5,0,2826,36219193966592,51,0, 
1.5733,-59.4,-16.5,-149.1,-104.7,8710.5,-420.6,138.0,9830.1,79287.0,24.0,9830.1,9817.5,98.4,9827.1,9830.1,9830.1,-6.6,-5.4,9830.1,9830.1,-0.9,59.1,5021.1,-430.8,0,2832,36219193966592,52,0, 
1.5767,4.2,-21.0,-114.6,-18.6,-3384.0,-703.8,217.5,5128.8,4742.4,181.5,1648.2,2247.9,-437.4,4140.9,493.2,4956.0,-7.2,-5.7,3590.7,4062.0,-0.6,219.3,-3159.3,-503.7,0,2838,36219193966592,53,0, 
1.5800,18.6,-22.8,-99.6,0.9,-9819.9,-851.4,247.8,-9830.1,-95218.5,227.1,-8784.3,-9817.8,-803.7,-9827.4,-9830.1,-9830.1,-7.2,-6.0,-9830.1,-9830.1,-0.6,268.8,-7859.1,-527.4,0,2844,36219193966592,54,0, 
1.5833,-41.4,-30.6,-132.9,-68.1,-4077.6,-692.7,183.6,-9159.9,-90624.3,105.6,-6125.4,-7133.4,-561.6,-9241.8,-9830.1,-9145.2,-6.9,-6.0,-8508.3,-8502.3,-0.6,145.2,-3353.7,-495.3,0,2850,36219193966592,55,0, 
1.5867,-96.9,-24.3,-169.8,-144.0,8445.3,-399.6,110.1,6303.3,23489.7,-33.6,5229.6,6025.8,21.6,5657.4,2907.9,6263.7,-6.6,-6.0,6299.4,6583.2,-0.9,-2.7,5097.6,-426.3,0,2856,36219193966592,56,0, 
1.5900,-58.8,-13.5,-150.6,-109.2,9562.5,-393.9,131.7,9830.1,91439.4,18.6,9830.1,9817.5,133.5,9827.1,9830.1,9830.1,-7.2,-5.4,9830.1,9830.1,-0.9,52.8,5724.6,-424.8,0,2862,36219193966592,57,0, 
1.5933,21.3,-13.2,-107.4,-14.1,-3536.4,-709.5,232.5,4251.9,11411.4,195.0,2023.5,2381.1,-461.7,3308.1,1511.7,4068.9,-7.2,-5.7,3328.5,3619.5,-0.6,230.1,-3337.5,-500.7,0,2868,36219193966592,58,0, 
1.5967,32.1,-18.0,-93.0,6.6,-9819.9,-860.7,261.3,-9830.1,-96478.2,233.1,-9455.1,-9817.8,-839.4,-9827.4,-9830.1,-9830.1,-6.6,-5.7,-9830.1,-9830.1,-0.6,275.1,-8232.9,-530.1,0,2874,36219193966592,59,0, 
1.6000,-36.6,-21.0,-130.5,-68.4,-3374.7,-656.1,187.5,-8673.3,-80102.1,102.3,-5269.2,-6268.2,-512.7,-8847.9,-9772.2,-8662.8,-6.6,-6.0,-7684.5,-7740.3,-0.6,138.0,-2718.3,-481.5,0,2880,36219193966592,60,0, 
1.6033,-93.6,-27.9,-170.7,-139.8,8868.9,-417.3,112.5,7279.8,28454.4,-29.7,5196.6,6274.8,14.1,6599.4,5189.1,7241.7,-6.6,-5.7,7167.0,7437.9,-0.9,9.3,4819.5,-432.9,0,2886,36219193966592,61,0, 
1.6067,-54.9,-6.3,-153.0,-105.9,9376.5,-402.6,139.8,9830.1,89068.2,18.6,9830.1,9817.5,106.8,9827.1,9830.1,9830.1,-7.2,-5.7,9830.1,9830.1,-0.6,53.1,5303.7,-421.5,0,2892,36219193966592,62,0, 
1.6100,23.1,-9.9,-107.7,-11.7,-2936.7,-678.0,227.7,5445.0,21118.5,178.5,2362.8,2954.4,-416.1,4404.0,3735.3,5274.3,-7.5,-6.0,4117.8,4523.1,-0.6,220.2,-2712.3,-489.9,0,2898,36219193966592,63,0, 
1.6133,36.9,-18.9,-97.5,17.1,-9819.9,-863.7,264.3,-9830.1,-92254.5,245.7,-9214.2,-9817.8,-853.5,-9827.4,-9830.1,-9830.1,-6.6,-5.4,-9830.1,-9830.1,-0.6,285.0,-8507.4,-534.6,0,2904,36219193966592,64,0, 
1.6167,-44.7,-34.8,-144.6,-75.3,-3718.2,-676.2,183.6,-8844.9,-83510.7,94.5,-6018.0,-6598.2,-545.1,-8962.5,-9462.0,-8834.7,-6.9,-6.0,-7941.0,-8013.6,-0.6,130.8,-3134.4,-503.1,0,2910,36219193966592,65,0, 
1.6200,-101.4,-34.2,-174.0,-150.9,9078.9,-391.2,105.3,7005.9,37346.4,-45.6,5648.4,6395.4,53.4,6368.4,5707.5,6948.9,-6.6,-6.0,6949.5,7182.6,-0.9,-15.0,5454.3,-437.7,0,2916,36219193966592,66,0, 
1.6233,-59.7,-18.0,-146.4,-105.6,8680.5,-416.1,142.2,9830.1,91958.1,16.5,9830.1,9817.5,78.9,9827.1,9830.1,9830.1,-6.9,-6.3,9830.1,9830.1,-0.9,49.2,5045.4,-444.6,0,2922,36219193966592,67,0, 
1.6267,7.8,-25.2,-112.5,-22.5,-3614.1,-701.1,220.2,4805.4,17117.1,172.5,1601.1,2052.0,-460.8,3869.4,3932.1,4639.2,-6.9,-6.0,3370.8,3883.5,-1.2,213.3,-3127.5,-518.7,0,2928,36219193966592,68,0, 
1.6300,16.5,-29.1,-108.6,-4.5,-9819.9,-855.3,241.8,-9830.1,-84325.8,219.0,-8951.7,-9817.8,-830.7,-9827.4,-9830.1,-9830.1,-6.9,-5.7,-9830.1,-9830.1,-0.9,256.8,-7897.2,-557.7,0,2934,36219193966592,69,0, 
1.6333,-44.1,-35.7,-142.8,-75.0,-4482.3,-686.1,182.4,-9369.3,-81584.1,94.2,-6329.4,-7335.3,-577.2,-9423.0,-9578.4,-9346.5,-7.2,-5.4,-8706.3,-8712.9,-1.2,134.7,-3459.9,-509.4,0,2940,36219193966592,70,0, 
1.6367,-105.0,-33.6,-174.3,-154.5,8362.5,-397.2,100.2,5724.9,32455.8,-46.2,4962.0,5704.8,10.8,5112.0,5225.4,5745.6,-6.9,-5.7,5857.8,6056.4,-0.3,-12.6,5063.1,-451.5,0,2946,36219193966592,71,0, 
1.6400,-71.1,-23.4,-156.0,-116.4,9485.4,-394.8,123.3,9830.1,99664.5,7.8,9830.1,9817.5,118.8,9827.1,9830.1,9830.1,-6.9,-6.3,9830.1,9830.1,-1.2,40.8,5671.8,-445.8,0,2952,36219193966592,72,0, 
1.6433,9.6,-31.5,-109.2,-21.3,-3880.8,-710.7,217.8,3474.0,18673.2,185.1,1515.3,1874.4,-474.0,2640.9,3536.1,3367.8,-7.2,-5.7,2547.3,2818.8,-0.3,224.1,-3451.2,-518.1,0,2958,36219193966592,73,0, 
1.6467,16.5,-37.5,-104.4,-8.1,-9819.9,-863.7,240.3,-9830.1,-89586.9,222.3,-9759.6,-9817.8,-849.0,-9827.4,-9830.1,-9830.1,-7.2,-6.0,-9830.1,-9830.1,-0.6,267.3,-8314.5,-553.8,0,2964,36219193966592,74,0, 
1.6500,-52.2,-33.0,-138.3,-87.0,-3725.7,-670.2,169.5,-9102.3,-74470.5,87.0,-5615.4,-6597.0,-526.2,-9167.1,-9151.8,-9086.4,-6.6,-6.0,-8140.8,-8217.9,0.0,125.1,-2896.2,-511.5,0,2970,36219193966592,75,0, 
1.6533,-101.7,-36.6,-172.2,-153.6,8599.5,-420.9,98.7,6539.7,32826.3,-36.9,4876.8,5741.1,3.3,6020.7,6563.1,6517.2,-6.9,-6.0,6564.0,6808.5,-0.6,-0.6,4653.6,-454.2,0,2976,36219193966592,76,0, 
1.6567,-69.6,-21.0,-154.5,-118.8,9358.8,-408.6,127.8,9830.1,94329.3,7.8,9830.1,9817.5,95.4,9827.1,9830.1,9830.1,-7.2,-6.0,9830.1,9830.1,-0.6,49.5,5263.8,-448.5,0,2982,36219193966592,77,0, 
1.6600,2.7,-24.9,-122.1,-31.8,-3184.5,-695.4,207.3,4611.3,25786.8,169.2,2046.9,2243.7,-425.7,3803.1,5169.9,4469.1,-6.9,-5.7,3344.1,3668.4,-0.6,209.4,-2844.3,-518.4,0,2988,36219193966592,78,0, 
1.6633,17.4,-32.4,-108.3,-4.8,-9819.9,-888.9,245.1,-9830.1,-89142.3,234.3,-9423.9,-9817.8,-869.4,-9827.4,-9830.1,-9830.1,-6.6,-5.7,-9830.1,-9830.1,-0.9,277.5,-8667.6,-556.2,0,2994,36219193966592,79,0, 
1.6667,-55.5,-42.3,-148.8,-90.9,-3972.3,-695.4,169.8,-9228.6,-80546.7,86.4,-6310.8,-6948.3,-557.1,-9228.9,-9120.6,-9185.1,-6.6,-5.7,-8439.9,-8441.7,-0.6,132.9,-3233.4,-507.3,0,3000,36219193966592,80,0, 
1.6700,-109.8,-44.4,-187.2,-163.5,8952.0,-410.1,98.4,6175.8,39347.1,-52.5,5242.8,5885.1,35.7,5800.2,6586.8,6224.1,-6.9,-6.3,6172.2,6507.0,-0.9,-15.0,5280.6,-440.1,0,3006,36219193966592,81,0, 
1.6733,-65.7,-30.0,-163.5,-117.0,8617.2,-436.5,134.7,9830.1,93366.0,17.7,9830.1,9817.5,70.2,9827.1,9830.1,9830.1,-6.9,-6.0,9830.1,9830.1,-1.2,54.9,4828.2,-444.6,0,3012,36219193966592,82,0, 
1.6767,7.2,-33.6,-122.4,-35.1,-3800.4,-706.8,216.9,3891.6,18895.5,176.1,983.4,1316.1,-450.3,3306.6,4796.7,3824.4,-7.5,-5.7,2437.5,3020.1,-0.9,214.8,-3242.1,-515.1,0,3018,36219193966592,83,0, 
1.6800,18.9,-40.2,-111.9,-11.4,-9819.9,-872.1,246.9,-9830.1,-84029.4,225.9,-9369.0,-9817.8,-829.8,-9827.4,-9830.1,-9830.1,-6.9,-6.0,-9830.1,-9830.1,-0.3,270.3,-8117.7,-548.1,0,3024,36219193966592,84,0, 
1.6833,-46.5,-50.1,-150.6,-87.0,-4868.1,-715.5,180.9,-9655.8,-83436.6,102.0,-7023.0,-8075.1,-594.3,-9591.0,-9528.0,-9621.6,-6.9,-6.0,-9106.2,-9077.4,-0.6,143.7,-3733.5,-519.9,0,3030,36219193966592,85,0, 
1.6867,-108.9,-44.1,-189.0,-162.6,8374.5,-428.7,100.8,4692.6,30825.6,-44.1,4336.2,4953.9,-2.7,4580.4,5382.6,4763.7,-6.9,-6.0,4959.9,5335.8,-0.3,-4.2,4835.4,-450.0,0,3036,36219193966592,86,0, 
1.6900,-72.0,-33.3,-168.6,-128.7,9336.6,-425.4,129.0,9830.1,96922.8,10.2,9830.1,9817.5,105.0,9827.1,9830.1,9830.1,-7.2,-5.7,9830.1,9830.1,-0.9,40.5,5360.1,-447.3,0,3042,36219193966592,87,0, 
1.6933,7.2,-35.4,-126.3,-30.6,-4143.6,-746.4,221.1,2282.7,14597.7,180.6,570.0,697.8,-490.5,1764.9,3313.5,2140.5,-7.2,-6.0,1202.4,1715.1,-0.9,215.4,-3733.5,-525.3,0,3048,36219193966592,88,0, 
1.6967,13.8,-44.7,-121.2,-18.0,-9819.9,-893.4,244.8,-9830.1,-94181.1,222.9,-9830.1,-9817.8,-868.2,-9827.4,-9830.1,-9830.1,-6.9,-6.3,-9830.1,-9830.1,-0.6,255.3,-8594.1,-557.4,0,3054,36219193966592,89,0, 
1.7000,-48.9,-47.4,-156.6,-98.7,-4079.7,-705.0,174.6,-9642.9,-81658.2,81.3,-6430.2,-7352.1,-561.6,-9583.8,-9475.5,-9608.7,-6.9,-6.0,-8831.4,-8873.7,-0.9,122.7,-3225.0,-510.6,0,3060,36219193966592,90,0, 
1.7033,-102.3,-48.3,-191.1,-167.1,8300.1,-450.6,112.5,5160.6,24008.4,-50.4,3650.7,4472.7,-35.4,4757.4,5742.0,5237.7,-6.9,-5.7,4886.7,5354.7,-0.9,-14.7,4266.6,-454.8,0,3066,36219193966592,91,0, 
1.7067,-67.8,-40.8,-176.7,-139.5,9199.5,-444.3,130.2,9830.1,85289.1,-19.2,9708.3,9817.5,62.4,9827.1,9830.1,9830.1,-6.6,-6.3,9830.1,9830.1,-0.3,13.5,4844.4,-457.8,0,3072,36219193966592,92,0, 
1.7100,7.8,-39.6,-130.8,-45.9,-3648.3,-729.9,213.0,2942.1,15264.6,148.5,490.8,749.7,-454.5,2421.0,3726.9,2881.8,-7.2,-6.3,1654.5,2146.2,-0.9,182.7,-3204.3,-522.6,0,3078,36219193966592,93,0, 
1.7133,27.3,-48.9,-114.3,-12.0,-9819.9,-923.1,250.2,-9830.1,-101961.6,225.3,-9786.0,-9817.8,-899.1,-9827.4,-9830.1,-9830.1,-6.9,-5.7,-9830.1,-9830.1,-0.6,275.1,-9161.1,-559.5,0,3084,36219193966592,94,0, 
1.7167,-43.5,-48.9,-153.3,-86.7,-4454.4,-723.3,177.3,-9774.0,-94922.1,84.0,-7297.8,-7986.3,-585.3,-9717.9,-9774.3,-9744.3,-6.9,-5.7,-9123.0,-9127.2,-0.6,131.1,-3685.5,-513.3,0,3090,36219193966592,95,0, 
1.7200,-99.9,-48.6,-187.5,-159.6,8748.0,-437.7,100.8,4362.3,22896.9,-58.5,4041.9,4789.2,-12.0,4160.7,4431.3,4420.5,-6.6,-6.0,4664.7,5085.3,-0.6,-16.2,4728.3,-452.4,0,3096,36219193966592,96,0, 
1.7233,-58.8,-32.1,-162.9,-117.6,8343.3,-464.4,132.6,9830.1,75582.0,6.3,8874.3,9817.5,24.3,9827.1,9830.1,9830.1,-6.9,-6.0,9830.1,9830.1,-0.9,51.9,4273.8,-455.4,0,3102,36219193966592,97,0, 
1.7267,6.0,-32.1,-123.9,-34.2,-4151.1,-744.6,210.9,1784.4,1333.8,164.7,-640.8,-489.0,-486.0,1357.5,1822.5,1694.4,-6.9,-5.7,199.8,1062.6,-0.6,209.1,-3602.1,-521.4,0,3108,36219193966592,98,0, 
1.7300,19.5,-43.2,-112.5,-6.0,-9819.9,-907.5,246.3,-9830.1,-104184.6,217.8,-9764.7,-9817.8,-881.7,-9827.4,-9830.1,-9830.1,-6.9,-6.3,-9830.1,-9830.1,-0.6,266.1,-8700.6,-553.2,0,3114,36219193966592,99,0, 
1.7333,-42.0,-42.9,-147.9,-72.0,-5370.3,-737.1,182.4,-9830.1,-105666.6,105.6,-8163.0,-8772.9,-620.1,-9827.4,-9830.1,-9830.1,-6.3,-5.7,-9666.9,-9647.4,-0.6,154.2,-4252.2,-512.4,0,3120,36219193966592,100,0, 
1.7367,-99.3,-38.1,-181.8,-145.8,8319.0,-442.2,106.5,2929.8,8151.0,-45.0,2939.4,3732.0,-29.7,2826.9,2123.4,2992.2,-6.9,-6.0,3335.4,3681.0,-0.6,3.3,4357.2,-448.5,0,3126,36219193966592,101,0, 
1.7400,-60.0,-21.6,-159.9,-111.0,9158.4,-437.1,135.6,9830.1,73877.7,0.6,9384.6,9817.5,65.1,9827.1,9830.1,9830.1,-6.6,-5.7,9830.1,9830.1,-0.6,59.4,4750.8,-435.9,0,3132,36219193966592,102,0, 
1.7433,18.3,-27.0,-122.1,-15.3,-4468.2,-739.5,231.6,106.2,-8521.5,174.3,-1117.2,-978.3,-517.8,-179.1,-771.3,83.1,-6.9,-6.3,-561.3,-81.9,-0.3,240.0,-4141.2,-506.4,0,3138,36219193966592,103,0, 
1.7467,24.9,-34.8,-116.7,1.2,-9819.9,-897.6,253.5,-9830.1,-117448.5,223.2,-9830.1,-9817.8,-885.9,-9827.4,-9830.1,-9830.1,-6.9,-6.0,-9830.1,-9830.1,-0.6,287.1,-9041.4,-542.4,0,3144,36219193966592,104,0, 
1.7500,-37.2,-34.8,-150.0,-74.4,-4495.5,-707.1,183.9,-9830.1,-106407.6,93.0,-7500.0,-8163.9,-580.5,-9827.4,-9830.1,-9830.1,-6.9,-6.0,-9448.8,-9442.8,-0.9,150.9,-3743.4,-492.3,0,3150,36219193966592,105,0, 
1.7533,-87.0,-28.2,-179.1,-140.1,8112.3,-457.8,113.7,2979.0,-963.3,-35.4,2524.5,3534.9,-53.4,2499.9,-168.6,3018.3,-6.9,-5.7,3297.3,3906.6,-0.6,18.3,3839.4,-438.6,0,3156,36219193966592,106,0, 
1.7567,-62.1,-25.2,-165.3,-121.2,9165.0,-450.0,131.4,9830.1,62095.8,-1.2,8415.9,9817.5,50.1,9827.1,9830.1,9830.1,-6.6,-6.3,9830.1,9830.1,-0.9,55.5,4471.8,-438.3,0,3162,36219193966592,107,0, 
1.7600,12.6,-24.3,-129.9,-33.6,-3711.6,-735.9,214.5,1410.6,-7558.2,165.3,-654.9,-243.6,-457.8,825.6,-1261.8,1361.1,-6.9,-6.0,365.1,940.8,-0.9,224.4,-3488.4,-505.5,0,3168,36219193966592,108,0, 
1.7633,29.7,-39.0,-120.6,-6.0,-9819.9,-936.6,253.2,-9830.1,-125229.0,225.6,-9830.1,-9817.8,-924.0,-9827.4,-9830.1,-9830.1,-6.9,-6.0,-9830.1,-9830.1,-0.6,289.8,-9558.9,-553.2,0,3174,36219193966592,109,0, 
1.7667,-45.0,-43.2,-162.0,-92.4,-4486.8,-734.1,180.3,-9830.1,-117448.5,82.2,-7914.9,-8368.2,-602.1,-9827.4,-9830.1,-9830.1,-6.6,-6.3,-9481.8,-9520.2,-0.9,139.5,-4003.8,-497.4,0,3180,36219193966592,110,0, 
1.7700,-99.9,-40.2,-197.4,-159.0,8746.2,-454.2,105.3,3386.1,296.4,-50.7,3239.4,4512.6,-13.2,2975.4,-520.5,3420.9,-7.2,-6.3,4012.5,4274.1,-0.9,6.6,4442.7,-427.8,0,3186,36219193966592,111,0, 
1.7733,-58.5,-33.3,-180.9,-126.3,8437.2,-486.9,132.3,9830.1,54611.7,4.5,7868.4,9817.5,19.5,9827.1,9830.1,9830.1,-6.9,-6.0,9830.1,9830.1,-1.2,61.5,3998.7,-439.5,0,3192,36219193966592,112,0, 
1.7767,4.2,-37.5,-140.7,-37.5,-3894.3,-744.6,217.2,1112.1,-17635.8,166.5,-1146.6,-466.2,-483.9,369.9,-3061.5,1063.5,-7.2,-5.4,-167.4,543.0,-0.6,224.7,-3690.6,-493.8,0,3198,36219193966592,113,0, 
1.7800,17.4,-42.9,-130.5,-14.1,-9819.9,-916.8,249.6,-9830.1,-123524.7,213.9,-9830.1,-9817.8,-884.7,-9827.4,-9830.1,-9830.1,-6.6,-5.4,-9830.1,-9830.1,-0.9,274.8,-8931.3,-532.5,0,3204,36219193966592,114,0, 
1.7833,-42.6,-42.3,-152.4,-79.5,-5364.3,-747.6,186.0,-9830.1,-124932.6,89.1,-8404.2,-8796.6,-627.9,-9827.4,-9830.1,-9830.1,-7.2,-5.7,-9747.9,-9714.9,-0.6,152.4,-4507.8,-495.9,0,3210,36219193966592,115,0, 
1.7867,-105.3,-42.6,-194.4,-163.2,8388.9,-458.1,99.0,2880.3,-9262.5,-58.2,2676.6,4070.4,-34.5,2255.1,-2238.3,2895.6,-6.6,-6.3,3355.5,3774.3,-1.2,-7.8,4254.3,-435.3,0,3216,36219193966592,116,0, 
1.7900,-68.1,-30.6,-178.2,-123.6,9195.9,-457.8,128.1,9830.1,56834.7,-7.2,8909.7,9817.5,60.9,9827.1,9830.1,9830.1,-7.2,-6.3,9830.1,9830.1,-0.9,52.5,4614.6,-437.4,0,3222,36219193966592,117,0, 
1.7933,8.7,-33.6,-134.4,-29.4,-4299.6,-763.2,225.3,143.7,-24453.0,164.1,-1277.4,-734.1,-512.7,-693.0,-4420.2,49.8,-6.9,-5.7,-575.4,-64.2,-0.6,229.5,-4145.1,-507.6,0,3228,36219193966592,118,0, 
1.7967,23.4,-36.9,-114.0,-5.1,-9819.9,-911.7,251.1,-9830.1,-132046.2,219.3,-9830.1,-9817.8,-894.3,-9827.4,-9830.1,-9830.1,-6.9,-5.7,-9830.1,-9830.1,-0.9,276.6,-9064.2,-537.9,0,3234,36219193966592,119,0, 
1.8000,-44.7,-42.6,-159.3,-91.5,-4448.1,-736.5,178.5,-9830.1,-121524.0,81.9,-7629.3,-8076.0,-596.7,-9827.4,-9830.1,-9830.1,-7.2,-5.7,-9462.3,-9469.5,-0.9,138.3,-3861.6,-504.6,0,3240,36219193966592,120,0, 
1.8033,-101.4,-42.6,-193.2,-164.4,8131.8,-487.2,100.8,2990.4,-15412.8,-51.0,2595.9,4120.5,-64.8,2084.1,-4511.4,3054.3,-6.6,-6.0,3474.6,4047.0,-0.9,6.9,3808.2,-452.1,0,3246,36219193966592,121,0, 
1.8067,-72.6,-39.3,-182.7,-144.6,9267.6,-477.6,120.0,9830.1,49721.1,-22.5,8497.8,9817.5,32.1,9827.1,9830.1,9830.1,-7.2,-6.0,9830.1,9830.1,-0.9,32.4,4507.8,-452.7,0,3252,36219193966592,122,0, 
1.8100,7.2,-35.1,-134.4,-51.0,-3481.5,-756.6,210.9,1852.2,-19784.7,146.1,-286.8,590.7,-492.6,755.1,-4782.6,1788.3,-7.2,-5.7,843.6,1389.9,-0.9,202.8,-3470.4,-522.6,0,3258,36219193966592,123,0, 
1.8133,15.9,-62.1,-137.4,-28.2,-9819.9,-960.3,241.8,-9830.1,-137159.1,208.2,-9830.1,-9817.8,-952.8,-9827.4,-9830.1,-9830.1,-7.2,-6.0,-9830.1,-9830.1,-0.6,264.6,-9578.4,-570.3,0,3264,36219193966592,124,0, 
1.8167,-53.7,-56.1,-165.0,-108.0,-4328.4,-744.9,171.6,-9830.1,-127896.6,72.9,-7788.6,-8055.6,-617.4,-9827.4,-9830.1,-9830.1,-6.9,-6.0,-9362.7,-9380.4,-0.6,126.3,-3972.3,-517.5,0,3270,36219193966592,125,0, 
1.8200,-115.5,-61.8,-208.8,-187.2,8786.7,-474.6,94.2,3978.6,-9929.4,-78.0,3710.4,5112.6,-45.9,3048.9,-3403.2,3987.0,-6.6,-6.0,4537.8,4853.4,-0.9,-21.3,4422.0,-456.3,0,3276,36219193966592,126,0, 
1.8233,-68.4,-39.3,-181.2,-139.5,8723.1,-486.6,130.8,9830.1,45942.0,-11.1,8283.9,9817.5,6.9,9827.1,9830.1,9830.1,-6.9,-6.0,9830.1,9830.1,-0.9,50.1,4111.5,-454.8,0,3282,36219193966592,127,0, 
1.8267,2.4,-43.5,-142.5,-55.5,-3474.9,-755.4,211.2,2176.8,-23860.2,150.3,-346.5,451.8,-483.6,827.4,-6088.2,2066.7,-6.6,-5.4,1027.5,1680.3,-0.9,206.1,-3463.2,-509.1,0,3288,36219193966592,128,0, 
1.8300,18.6,-45.3,-127.5,-22.2,-9819.9,-921.9,246.9,-9830.1,-129230.4,219.9,-9764.4,-9817.8,-892.5,-9827.4,-9830.1,-9830.1,-6.9,-6.6,-9830.1,-9830.1,-0.6,270.6,-8796.3,-546.9,0,3294,36219193966592,129,0, 
1.8333,-43.8,-47.4,-161.1,-93.6,-5198.4,-757.5,184.5,-9830.1,-129971.4,90.3,-7961.7,-8455.5,-637.5,-9827.4,-9830.1,-9830.1,-6.6,-6.0,-9472.8,-9474.6,-0.6,141.9,-4328.4,-507.3,0,3300,36219193966592,130,0, 
1.8367,-101.1,-43.5,-191.7,-176.4,8542.8,-456.6,104.1,4010.4,-12374.7,-47.4,3688.8,4934.7,-20.7,2945.1,-3663.6,4019.4,-6.9,-6.0,4321.2,4662.6,-0.9,-6.9,4522.2,-445.8,0,3306,36219193966592,131,0, 
1.8400,-66.6,-32.7,-173.4,-138.0,9300.9,-459.9,131.7,9830.1,55056.3,1.8,9830.1,9817.5,68.7,9827.1,9830.1,9830.1,-6.9,-5.7,9830.1,9830.1,-0.9,37.8,4865.4,-447.0,0,3312,36219193966592,132,0, 
1.8433,9.6,-36.3,-140.7,-50.4,-3996.0,-771.9,215.7,1790.1,-24971.7,174.3,3.0,403.8,-506.7,165.0,-5708.4,1621.5,-7.2,-6.0,559.8,1106.1,-0.9,207.6,-3897.3,-527.1,0,3318,36219193966592,133,0, 
1.8467,13.2,-47.1,-134.7,-30.6,-9819.9,-933.9,240.6,-9830.1,-131157.0,217.8,-9830.1,-9817.8,-890.1,-9827.4,-9830.1,-9830.1,-7.5,-6.3,-9830.1,-9830.1,-0.6,249.9,-8769.9,-573.6,0,3324,36219193966592,134,0, 
1.8500,-53.4,-52.2,-175.5,-104.4,-4328.7,-745.8,171.0,-9830.1,-121079.4,82.5,-7006.2,-7618.2,-592.2,-9827.4,-9830.1,-9830.1,-6.9,-5.7,-9127.5,-9103.5,-0.6,110.7,-3684.3,-519.6,0,3330,36219193966592,135,0, 
1.8533,-111.6,-54.9,-213.9,-178.5,8155.2,-487.5,97.8,4350.6,-14301.3,-63.9,3561.3,4839.0,-55.2,2880.0,-4752.6,4309.8,-6.6,-6.3,4565.1,5123.7,-0.9,-15.0,4034.7,-461.1,0,3336,36219193966592,136,0, 
1.8567,-77.7,-43.5,-191.1,-147.3,9417.0,-467.1,125.4,9830.1,52685.1,-26.1,9680.4,9817.5,49.2,9827.1,9830.1,9830.1,-6.6,-6.0,9830.1,9830.1,-0.9,29.7,4894.8,-456.9,0,3342,36219193966592,137,0, 
1.8600,-3.0,-45.3,-155.4,-62.1,-3203.4,-752.1,210.6,3372.9,-16153.8,129.0,802.5,1625.7,-468.6,1787.1,-4724.7,3204.0,-7.5,-6.0,2138.1,2760.0,-0.6,197.1,-3215.1,-527.1,0,3348,36219193966592,138,0, 
1.8633,9.0,-64.2,-147.3,-40.2,-9819.9,-952.5,240.6,-9830.1,-133231.8,186.6,-9784.2,-9817.8,-927.0,-9827.4,-9830.1,-9830.1,-6.9,-6.0,-9830.1,-9830.1,-0.6,271.8,-9270.0,-581.1,0,3354,36219193966592,139,0, 
1.8667,-58.8,-66.3,-180.9,-117.3,-4176.3,-734.1,171.0,-9678.9,-123080.1,40.8,-7215.9,-7626.9,-597.6,-9827.4,-9830.1,-9676.5,-7.2,-6.0,-8964.0,-8983.8,-0.6,130.5,-3624.3,-519.0,0,3360,36219193966592,140,0, 
1.8700,-113.4,-64.2,-213.0,-188.7,8780.7,-454.5,93.6,5175.0,-5335.2,-90.9,4442.1,5639.4,-26.1,3867.9,-2765.7,5164.2,-6.9,-6.0,5499.0,5784.0,-0.6,-5.4,4695.9,-458.7,0,3366,36219193966592,141,0, 
1.8733,-70.5,-49.5,-187.5,-143.4,8945.4,-463.2,126.6,9830.1,51425.4,-24.3,9346.5,9817.5,31.2,9827.1,9830.1,9830.1,-7.2,-6.0,9830.1,9830.1,-0.9,55.2,4447.5,-455.1,0,3372,36219193966592,142,0, 
1.8767,7.5,-38.1,-142.2,-52.2,-3229.8,-717.6,219.6,3691.8,-17043.0,141.0,775.2,1533.3,-452.7,1844.1,-4792.8,3530.4,-6.9,-6.0,2469.6,2811.6,-0.9,225.0,-3144.0,-505.2,0,3378,36219193966592,143,0, 
1.8800,17.4,-57.6,-135.3,-31.8,-9819.9,-898.5,244.8,-9830.1,-123006.0,210.6,-9447.3,-9817.8,-864.6,-9827.4,-9830.1,-9830.1,-7.2,-6.3,-9830.1,-9830.1,-0.6,282.6,-8577.3,-552.9,0,3384,36219193966592,144,0, 
1.8833,-40.8,-53.1,-163.2,-96.3,-5156.7,-730.2,190.8,-9683.7,-124191.6,91.5,-7628.7,-8201.1,-609.6,-9827.4,-9830.1,-9689.4,-6.9,-6.0,-9108.0,-9170.4,-1.2,157.5,-4136.4,-512.1,0,3390,36219193966592,145,0, 
1.8867,-112.2,-55.2,-202.5,-178.2,8575.8,-440.1,95.1,5010.6,-5557.5,-62.1,4412.1,5435.4,-3.3,3517.2,-2553.3,4964.7,-6.6,-5.7,5331.3,5507.7,-0.9,-11.4,4771.2,-453.6,0,3396,36219193966592,146,0, 
1.8900,-67.2,-36.6,-180.0,-133.5,9363.9,-433.2,123.3,9830.1,61725.3,-17.4,9830.1,9817.5,96.3,9827.1,9830.1,9830.1,-7.2,-6.0,9830.1,9830.1,-0.9,41.7,5161.2,-447.6,0,3402,36219193966592,147,0, 
1.8933,5.7,-43.8,-134.7,-39.0,-3830.4,-744.9,212.4,3054.6,-17413.5,164.7,783.0,1267.2,-488.7,1005.6,-4681.5,2866.8,-6.9,-6.0,1671.6,2176.5,-0.9,215.4,-3635.4,-522.6,0,3408,36219193966592,148,0, 
1.8967,19.8,-47.4,-124.2,-17.7,-9819.9,-890.4,240.0,-9830.1,-122783.7,211.5,-9756.3,-9817.8,-852.9,-9827.4,-9830.1,-9830.1,-7.5,-6.0,-9830.1,-9830.1,-0.9,275.1,-8486.7,-560.7,0,3414,36219193966592,149,0, 
1.9000,-46.2,-50.4,-158.7,-94.8,-4281.0,-706.5,176.4,-9645.3,-113743.5,82.5,-6626.7,-7265.1,-578.4,-9827.4,-9830.1,-9656.7,-6.9,-5.4,-8795.1,-8812.5,-0.9,140.1,-3524.7,-503.1,0,3420,36219193966592,150,0, 
1.9033,-103.5,-51.6,-195.0,-165.9,8082.9,-451.2,93.9,5134.2,-6965.4,-60.0,3970.2,5244.3,-39.6,3268.5,-3036.0,5026.5,-6.9,-6.3,5255.1,5665.5,-1.2,-0.9,4231.8,-453.9,0,3426,36219193966592,151,0, 
1.9067,-73.2,-41.7,-177.0,-136.2,9496.8,-425.4,116.1,9830.1,61058.4,-18.6,9830.1,9817.5,79.2,9827.1,9830.1,9830.1,-7.2,-6.0,9830.1,9830.1,-0.9,42.6,5184.0,-439.5,0,3432,36219193966592,152,0, 
1.9100,1.8,-37.8,-133.5,-43.2,-3146.4,-711.3,203.1,4245.3,-8447.4,152.4,1569.6,2235.3,-462.6,2291.4,-2854.2,4074.0,-7.2,-5.7,3044.1,3456.6,-0.9,204.6,-3099.3,-512.7,0,3438,36219193966592,153,0, 
1.9133,24.6,-50.7,-112.2,-9.6,-9819.9,-907.8,242.1,-9830.1,-126414.6,222.6,-9754.2,-9817.8,-904.5,-9827.4,-9830.1,-9830.1,-6.6,-5.7,-9830.1,-9830.1,-0.3,280.2,-9158.7,-560.7,0,3444,36219193966592,154,0, 
1.9167,-53.7,-60.3,-156.9,-97.2,-4247.1,-700.8,167.1,-9545.7,-116188.8,77.7,-6721.5,-7320.6,-588.6,-9827.4,-9830.1,-9550.8,-6.6,-6.0,-8772.0,-8814.0,-0.3,132.6,-3501.3,-514.5,0,3450,36219193966592,155,0, 
1.9200,-106.5,-55.5,-189.9,-168.9,8698.2,-427.8,92.7,5585.1,592.8,-58.5,4848.9,5946.6,-13.5,3962.1,-1234.8,5537.1,-6.9,-6.3,5819.7,6115.8,-0.6,-5.7,4712.4,-450.3,0,3456,36219193966592,156,0, 
1.9233,-67.2,-42.3,-167.4,-126.6,9021.6,-444.3,126.3,9830.1,57279.3,-2.7,9830.1,9817.5,44.4,9827.1,9830.1,9830.1,-7.2,-6.3,9830.1,9830.1,-0.9,50.4,4560.6,-450.3,0,3462,36219193966592,157,0, 
1.9267,3.0,-40.8,-132.3,-45.0,-3238.2,-713.1,205.2,4086.9,-10596.3,150.9,1100.7,2033.7,-447.9,1954.5,-2727.0,3903.9,-7.2,-6.0,2767.5,3250.8,-0.9,208.2,-3062.4,-516.9,0,3468,36219193966592,158,0, 
1.9300,22.8,-49.5,-123.9,-16.8,-9819.9,-894.6,237.3,-9830.1,-118263.6,216.3,-9364.2,-9817.8,-869.7,-9827.4,-9830.1,-9830.1,-6.6,-6.0,-9830.1,-9830.1,-0.9,271.2,-8596.2,-555.3,0,3474,36219193966592,159,0, 
1.9333,-40.2,-53.4,-156.3,-91.5,-5228.4,-734.1,174.6,-9645.9,-120783.0,90.3,-7635.3,-8102.4,-626.1,-9827.4,-9830.1,-9656.4,-6.6,-6.0,-9159.6,-9152.7,-0.6,143.1,-4176.3,-513.6,0,3480,36219193966592,160,0, 
1.9367,-112.2,-57.0,-197.7,-174.9,8534.4,-435.0,87.9,5098.8,-1704.3,-69.9,4404.3,5462.1,-12.6,3341.4,-1503.0,5013.3,-6.9,-6.0,5196.0,5496.6,-0.9,-11.1,4777.5,-451.5,0,3486,36219193966592,161,0, 
1.9400,-69.3,-42.0,-176.7,-134.1,9292.2,-439.8,116.1,9830.1,64541.1,-8.1,9830.1,9817.5,73.5,9827.1,9830.1,9830.1,-6.6,-6.3,9830.1,9830.1,-0.9,43.8,5119.2,-449.4,0,3492,36219193966592,162,0, 
1.9433,5.7,-47.7,-139.8,-39.6,-4020.6,-743.1,210.6,2940.0,-15190.5,162.0,749.4,1159.5,-501.9,604.2,-3858.6,2747.7,-7.2,-6.0,1512.0,1914.6,-1.2,217.2,-3676.8,-521.7,0,3498,36219193966592,163,0, 
1.9467,14.4,-58.5,-131.4,-18.3,-9819.9,-908.1,234.0,-9830.1,-120634.8,209.1,-9701.1,-9817.8,-863.4,-9827.4,-9830.1,-9830.1,-6.6,-6.0,-9830.1,-9830.1,-0.3,261.6,-8496.6,-567.6,0,3504,36219193966592,164,0, 
1.9500,-53.7,-65.7,-168.3,-96.0,-4532.1,-732.0,167.4,-9826.5,-112854.3,76.8,-6668.1,-7377.0,-595.5,-9827.4,-9830.1,-9822.3,-6.9,-6.0,-8911.8,-9000.0,-0.9,133.2,-3644.4,-521.7,0,3510,36219193966592,165,0, 
1.9533,-107.4,-62.7,-198.0,-166.5,7953.3,-467.4,96.3,4629.3,-6520.8,-51.3,3961.8,4978.8,-52.2,2513.1,-2481.3,4572.3,-6.9,-6.0,4987.2,5288.4,-0.9,3.9,4174.5,-466.2,0,3516,36219193966592,166,0, 
1.9567,-83.4,-52.8,-189.0,-143.4,9524.7,-442.5,107.1,9830.1,62762.7,-29.7,9830.1,9817.5,68.1,9827.1,9830.1,9830.1,-6.9,-6.0,9830.1,9830.1,-1.2,26.7,5199.0,-458.7,0,3522,36219193966592,167,0, 
1.9600,-3.0,-47.4,-148.8,-48.6,-3141.9,-733.2,198.6,4082.1,-7484.1,144.0,1477.5,2234.7,-478.8,1866.6,-2140.2,3918.0,-6.9,-6.0,2955.6,3372.9,-0.9,200.1,-3158.4,-531.0,0,3528,36219193966592,168,0, 
1.9633,17.7,-54.6,-135.3,-18.6,-9819.9,-919.8,241.2,-9830.1,-125451.3,214.5,-9830.1,-9817.8,-924.3,-9827.4,-9830.1,-9830.1,-6.9,-6.0,-9830.1,-9830.1,-0.6,272.1,-9209.7,-564.9,0,3534,36219193966592,169,0, 
1.9667,-56.4,-63.3,-169.5,-103.2,-4387.5,-721.5,163.5,-9625.8,-115299.6,65.4,-6894.9,-7433.4,-597.6,-9827.4,-9830.1,-9628.2,-6.9,-5.7,-8845.5,-8930.1,-0.3,125.7,-3533.1,-517.5,0,3540,36219193966592,170,0, 
1.9700,-115.5,-63.0,-210.0,-177.3,8637.6,-450.3,85.8,5380.5,592.8,-66.9,4625.1,5676.3,-33.0,3466.2,-931.5,5331.9,-6.9,-6.0,5639.7,5838.6,-0.9,-15.6,4626.9,-458.4,0,3546,36219193966592,171,0, 
1.9733,-72.6,-47.4,-185.4,-130.2,9029.7,-458.1,120.6,9830.1,57501.6,-9.6,9591.0,9817.5,9.6,9827.1,9830.1,9830.1,-6.9,-6.0,9830.1,9830.1,-0.6,39.9,4547.1,-459.6,0,3552,36219193966592,172,0, 
1.9767,1.2,-49.8,-141.6,-42.3,-3224.4,-714.6,206.4,3947.4,-9336.6,144.6,945.0,1836.3,-455.4,1580.4,-2286.6,3783.6,-7.5,-6.0,2475.9,3057.0,-0.3,202.8,-2988.3,-513.6,0,3558,36219193966592,173,0, 
1.9800,23.1,-52.5,-129.0,-13.2,-9819.9,-883.8,246.3,-9830.1,-118337.7,211.2,-9442.8,-9817.8,-889.2,-9827.4,-9830.1,-9830.1,-7.2,-5.7,-9830.1,-9830.1,-0.6,270.9,-8679.0,-548.7,0,3564,36219193966592,174,0, 
1.9833,-34.8,-54.3,-165.3,-77.7,-5257.2,-717.9,180.3,-9699.3,-121079.4,92.4,-7593.9,-8170.2,-633.0,-9827.4,-9830.1,-9699.0,-6.6,-5.7,-9214.8,-9209.1,-0.6,147.6,-4191.9,-503.4,0,3570,36219193966592,175,0, 
1.9867,-102.6,-54.6,-206.4,-164.1,8527.2,-417.9,91.8,4973.4,-1185.6,-66.6,4558.2,5393.4,-24.0,3051.3,-1259.4,4920.6,-6.9,-6.0,5031.9,5373.3,-0.9,-18.0,4844.1,-441.6,0,3576,36219193966592,176,0, 
1.9900,-57.9,-41.7,-188.1,-125.7,9253.2,-420.3,126.6,9830.1,65282.1,-10.2,9830.1,9817.5,70.5,9827.1,9830.1,9830.1,-6.9,-6.3,9830.1,9830.1,-0.9,40.8,5116.5,-435.3,0,3582,36219193966592,177,0, 
1.9933,15.6,-43.8,-142.8,-31.2,-4078.5,-721.5,220.8,2923.5,-14375.4,164.7,903.6,1002.9,-497.1,422.4,-3618.3,2752.2,-7.2,-5.7,1326.3,1862.1,-0.6,222.9,-3642.3,-507.6,0,3588,36219193966592,178,0, 
1.9967,25.2,-47.7,-129.9,-11.1,-9819.9,-872.1,251.1,-9830.1,-119078.7,213.3,-9617.7,-9817.8,-869.4,-9827.4,-9830.1,-9830.1,-7.2,-6.0,-9830.1,-9830.1,-0.9,270.9,-8448.0,-531.0,0,3594,36219193966592,179,0, 
2.0000,-36.0,-45.3,-159.9,-81.0,-4633.5,-704.1,188.7,-9830.1,-112928.4,90.9,-6621.6,-7512.3,-595.8,-9827.4,-9830.1,-9830.1,-6.9,-5.7,-9099.9,-9142.8,-0.3,141.9,-3691.5,-499.8,0,3600,36219193966592,180,0, 
2.0033,-96.9,-46.8,-194.4,-151.8,7889.7,-435.9,111.9,4322.4,-5631.6,-44.7,4028.1,4833.9,-36.6,2208.9,-2282.7,4346.4,-6.6,-6.0,4631.1,4995.9,-1.2,6.0,4215.0,-436.8,0,3606,36219193966592,181,0, 
2.0067,-66.9,-35.1,-173.4,-128.7,9567.9,-409.2,129.6,9830.1,64837.5,-4.5,9830.1,9817.5,94.8,9827.1,9830.1,9830.1,-6.9,-6.0,9830.1,9830.1,-0.9,46.5,5320.5,-432.0,0,3612,36219193966592,182,0, 
2.0100,12.3,-35.7,-134.7,-34.5,-3091.8,-709.5,223.5,4154.4,-5631.6,162.9,1741.5,2197.5,-456.0,1919.1,-1851.6,3962.1,-6.9,-5.7,2855.1,3297.6,-0.9,217.2,-3129.9,-504.0,0,3618,36219193966592,183,0, 
2.0133,30.9,-48.9,-120.3,-2.4,-9819.9,-903.3,259.8,-9830.1,-124117.5,228.6,-9830.1,-9817.8,-918.3,-9827.4,-9830.1,-9830.1,-7.5,-6.6,-9830.1,-9830.1,-0.6,283.5,-9166.5,-551.4,0,3624,36219193966592,184,0, 
2.0167,-44.4,-54.3,-165.3,-90.0,-4305.9,-696.0,181.8,-9633.3,-113224.8,81.3,-6680.1,-7429.2,-589.2,-9827.4,-9830.1,-9628.5,-7.5,-6.3,-8920.8,-8949.0,-0.6,135.9,-3477.0,-505.5,0,3630,36219193966592,185,0, 
2.0200,-97.2,-50.4,-199.2,-161.4,8650.5,-422.1,101.4,5410.2,1926.6,-48.6,4840.2,5709.3,-14.1,3627.3,-605.1,5380.8,-7.2,-5.7,5602.8,5881.8,-0.9,-1.8,4652.7,-441.6,0,3636,36219193966592,186,0, 
2.0233,-53.7,-34.2,-170.7,-124.5,9149.7,-434.4,132.6,9830.1,59724.6,2.1,9830.1,9817.5,55.8,9827.1,9830.1,9830.1,-7.2,-6.0,9830.1,9830.1,-0.9,61.2,4632.3,-441.9,0,3642,36219193966592,187,0, 
2.0267,15.6,-33.3,-137.4,-42.6,-3027.6,-700.2,218.4,4134.0,-6076.2,154.2,1598.1,2098.8,-438.3,1965.9,-1767.9,3994.5,-7.2,-5.7,2845.5,3285.0,-0.6,205.2,-2854.2,-499.2,0,3648,36219193966592,188,0, 
2.0300,25.2,-54.3,-133.5,-18.3,-9819.9,-887.4,254.4,-9830.1,-115744.2,220.2,-9225.0,-9817.8,-880.8,-9827.4,-9830.1,-9830.1,-6.6,-6.0,-9830.1,-9830.1,-1.2,268.5,-8651.4,-548.7,0,3654,36219193966592,189,0, 
2.0333,-39.6,-59.1,-170.1,-91.5,-5069.1,-726.6,188.7,-9709.5,-118560.0,97.8,-7331.7,-8125.2,-632.4,-9827.4,-9830.1,-9688.8,-7.2,-5.7,-9110.1,-9167.1,-0.6,143.7,-4164.0,-511.8,0,3660,36219193966592,190,0, 
2.0367,-97.8,-53.1,-204.3,-170.7,8645.1,-417.3,104.4,5073.3,2074.8,-58.5,4995.0,5512.8,1.8,3315.0,-696.0,5047.8,-6.6,-6.3,5408.1,5520.9,-0.9,-13.5,4912.2,-449.4,0,3666,36219193966592,191,0, 
2.0400,-55.5,-36.9,-186.6,-128.7,9264.6,-421.2,135.6,9830.1,66615.9,4.2,9830.1,9817.5,96.3,9827.1,9830.1,9830.1,-6.9,-6.0,9830.1,9830.1,-0.9,45.6,5181.6,-445.8,0,3672,36219193966592,192,0, 
2.0433,21.9,-33.3,-132.9,-30.0,-3908.7,-720.0,226.2,3175.5,-12226.5,178.2,1782.3,1783.2,-477.9,849.0,-2831.7,2987.7,-6.9,-5.4,2189.1,2309.4,-0.6,221.4,-3534.0,-517.5,0,3678,36219193966592,193,0, 
2.0467,31.5,-45.6,-126.3,-15.3,-9819.9,-875.4,247.8,-9830.1,-116559.3,220.8,-9261.9,-9817.8,-851.7,-9827.4,-9830.1,-9830.1,-6.9,-5.7,-9830.1,-9830.1,-0.3,271.2,-8397.6,-554.7,0,3684,36219193966592,194,0, 
