Time,P3,C3,F3,Fz,F4,C4,P4,Cz,CM,A1,Fp1,Fp2,T3,T5,O1,O2,X3,X2,F7,F8,X1,A2,T6,T4,Trigger,Time_Offset,ADC_Status,ADC_Sequence,Event,Comments
0.0033,-241.2,-249.9,-442.5,-214.5,-394.8,-257.4,-208.2,-369.6,-2371.2,-299.7,-113.4,-356.7,-4755.9,-9827.4,-7160.1,-6461.4,-6.6,-5.7,-537.6,-504.0,-0.9,-88.8,-162.0,-242.7,0,6,0,242,0, 
0.0067,-242.4,-259.8,-517.8,-215.4,-385.8,-259.2,-206.7,-375.3,-2519.4,-276.0,-111.9,-359.4,-4966.5,-9827.4,-6911.7,-6094.5,-6.9,-6.0,-539.4,-502.8,-0.9,-91.5,-159.9,-246.0,0,12,0,243,0, 
0.0100,-240.0,-253.8,-402.3,-216.0,-372.3,-257.1,-220.8,-375.3,-2519.4,-283.8,-111.6,-355.2,-4995.6,-9827.4,-7133.1,-6181.8,-6.6,-5.7,-527.4,-503.4,-0.9,-87.9,-157.2,-248.1,0,18,0,244,0, 
0.0133,-240.6,-256.2,-224.7,-220.8,-369.9,-258.3,-221.4,-377.4,-2519.4,-283.2,-115.5,-361.2,-4817.1,-9827.4,-7440.9,-6579.6,-6.9,-5.7,-531.3,-507.0,-0.9,-88.2,-164.1,-254.1,0,24,0,245,0, 
0.0167,-239.7,-258.3,-220.2,-216.6,-385.8,-254.4,-217.2,-376.8,-2593.5,-292.8,-114.3,-353.4,-4652.7,-9827.4,-7487.7,-6770.7,-6.6,-5.4,-535.5,-502.8,-0.3,-89.7,-160.2,-259.5,0,30,0,246,0, 
0.0200,-238.8,-261.9,-437.4,-209.1,-378.6,-251.4,-207.6,-370.2,-2519.4,-271.2,-101.4,-341.7,-4744.5,-9827.4,-7146.9,-6532.2,-7.2,-6.3,-526.8,-491.4,-0.9,-78.3,-150.6,-246.6,0,36,0,247,0, 
0.0233,-237.0,-255.3,-572.4,-207.0,-364.2,-250.5,-206.4,-368.7,-2667.6,-274.8,-99.0,-343.2,-4981.8,-9827.4,-7017.6,-6189.3,-6.6,-5.7,-517.8,-490.8,-0.9,-80.1,-161.1,-249.3,0,42,0,248,0, 
0.0267,-237.6,-248.7,-399.6,-195.0,-362.1,-245.1,-203.1,-356.4,-2519.4,-263.4,-89.7,-339.3,-4994.7,-9827.4,-7178.4,-6168.9,-6.9,-6.0,-509.4,-481.8,-0.6,-60.9,-151.8,-242.7,0,48,0,249,0, 
0.0300,-240.0,-249.6,-211.5,-198.9,-359.1,-246.9,-210.6,-356.4,-2667.6,-283.2,-95.7,-338.4,-4802.1,-9827.4,-7461.9,-6542.1,-6.6,-6.3,-514.8,-486.6,-0.9,-74.7,-162.6,-251.7,0,54,0,250,0, 
0.0333,-238.8,-250.2,-214.5,-193.5,-359.1,-241.8,-202.5,-352.2,-2593.5,-262.8,-84.9,-325.8,-4617.0,-9827.4,-7394.7,-6750.0,-6.6,-6.0,-507.3,-473.1,-0.9,-64.5,-154.2,-238.5,0,60,0,251,0, 
0.0367,-235.2,-240.6,-412.5,-191.1,-348.6,-246.0,-194.7,-354.0,-2445.3,-267.3,-81.0,-322.5,-4756.2,-9827.4,-7119.0,-6453.3,-6.9,-6.3,-502.2,-471.6,-0.3,-64.8,-152.7,-242.1,0,66,0,252,0, 
0.0400,-237.3,-244.2,-567.0,-193.5,-359.1,-247.8,-199.2,-357.6,-2519.4,-269.7,-85.8,-332.7,-4957.8,-9827.4,-6945.6,-6102.3,-6.9,-5.7,-505.8,-480.0,-0.9,-75.0,-160.2,-244.8,0,72,0,253,0, 
0.0433,-234.9,-242.4,-406.8,-195.9,-362.4,-255.9,-207.3,-358.2,-2519.4,-269.4,-88.5,-334.8,-4983.6,-9827.4,-7145.1,-6173.1,-7.2,-6.3,-507.6,-488.4,-1.2,-74.4,-159.9,-256.5,0,78,0,254,0, 
0.0467,-233.7,-243.9,-213.3,-197.4,-366.6,-252.6,-207.6,-360.0,-2593.5,-266.4,-84.0,-330.9,-4776.6,-9827.4,-7369.5,-6561.3,-6.6,-5.7,-510.3,-489.9,-0.6,-68.4,-156.9,-251.1,0,84,0,255,0, 
0.0500,-233.1,-241.5,-221.1,-195.3,-368.7,-246.9,-222.6,-360.3,-2519.4,-271.2,-85.8,-334.2,-4611.3,-9827.4,-7443.0,-6724.8,-6.6,-6.3,-504.0,-496.8,-0.6,-69.0,-165.9,-245.1,0,90,0,0,0, 
0.0533,-238.5,-252.0,-417.3,-202.2,-358.8,-255.6,-211.5,-369.0,-2519.4,-264.9,-93.0,-339.3,-4688.7,-9827.4,-7093.2,-6459.9,-6.6,-5.7,-510.6,-494.1,-0.9,-77.1,-165.3,-248.1,0,96,0,1,0, 
0.0567,-237.3,-242.4,-539.4,-200.4,-350.7,-248.7,-200.7,-360.9,-2445.3,-268.5,-88.8,-336.3,-4980.9,-9827.4,-6936.3,-6108.0,-6.6,-6.0,-501.6,-489.0,-0.6,-65.7,-160.2,-231.9,0,102,0,2,0, 
0.0600,-230.7,-234.3,-336.6,-196.5,-346.5,-253.5,-204.6,-357.9,-2445.3,-263.1,-85.8,-332.7,-4962.6,-9827.4,-7138.5,-6185.7,-6.9,-6.0,-501.0,-480.9,-0.6,-76.8,-159.6,-254.7,0,108,0,3,0, 
0.0633,-237.3,-245.7,-155.1,-205.5,-379.5,-253.5,-216.0,-367.8,-2593.5,-265.5,-99.6,-340.8,-4736.1,-9827.4,-7335.9,-6522.9,-6.9,-6.0,-514.2,-489.9,-1.2,-77.7,-160.5,-254.7,0,114,0,4,0, 
0.0667,-233.7,-244.5,-154.5,-202.5,-369.6,-254.1,-219.0,-365.1,-2593.5,-273.3,-91.5,-339.6,-4528.2,-9827.4,-7394.4,-6705.0,-6.6,-6.0,-514.2,-487.2,-0.9,-74.1,-164.4,-257.7,0,120,0,5,0, 
0.0700,-231.0,-248.4,-392.4,-206.1,-378.0,-252.6,-201.3,-369.6,-2445.3,-284.1,-101.4,-348.3,-4614.6,-9827.4,-7113.9,-6430.2,-6.9,-5.7,-522.6,-499.8,-0.9,-78.9,-154.8,-255.6,0,126,0,6,0, 
0.0733,-234.6,-246.9,-500.1,-206.7,-372.9,-263.4,-206.1,-372.0,-2371.2,-283.8,-103.8,-350.1,-4859.7,-9827.4,-6884.1,-6073.8,-6.6,-6.0,-522.3,-496.5,-1.2,-85.2,-159.6,-258.0,0,132,0,7,0, 
0.0767,-241.5,-254.1,-354.3,-211.5,-388.8,-265.2,-204.9,-378.9,-2667.6,-285.6,-110.1,-360.3,-4893.0,-9827.4,-7174.5,-6168.9,-6.9,-5.7,-532.8,-505.5,-0.6,-90.6,-167.4,-261.3,0,138,0,8,0, 
0.0800,-237.3,-252.0,-153.6,-211.8,-387.6,-261.9,-221.1,-378.9,-2593.5,-293.7,-111.9,-354.9,-4695.3,-9827.4,-7551.6,-6571.5,-6.9,-6.3,-533.1,-510.6,-0.9,-101.1,-168.3,-263.1,0,144,0,9,0, 
0.0833,-241.5,-250.8,-181.5,-217.2,-403.2,-264.3,-215.1,-382.2,-2593.5,-288.6,-122.1,-361.2,-4470.0,-9827.4,-7479.9,-6689.1,-6.9,-6.3,-540.3,-511.5,-0.6,-100.8,-169.5,-258.9,0,150,0,10,0, 
0.0867,-239.1,-245.7,-340.2,-219.0,-390.0,-270.9,-215.1,-381.3,-2445.3,-303.3,-128.1,-367.8,-4584.6,-9827.4,-7140.0,-6408.9,-6.9,-6.0,-541.8,-514.2,-0.9,-99.9,-170.1,-270.3,0,156,0,11,0, 
0.0900,-242.4,-250.5,-434.4,-222.3,-398.7,-261.6,-200.7,-381.3,-2519.4,-294.9,-121.2,-364.5,-4810.8,-9827.4,-6852.0,-5975.1,-6.9,-5.7,-537.0,-506.4,-0.6,-98.1,-170.7,-261.9,0,162,0,12,0, 
0.0933,-236.4,-252.0,-306.3,-218.4,-393.0,-260.1,-199.8,-381.3,-2519.4,-288.9,-116.1,-359.7,-4836.0,-9827.4,-7080.0,-6070.8,-6.9,-6.3,-529.8,-503.7,-0.9,-92.1,-167.4,-258.6,0,168,0,13,0, 
0.0967,-245.7,-250.8,-146.4,-223.8,-407.4,-267.6,-219.9,-384.6,-2593.5,-297.0,-121.5,-365.4,-4616.7,-9827.4,-7462.5,-6549.0,-6.6,-5.7,-540.6,-510.6,-0.9,-98.1,-176.4,-253.2,0,174,0,14,0, 
0.1000,-246.6,-249.3,-129.3,-219.6,-402.0,-261.0,-219.3,-379.2,-2519.4,-297.0,-118.2,-362.1,-4465.2,-9827.4,-7465.5,-6727.8,-6.9,-5.7,-545.7,-508.8,-0.9,-96.3,-172.5,-254.4,0,180,0,15,0, 
0.1033,-244.5,-251.1,-332.1,-212.7,-384.0,-259.5,-216.3,-374.1,-2371.2,-289.5,-111.9,-356.1,-4612.8,-9827.4,-7228.5,-6419.1,-6.6,-5.7,-526.8,-501.9,-0.9,-96.0,-174.3,-245.1,0,186,0,16,0, 
0.1067,-247.8,-249.3,-429.0,-210.0,-358.5,-255.0,-204.0,-369.6,-2519.4,-293.7,-103.5,-349.2,-4864.8,-9827.4,-6948.0,-6084.6,-6.6,-5.7,-515.4,-491.7,-1.2,-77.4,-163.8,-238.2,0,192,0,17,0, 
0.1100,-239.4,-237.0,-323.7,-201.3,-373.5,-258.6,-211.2,-365.1,-2445.3,-275.4,-99.6,-345.0,-4941.6,-9827.4,-7187.4,-6184.8,-7.5,-5.7,-518.1,-492.3,-0.6,-90.6,-165.9,-250.8,0,198,0,18,0, 
0.1133,-232.8,-234.9,-119.7,-192.0,-368.7,-242.7,-210.0,-360.3,-2667.6,-274.8,-89.4,-334.8,-4671.0,-9827.4,-7505.7,-6507.3,-6.9,-5.4,-501.0,-483.6,-0.9,-75.6,-157.5,-245.4,0,204,0,19,0, 
0.1167,-234.9,-233.1,-134.7,-192.6,-393.0,-248.1,-211.8,-361.5,-2371.2,-273.9,-89.4,-336.6,-4531.8,-9827.4,-7531.2,-6672.0,-6.9,-6.0,-508.8,-491.7,-0.6,-78.9,-159.9,-246.0,0,210,0,20,0, 
0.1200,-235.2,-238.8,-435.9,-192.9,-379.5,-253.2,-206.4,-361.8,-2593.5,-269.4,-94.2,-336.9,-4634.7,-9827.4,-7223.7,-6432.6,-7.5,-5.7,-506.4,-481.5,-0.9,-74.1,-156.0,-237.9,0,216,0,21,0, 
0.1233,-235.2,-238.8,-520.8,-196.8,-365.7,-255.0,-192.9,-360.6,-2445.3,-275.4,-94.8,-342.0,-4854.9,-9827.4,-6942.6,-6052.2,-6.9,-5.1,-507.9,-490.8,-0.3,-82.8,-155.4,-246.3,0,222,0,22,0, 
0.1267,-231.6,-233.1,-340.2,-196.5,-365.7,-245.1,-196.8,-360.6,-2593.5,-261.3,-87.9,-331.8,-4882.5,-9827.4,-7121.4,-6142.2,-6.6,-6.3,-501.0,-481.2,-0.9,-67.5,-150.0,-233.1,0,228,0,23,0, 
0.1300,-225.9,-225.0,281.4,-196.8,-342.9,-246.0,-186.9,-365.4,-2519.4,-259.8,-91.5,-340.5,-4373.4,-9827.4,-6920.7,-6195.3,-7.2,-6.0,-507.9,-483.9,-0.9,-77.7,-156.6,-234.9,0,234,0,24,0, 
0.1333,-224.7,-226.8,251.7,-195.9,-360.9,-246.0,-200.1,-365.4,-2519.4,-256.2,-85.2,-327.9,-4236.3,-9827.4,-6952.5,-6520.5,-6.9,-5.7,-503.4,-473.7,-0.9,-62.1,-146.1,-229.2,0,240,0,25,0, 
0.1367,-228.9,-234.9,-134.7,-201.3,-355.8,-248.1,-194.4,-369.0,-2519.4,-256.5,-90.6,-335.1,-4453.8,-9827.4,-6943.5,-6386.7,-6.6,-6.0,-507.3,-482.4,-0.6,-63.6,-148.2,-221.1,0,246,0,26,0, 
0.1400,-227.4,-226.8,-341.1,-195.9,-369.0,-240.3,-197.1,-369.6,-2445.3,-263.1,-86.7,-333.0,-4689.3,-9827.4,-6826.8,-6058.5,-6.9,-6.0,-500.1,-480.6,-0.6,-62.1,-146.7,-213.6,0,252,0,27,0, 
0.1433,-227.7,-229.5,-279.3,-198.3,-372.3,-245.7,-203.7,-370.5,-2519.4,-255.9,-85.5,-333.3,-4763.7,-9827.4,-7131.3,-6124.5,-7.2,-5.7,-499.5,-481.2,-0.6,-66.9,-156.3,-232.2,0,258,0,28,0, 
0.1467,-229.5,-230.1,-98.1,-201.9,-393.3,-249.3,-213.9,-369.9,-2445.3,-262.2,-92.1,-337.5,-4575.3,-9827.4,-7400.7,-6539.7,-7.2,-5.7,-510.9,-481.8,-0.9,-62.7,-158.4,-239.1,0,264,0,29,0, 
0.1500,-231.3,-225.0,-119.1,-202.8,-387.0,-250.2,-211.2,-367.8,-2445.3,-262.2,-94.8,-338.4,-4444.8,-9827.4,-7529.1,-6752.1,-7.2,-6.0,-510.3,-487.5,-0.9,-72.3,-160.8,-231.9,0,270,0,30,0, 
0.1533,-230.7,-228.0,-366.9,-205.2,-394.2,-252.0,-212.4,-374.1,-2593.5,-262.5,-93.6,-342.3,-4546.5,-9827.4,-7154.7,-6504.0,-6.6,-5.4,-504.3,-486.0,-0.9,-75.9,-157.8,-239.4,0,276,0,31,0, 
0.1567,-229.8,-234.3,-528.0,-206.1,-369.9,-250.5,-199.5,-375.0,-2519.4,-258.9,-96.0,-342.0,-4818.0,-9827.4,-7010.1,-6105.9,-6.6,-6.0,-509.7,-484.2,-0.6,-66.3,-150.3,-224.7,0,282,0,32,0, 
0.1600,-229.5,-233.4,-337.2,-207.0,-383.7,-252.0,-204.3,-376.8,-2445.3,-254.7,-93.0,-340.2,-4841.7,-9827.4,-7152.3,-6117.3,-6.6,-5.7,-504.0,-480.9,-1.2,-61.2,-153.9,-240.9,0,288,0,33,0, 
0.1633,-229.8,-240.3,-168.9,-210.6,-380.7,-257.1,-220.8,-378.6,-2667.6,-271.8,-97.2,-348.6,-4616.1,-9827.4,-7463.1,-6504.3,-6.6,-5.7,-506.7,-493.5,-0.6,-72.3,-165.3,-240.3,0,294,0,34,0, 
0.1667,-228.0,-237.3,-168.6,-207.6,-398.4,-255.6,-217.2,-371.7,-2519.4,-259.2,-90.0,-343.2,-4408.2,-9827.4,-7455.0,-6708.9,-6.9,-6.0,-504.0,-487.2,-0.9,-73.5,-156.6,-234.6,0,300,0,35,0, 
0.1700,-229.8,-235.8,-374.7,-208.5,-370.5,-260.1,-203.1,-367.5,-2445.3,-262.2,-100.8,-349.2,-4505.4,-9827.4,-7133.4,-6461.7,-7.5,-6.3,-515.1,-494.1,-0.9,-92.4,-160.2,-234.9,0,306,0,36,0, 
0.1733,-231.0,-243.0,-545.4,-209.4,-374.4,-265.8,-202.8,-369.3,-2445.3,-272.1,-105.3,-349.2,-4829.4,-9827.4,-6946.8,-6135.9,-6.6,-5.7,-518.1,-491.7,-0.9,-80.4,-166.2,-241.5,0,312,0,37,0, 
0.1767,-230.1,-242.1,-357.6,-208.2,-385.8,-265.2,-205.8,-365.1,-2519.4,-281.4,-102.0,-351.0,-4830.3,-9827.4,-7106.7,-6153.3,-6.3,-6.0,-516.6,-496.2,-0.9,-78.0,-163.8,-249.3,0,318,0,38,0, 
0.1800,-231.3,-244.2,-108.0,-207.6,-392.4,-268.8,-223.8,-369.9,-2741.7,-273.3,-102.3,-354.9,-4626.0,-9827.4,-7371.6,-6503.7,-6.9,-6.0,-520.2,-495.0,-0.6,-85.2,-165.0,-247.2,0,324,0,39,0, 
0.1833,-234.6,-247.2,-157.8,-211.8,-405.3,-262.5,-218.4,-371.7,-2667.6,-293.7,-103.2,-354.6,-4498.5,-9827.4,-7403.1,-6725.7,-6.9,-5.7,-521.1,-504.3,-0.6,-90.3,-162.3,-239.1,0,330,0,40,0, 
0.1867,-240.0,-248.4,-346.5,-210.6,-386.7,-267.0,-209.1,-371.1,-2519.4,-277.2,-103.5,-352.8,-4609.2,-9827.4,-7107.0,-6491.7,-6.9,-5.4,-520.5,-501.0,-0.9,-83.7,-157.2,-246.3,0,336,0,41,0, 
0.1900,-237.6,-249.6,-525.3,-215.4,-374.1,-267.6,-206.4,-374.7,-2445.3,-285.3,-108.9,-352.5,-4866.3,-9827.4,-6955.8,-6213.3,-6.9,-5.7,-517.5,-499.5,-0.6,-88.5,-153.6,-250.2,0,342,0,42,0, 
0.1933,-233.1,-245.1,-351.3,-203.7,-363.9,-255.3,-201.6,-370.8,-2593.5,-266.7,-98.4,-344.7,-4859.1,-9827.4,-7160.1,-6187.8,-6.9,-6.3,-507.0,-487.2,-0.9,-79.8,-147.9,-230.1,0,348,0,43,0, 
0.1967,-235.5,-245.4,-115.5,-204.0,-373.8,-259.5,-211.8,-375.6,-2667.6,-277.8,-95.1,-339.9,-4624.2,-9827.4,-7449.9,-6576.0,-6.9,-6.3,-510.0,-487.2,-0.9,-73.5,-151.2,-251.1,0,354,0,44,0, 
0.2000,-235.8,-250.2,-118.2,-201.9,-384.9,-255.3,-214.2,-371.7,-2593.5,-271.5,-97.5,-344.1,-4435.8,-9827.4,-7505.1,-6738.3,-6.6,-5.7,-513.6,-493.2,-0.9,-82.5,-147.0,-260.4,0,360,0,45,0, 
0.2033,-238.5,-251.7,-376.5,-202.2,-381.6,-258.3,-204.6,-377.4,-2445.3,-270.0,-102.0,-346.2,-4573.5,-9827.4,-7242.0,-6500.1,-6.6,-6.0,-516.9,-495.0,-0.9,-76.5,-150.9,-258.0,0,366,0,46,0, 
0.2067,-232.8,-244.8,-435.9,-198.3,-360.3,-260.7,-200.4,-375.3,-2371.2,-275.4,-95.7,-341.1,-4806.9,-9827.4,-7056.3,-6088.5,-6.3,-5.7,-510.3,-482.4,-0.9,-78.6,-147.0,-258.3,0,372,0,47,0, 
0.2100,-233.4,-237.9,-303.0,-195.6,-360.6,-257.1,-209.4,-372.6,-2519.4,-272.1,-85.8,-334.2,-4840.2,-9827.4,-7185.3,-6171.6,-6.9,-5.7,-498.6,-478.5,-0.9,-66.9,-146.4,-252.3,0,378,0,48,0, 
0.2133,-232.2,-237.0,-85.5,-191.7,-371.1,-255.9,-216.3,-368.1,-2519.4,-266.4,-82.8,-331.5,-4628.7,-9827.4,-7535.1,-6506.4,-7.2,-6.0,-497.4,-479.1,-0.6,-74.7,-149.4,-249.3,0,384,0,49,0, 
0.2167,-233.4,-240.0,-134.4,-190.8,-384.9,-257.7,-212.7,-366.0,-2667.6,-269.4,-84.6,-333.0,-4487.7,-9827.4,-7514.4,-6758.7,-6.9,-6.0,-499.8,-476.7,-0.6,-75.9,-150.3,-245.7,0,390,0,50,0, 
0.2200,-232.8,-244.2,-318.6,-190.2,-377.1,-253.8,-191.4,-363.9,-2445.3,-260.4,-88.5,-332.4,-4581.6,-9827.4,-7186.2,-6460.2,-6.9,-6.3,-500.1,-474.9,-0.9,-74.1,-141.9,-246.3,0,396,0,51,0, 
0.2233,-237.9,-241.2,-436.8,-189.6,-370.2,-252.9,-191.4,-361.5,-2297.1,-274.2,-86.1,-329.7,-4824.0,-9827.4,-6972.3,-6162.6,-7.2,-5.7,-498.0,-470.4,-0.9,-67.2,-146.1,-248.1,0,402,0,52,0, 
0.2267,-231.9,-240.3,-286.2,-186.3,-388.2,-249.0,-203.7,-357.3,-2519.4,-267.0,-79.2,-326.4,-4868.1,-9827.4,-7253.1,-6179.1,-7.2,-5.7,-490.2,-470.1,-0.9,-72.3,-150.3,-237.3,0,408,0,53,0, 
0.2300,-230.4,-234.3,-66.9,-185.4,-399.0,-251.1,-208.5,-352.5,-2593.5,-267.9,-82.2,-333.9,-4623.0,-9827.4,-7558.8,-6570.3,-7.2,-6.0,-498.3,-474.0,-0.9,-77.4,-150.6,-243.6,0,414,0,54,0, 
0.2333,-229.2,-226.8,-107.1,-180.9,-384.0,-243.9,-196.5,-354.3,-2519.4,-271.2,-80.4,-324.9,-4404.9,-9827.4,-7560.6,-6738.9,-6.6,-6.0,-494.7,-468.0,-0.6,-63.3,-149.4,-234.6,0,420,0,55,0, 
0.2367,-231.6,-231.9,-306.9,-186.9,-379.2,-249.6,-204.6,-353.7,-2371.2,-266.7,-82.8,-327.3,-4487.7,-9827.4,-7140.0,-6471.6,-6.9,-6.0,-495.9,-468.9,-0.6,-72.3,-154.2,-245.1,0,426,0,56,0, 
0.2400,-230.1,-234.0,-462.9,-181.2,-369.0,-243.9,-201.6,-357.6,-2593.5,-275.7,-80.4,-325.8,-4773.0,-9827.4,-7006.5,-6139.2,-6.9,-6.0,-495.3,-468.0,-0.9,-70.5,-159.9,-237.3,0,432,0,57,0, 
0.2433,-230.7,-229.8,-257.4,-185.4,-364.5,-240.3,-196.5,-356.7,-2519.4,-272.4,-87.9,-329.7,-4795.2,-9827.4,-7193.1,-6157.5,-6.9,-6.0,-508.2,-467.1,-0.9,-78.9,-158.4,-238.2,0,438,0,58,0, 
0.2467,-233.1,-235.5,-97.5,-191.4,-366.3,-245.4,-206.7,-360.0,-2667.6,-281.4,-96.0,-332.7,-4577.4,-9827.4,-7518.6,-6615.3,-6.9,-5.7,-506.7,-468.3,-0.6,-74.7,-158.7,-245.1,0,444,0,59,0, 
0.2500,-231.9,-236.4,-138.0,-189.6,-355.5,-243.3,-200.1,-359.1,-2593.5,-276.9,-84.3,-329.4,-4451.4,-9827.4,-7492.5,-6809.4,-7.2,-6.0,-497.4,-463.5,-0.6,-79.2,-156.6,-242.1,0,450,0,60,0, 
0.2533,-236.7,-240.3,-361.8,-189.6,-360.6,-237.9,-201.0,-361.5,-2667.6,-274.8,-89.7,-335.4,-4578.9,-9827.4,-7168.2,-6520.8,-6.9,-6.3,-501.9,-467.7,-0.9,-74.1,-155.1,-260.4,0,456,0,61,0, 
0.2567,-233.7,-234.6,-483.0,-192.6,-356.7,-240.6,-198.9,-361.2,-2519.4,-275.1,-92.4,-338.4,-4845.0,-9827.4,-7027.8,-6158.1,-6.9,-6.6,-507.0,-469.8,-0.9,-81.3,-152.1,-255.0,0,462,0,62,0, 
0.2600,-234.3,-242.1,-345.3,-199.5,-379.8,-253.5,-194.4,-365.7,-2519.4,-275.4,-97.8,-342.0,-4857.6,-9827.4,-7155.0,-6152.7,-6.6,-6.0,-511.8,-468.6,-0.6,-78.9,-151.8,-258.9,0,468,0,63,0, 
0.2633,-236.1,-238.8,-76.8,-201.0,-378.6,-244.8,-204.9,-367.5,-2519.4,-273.9,-96.6,-345.3,-4647.0,-9827.4,-7548.0,-6644.1,-6.9,-6.0,-504.3,-475.2,-0.6,-77.4,-151.2,-265.8,0,474,0,64,0, 
0.2667,-229.8,-237.0,-38.1,-201.3,-375.0,-242.4,-201.6,-364.8,-2519.4,-269.7,-89.7,-335.1,-4456.5,-9827.4,-7425.3,-6813.9,-6.6,-5.7,-497.7,-464.7,-0.6,-70.8,-144.9,-244.5,0,480,0,65,0, 
0.2700,-236.4,-240.0,-326.7,-203.1,-374.1,-242.7,-194.1,-364.5,-2519.4,-269.7,-94.5,-338.7,-4594.5,-9827.4,-7277.4,-6584.4,-7.2,-6.0,-503.1,-468.6,-0.9,-76.5,-144.6,-258.9,0,486,0,66,0, 
0.2733,-237.6,-238.8,-481.2,-207.6,-375.0,-251.4,-195.0,-371.4,-2519.4,-275.7,-100.8,-350.1,-4791.9,-9827.4,-7069.2,-6239.4,-6.9,-5.7,-510.9,-481.8,-0.9,-77.7,-150.3,-259.8,0,492,0,67,0, 
0.2767,-240.3,-240.3,-256.2,-211.2,-384.0,-257.7,-210.3,-375.6,-2519.4,-286.8,-108.6,-357.0,-4821.6,-9827.4,-7261.2,-6299.7,-7.2,-6.0,-513.3,-487.5,-0.6,-83.1,-157.5,-257.7,0,498,0,68,0, 
0.2800,-237.9,-238.2,-92.4,-209.4,-390.0,-250.5,-207.6,-374.1,-2593.5,-290.7,-105.6,-350.4,-4625.1,-9827.4,-7622.7,-6670.2,-6.6,-5.7,-508.2,-482.4,-0.6,-64.5,-152.4,-267.0,0,504,0,69,0, 
0.2833,-239.4,-238.8,-125.1,-217.5,-403.2,-252.0,-207.0,-381.9,-2667.6,-277.8,-112.8,-352.5,-4437.9,-9827.4,-7682.7,-6844.8,-6.9,-6.0,-525.0,-492.0,-0.6,-86.1,-156.6,-259.8,0,510,0,70,0, 
0.2867,-241.5,-241.8,-314.4,-220.8,-405.9,-251.1,-201.3,-379.2,-2593.5,-285.9,-118.2,-365.1,-4531.8,-9827.4,-7347.9,-6568.5,-6.6,-6.0,-528.9,-504.6,-0.9,-109.2,-152.7,-252.3,0,516,0,71,0, 
0.2900,-242.1,-242.7,-487.8,-217.2,-398.1,-258.6,-195.6,-377.1,-2593.5,-289.8,-118.2,-367.5,-4805.1,-9827.4,-7109.1,-6162.6,-6.9,-5.7,-525.9,-505.8,-0.9,-115.2,-149.7,-273.3,0,522,0,72,0, 
0.2933,-237.0,-242.1,-322.5,-216.9,-394.8,-262.5,-213.0,-372.6,-2593.5,-295.5,-115.2,-362.4,-4872.6,-9827.4,-7287.3,-6235.5,-6.3,-6.0,-526.8,-504.6,-0.9,-99.3,-158.4,-280.8,0,528,0,73,0, 
0.2967,-241.2,-243.0,-45.6,-218.4,-394.2,-261.9,-214.2,-369.0,-2667.6,-293.4,-114.6,-362.1,-4661.7,-9827.4,-7665.9,-6618.3,-6.9,-5.7,-525.6,-500.4,-0.9,-101.4,-158.4,-274.5,0,534,0,74,0, 
0.3000,-238.5,-240.6,-117.3,-212.1,-393.9,-257.1,-209.4,-363.0,-2519.4,-295.8,-110.7,-356.1,-4430.1,-9827.4,-7630.2,-6813.0,-7.2,-5.7,-516.9,-494.1,-0.9,-92.4,-162.9,-272.1,0,540,0,75,0, 
0.3033,-238.2,-239.7,-331.8,-207.9,-375.9,-254.1,-205.8,-364.2,-2593.5,-296.4,-107.4,-352.5,-4530.3,-9827.4,-7332.9,-6549.0,-6.9,-5.7,-515.1,-492.0,-0.6,-98.4,-168.6,-263.7,0,546,0,76,0, 
0.3067,-231.6,-227.1,-483.6,-199.2,-377.1,-249.6,-203.4,-359.1,-2593.5,-282.3,-99.9,-344.7,-4790.4,-9827.4,-7125.0,-6211.8,-6.9,-6.0,-507.3,-481.2,-0.6,-75.9,-163.2,-257.1,0,552,0,77,0, 
0.3100,-239.7,-247.2,-298.5,-205.8,-362.7,-254.1,-201.6,-363.3,-2741.7,-285.0,-107.1,-345.6,-4810.5,-9827.4,-7315.5,-6259.5,-6.9,-5.7,-512.7,-481.2,-0.9,-81.9,-174.9,-256.8,0,558,0,78,0, 
0.3133,-243.9,-237.9,-73.8,-206.4,-378.3,-252.6,-204.6,-363.0,-2519.4,-281.1,-106.2,-349.2,-4607.4,-9827.4,-7624.2,-6682.8,-6.9,-6.0,-512.7,-480.9,-0.9,-83.1,-172.5,-266.4,0,564,0,79,0, 
0.3167,-242.1,-244.8,-119.4,-206.1,-380.4,-254.7,-218.1,-364.2,-2593.5,-284.4,-97.5,-345.0,-4459.2,-9827.4,-7689.9,-6865.5,-6.9,-5.7,-510.0,-482.4,-0.9,-88.8,-178.2,-265.5,0,570,0,80,0, 
0.3200,-235.2,-234.0,-315.3,-205.2,-373.5,-249.0,-201.0,-359.4,-2593.5,-287.7,-97.2,-346.5,-4531.5,-9827.4,-7356.6,-6566.4,-6.6,-6.0,-507.0,-481.8,-0.9,-83.4,-165.0,-263.7,0,576,0,81,0, 
0.3233,-236.4,-239.1,-444.6,-210.3,-381.3,-256.5,-207.9,-364.8,-2445.3,-281.4,-103.2,-356.1,-4765.2,-9827.4,-7140.9,-6233.1,-6.9,-5.7,-510.3,-486.3,-0.3,-91.2,-169.5,-259.5,0,582,0,82,0, 
0.3267,-234.3,-241.8,-258.9,-207.3,-373.8,-248.1,-206.4,-355.5,-2667.6,-268.5,-99.3,-343.2,-4776.9,-9827.4,-7338.9,-6284.4,-6.6,-5.7,-506.1,-477.9,-0.9,-74.1,-167.4,-246.6,0,588,0,83,0, 
0.3300,-237.6,-237.9,-104.4,-207.3,-399.3,-246.9,-222.0,-357.9,-2519.4,-277.5,-94.5,-339.3,-4573.8,-9827.4,-7712.4,-6648.3,-7.2,-6.0,-497.1,-478.8,-0.9,-84.9,-169.2,-250.2,0,594,0,84,0, 
0.3333,-233.7,-233.4,-64.5,-207.6,-397.2,-240.0,-209.4,-353.1,-2741.7,-277.2,-101.4,-344.7,-4408.8,-9827.4,-7622.7,-6900.6,-6.9,-6.0,-503.7,-481.8,-0.9,-79.8,-154.5,-242.1,0,600,0,85,0, 
0.3367,-236.1,-236.7,-258.6,-207.9,-387.6,-244.8,-208.2,-351.3,-2445.3,-279.3,-105.0,-345.0,-4479.0,-9827.4,-7304.4,-6639.6,-7.2,-6.0,-503.4,-485.1,-0.6,-82.2,-162.3,-252.6,0,606,0,86,0, 
0.3400,-233.7,-239.1,-404.1,-210.0,-374.1,-245.7,-210.6,-355.5,-2445.3,-283.5,-98.1,-347.7,-4768.5,-9827.4,-7155.0,-6316.2,-7.2,-6.3,-503.1,-489.0,-0.6,-95.4,-160.5,-251.1,0,612,0,87,0, 
0.3433,-238.5,-238.8,-557.1,-215.4,-413.4,-254.1,-220.5,-363.0,-2519.4,-296.4,-104.7,-353.4,-4941.6,-9827.4,-7654.5,-6565.8,-7.5,-5.7,-510.6,-496.2,-0.6,-94.2,-162.9,-264.9,0,618,0,88,0, 
0.3467,-236.4,-240.6,-283.5,-214.8,-407.4,-244.8,-229.8,-359.1,-2593.5,-291.6,-110.7,-355.8,-4664.4,-9827.4,-7810.5,-6847.2,-6.9,-6.0,-523.2,-497.4,-0.6,-91.2,-160.5,-261.0,0,624,0,89,0, 
0.3500,-239.7,-244.5,-210.6,-217.5,-404.7,-252.0,-227.1,-366.9,-2593.5,-287.1,-113.7,-362.4,-4509.9,-9827.4,-7846.5,-6999.6,-6.6,-5.7,-522.3,-504.3,-0.9,-94.2,-159.9,-266.7,0,630,0,90,0, 
0.3533,-243.9,-241.8,-331.5,-217.8,-400.5,-257.4,-222.3,-371.7,-2445.3,-301.5,-117.0,-363.9,-4573.5,-9827.4,-7487.7,-6727.8,-6.9,-6.3,-521.1,-506.7,-0.9,-93.6,-156.3,-254.4,0,636,0,91,0, 
0.3567,-243.9,-241.8,-425.7,-218.4,-395.7,-250.8,-214.8,-366.0,-2519.4,-301.8,-117.9,-363.3,-4729.5,-9827.4,-7224.3,-6331.2,-6.9,-5.7,-524.1,-509.1,-0.6,-96.0,-142.8,-247.2,0,642,0,92,0, 
0.3600,-246.3,-240.3,-335.7,-216.0,-390.9,-246.6,-211.8,-363.0,-2593.5,-290.4,-119.1,-362.1,-4779.6,-9827.4,-7476.3,-6398.7,-6.9,-6.0,-527.4,-502.8,-0.9,-107.4,-147.9,-258.9,0,648,0,93,0, 
0.3633,-245.7,-239.7,-93.6,-217.5,-413.1,-252.3,-220.8,-359.7,-2371.2,-306.0,-120.9,-365.1,-4534.5,-9827.4,-7789.8,-6750.6,-7.2,-6.0,-522.9,-507.3,-0.9,-109.2,-151.5,-263.7,0,654,0,94,0, 
0.3667,-242.1,-236.4,-103.8,-216.0,-411.6,-251.7,-220.2,-362.4,-2445.3,-293.4,-113.7,-357.3,-4406.1,-9827.4,-7744.8,-6909.3,-7.2,-6.6,-518.1,-499.8,-0.6,-105.9,-151.8,-255.0,0,660,0,95,0, 
0.3700,-241.2,-234.9,-302.1,-214.2,-373.8,-246.6,-205.2,-362.7,-2445.3,-297.0,-111.6,-356.1,-4477.5,-9827.4,-7473.0,-6681.9,-6.9,-5.7,-519.0,-499.8,-0.9,-94.8,-145.5,-257.1,0,666,0,96,0, 
0.3733,-238.5,-236.1,-420.3,-209.7,-371.4,-237.6,-191.4,-360.0,-2593.5,-298.8,-104.7,-352.2,-4758.3,-9827.4,-7236.9,-6335.4,-7.5,-6.0,-510.9,-498.6,-0.6,-98.4,-141.3,-249.3,0,672,0,97,0, 
0.3767,-238.2,-232.8,-313.8,-207.6,-378.6,-244.8,-207.6,-357.6,-2667.6,-301.5,-100.2,-351.3,-4802.1,-9827.4,-7456.2,-6398.1,-6.9,-5.7,-504.0,-492.0,-0.6,-84.0,-147.0,-249.9,0,678,0,98,0, 
0.3800,-234.3,-228.9,-48.0,-207.9,-377.4,-240.3,-212.4,-357.0,-2593.5,-278.1,-100.2,-343.2,-4552.8,-9827.4,-7735.2,-6708.3,-7.2,-6.3,-506.1,-492.3,-0.9,-85.5,-148.5,-255.6,0,684,0,99,0, 
0.3833,-236.4,-233.4,-38.4,-205.5,-387.0,-247.8,-222.9,-360.6,-2519.4,-286.8,-101.4,-344.7,-4400.1,-9827.4,-7814.4,-6932.7,-6.9,-5.7,-506.4,-495.6,-0.9,-84.0,-154.5,-251.7,0,690,0,100,0, 
0.3867,-239.4,-235.8,-223.8,-207.9,-384.6,-249.6,-220.8,-364.8,-2445.3,-286.5,-105.3,-347.4,-4528.5,-9827.4,-7515.6,-6735.0,-6.9,-5.7,-510.9,-496.2,-0.6,-84.3,-159.3,-249.0,0,696,0,101,0, 
0.3900,-240.0,-237.0,-370.8,-209.7,-377.1,-244.2,-204.6,-366.0,-2593.5,-286.2,-104.1,-343.2,-4761.0,-9827.4,-7374.9,-6364.2,-6.9,-6.0,-510.0,-491.7,-0.6,-84.3,-153.9,-240.9,0,702,0,102,0, 
0.3933,-237.9,-236.7,-241.2,-208.5,-377.4,-249.0,-206.4,-362.1,-2519.4,-281.1,-102.3,-342.6,-4764.3,-9827.4,-7490.4,-6379.2,-7.2,-6.0,-505.5,-491.7,-0.6,-90.0,-159.3,-244.8,0,708,0,103,0, 
0.3967,-240.6,-233.7,-54.3,-210.9,-390.9,-248.4,-210.0,-366.0,-2519.4,-289.8,-102.6,-344.7,-4529.1,-9827.4,-7828.2,-6764.1,-6.9,-6.0,-505.5,-494.4,-0.9,-87.3,-158.7,-253.2,0,714,0,104,0, 
0.4000,-237.6,-231.3,-82.2,-204.9,-376.2,-244.5,-216.9,-365.7,-2519.4,-288.6,-99.9,-340.8,-4320.6,-9827.4,-7833.3,-6957.6,-6.9,-5.7,-507.3,-493.2,-1.2,-79.5,-156.9,-241.8,0,720,0,105,0, 
0.4033,-238.2,-236.4,-264.9,-206.4,-363.3,-245.4,-216.0,-366.9,-2519.4,-270.6,-99.3,-343.2,-4434.0,-9827.4,-7478.4,-6747.6,-7.2,-6.0,-510.9,-487.2,-0.6,-75.6,-154.2,-234.0,0,726,0,106,0, 
0.4067,-239.4,-242.1,-464.4,-210.0,-376.5,-251.7,-213.0,-368.1,-2445.3,-273.9,-96.9,-346.2,-4643.7,-9827.4,-7268.7,-6416.4,-6.9,-5.7,-500.7,-492.0,-0.6,-86.7,-154.2,-247.5,0,732,0,107,0, 
0.4100,-239.1,-236.4,-297.0,-203.1,-377.4,-250.8,-213.9,-366.3,-2519.4,-271.5,-98.1,-345.6,-4694.1,-9827.4,-7490.4,-6438.0,-6.9,-6.3,-497.7,-495.9,-0.9,-87.3,-161.4,-254.4,0,738,0,108,0, 
0.4133,-241.5,-239.1,-144.9,-209.7,-398.4,-258.0,-229.8,-378.9,-2519.4,-271.8,-103.2,-347.7,-4509.6,-9827.4,-7864.5,-6796.8,-6.6,-6.3,-507.0,-499.2,-0.6,-96.0,-169.2,-260.7,0,744,0,109,0, 
0.4167,-234.0,-232.8,-78.0,-201.6,-398.1,-246.3,-221.1,-371.7,-2519.4,-276.6,-102.0,-343.8,-4343.7,-9827.4,-7831.8,-6977.7,-7.2,-5.7,-502.2,-493.5,-0.9,-84.0,-162.6,-258.6,0,750,0,110,0, 
0.4200,-232.8,-242.4,-239.1,-209.7,-405.9,-248.4,-209.7,-373.5,-2445.3,-279.0,-106.5,-354.3,-4459.8,-9827.4,-7565.1,-6693.0,-6.6,-6.3,-507.9,-499.8,-0.6,-81.6,-150.6,-257.4,0,756,0,111,0, 
0.4233,-238.2,-234.9,-419.4,-212.7,-396.0,-255.0,-207.0,-377.7,-2445.3,-281.7,-109.8,-357.6,-4650.0,-9827.4,-7322.7,-6378.3,-7.2,-6.0,-511.8,-501.3,-0.9,-94.2,-144.9,-257.1,0,762,0,112,0, 
0.4267,-237.0,-238.2,-300.0,-214.8,-387.0,-248.1,-198.9,-375.9,-2519.4,-281.1,-109.5,-351.3,-4661.7,-9827.4,-7478.4,-6401.4,-6.3,-6.3,-507.6,-496.5,-0.9,-89.4,-141.6,-265.2,0,768,0,113,0, 
0.4300,-239.1,-243.0,-126.3,-218.7,-384.9,-254.4,-210.9,-375.9,-2667.6,-276.6,-113.4,-352.5,-4486.2,-9827.4,-7831.5,-6785.1,-6.9,-6.0,-516.0,-502.8,-0.6,-85.2,-141.3,-249.3,0,774,0,114,0, 
0.4333,-238.5,-241.5,-138.3,-213.3,-379.8,-257.1,-210.3,-373.2,-2445.3,-281.7,-112.5,-351.9,-4323.6,-9827.4,-7867.5,-6971.4,-6.9,-6.0,-515.7,-496.8,-0.6,-80.4,-140.7,-257.1,0,780,0,115,0, 
0.4367,-237.0,-236.4,-343.5,-210.6,-384.3,-252.3,-189.0,-369.9,-2667.6,-278.7,-108.0,-351.6,-4431.3,-9827.4,-7519.2,-6730.8,-6.9,-5.7,-509.4,-496.5,-0.9,-87.9,-135.3,-249.3,0,786,0,116,0, 
0.4400,-240.6,-246.3,-457.5,-209.7,-369.0,-248.7,-189.6,-371.7,-2445.3,-280.8,-114.3,-347.7,-4628.1,-9827.4,-7321.5,-6287.1,-6.9,-5.7,-510.0,-492.6,-0.9,-82.5,-139.2,-243.3,0,792,0,117,0, 
0.4433,-237.6,-232.8,-380.7,-206.7,-374.7,-249.0,-190.8,-371.7,-2593.5,-283.5,-113.7,-351.9,-4729.2,-9827.4,-7497.9,-6335.4,-7.2,-6.0,-506.4,-494.4,-0.9,-92.1,-139.8,-240.6,0,798,0,118,0, 
0.4467,-246.3,-242.4,-176.4,-210.3,-391.5,-257.7,-208.8,-379.5,-2593.5,-288.9,-110.4,-354.6,-4523.1,-9827.4,-7887.9,-6735.3,-6.9,-5.7,-522.3,-494.7,-1.2,-79.8,-154.5,-263.1,0,804,0,119,0, 
0.4500,-240.0,-231.6,-168.3,-200.4,-391.2,-251.1,-197.1,-373.2,-2519.4,-294.0,-107.7,-351.3,-4348.5,-9827.4,-7898.4,-6916.8,-6.9,-6.0,-515.4,-490.8,-0.9,-90.3,-144.9,-248.7,0,810,0,120,0, 
0.4533,-240.9,-233.7,-264.3,-201.9,-379.8,-256.5,-205.5,-375.3,-2519.4,-282.3,-109.2,-348.6,-4445.4,-9827.4,-7570.8,-6671.7,-6.9,-6.0,-512.1,-487.5,-0.9,-85.8,-144.0,-254.4,0,816,0,121,0, 
0.4567,-240.6,-228.0,-453.3,-192.6,-346.8,-252.3,-210.6,-368.7,-2519.4,-281.7,-103.5,-345.6,-4689.6,-9827.4,-7308.0,-6306.6,-7.2,-6.0,-500.7,-485.7,-0.6,-87.3,-145.5,-257.1,0,822,0,122,0, 
0.4600,-239.7,-228.3,-324.9,-194.1,-367.8,-250.2,-209.4,-369.3,-2519.4,-274.2,-99.0,-343.2,-4730.7,-9827.4,-7504.2,-6306.6,-6.9,-6.0,-498.6,-483.0,-0.6,-89.1,-149.1,-254.1,0,828,0,123,0, 
0.4633,-236.7,-221.7,-132.9,-186.0,-354.0,-244.2,-212.4,-361.8,-2519.4,-269.1,-89.1,-332.7,-4516.5,-9827.4,-7793.7,-6697.8,-7.2,-6.3,-493.2,-474.9,-0.9,-77.4,-148.2,-249.3,0,834,0,124,0, 
0.4667,-238.8,-220.8,-63.0,-185.4,-356.1,-248.7,-219.3,-369.6,-2519.4,-276.6,-90.0,-334.2,-4365.0,-9827.4,-7764.3,-6870.0,-6.6,-5.7,-489.9,-482.1,-0.6,-87.6,-154.2,-252.9,0,840,0,125,0, 
0.4700,-236.4,-215.4,-273.9,-184.8,-349.5,-241.8,-201.0,-363.9,-2371.2,-276.9,-86.4,-330.3,-4492.8,-9827.4,-7548.3,-6635.1,-6.9,-5.7,-490.5,-474.0,-0.9,-75.9,-152.1,-251.4,0,846,0,126,0, 
0.4733,-233.7,-220.8,-368.4,-185.7,-333.3,-243.6,-201.9,-366.0,-2445.3,-261.6,-87.0,-333.6,-4708.8,-9827.4,-7243.2,-6288.3,-6.9,-6.3,-493.8,-467.1,-0.6,-65.7,-146.7,-246.6,0,852,0,127,0, 
0.4767,-234.6,-221.7,-288.6,-187.2,-347.1,-247.8,-216.6,-369.0,-2593.5,-264.6,-91.8,-336.6,-4780.2,-9827.4,-7445.4,-6314.4,-6.9,-5.7,-496.8,-475.2,-0.6,-73.5,-145.2,-251.4,0,858,0,128,0, 
0.4800,-238.5,-220.5,-76.2,-188.4,-358.2,-244.2,-212.4,-371.1,-2741.7,-273.9,-96.0,-334.5,-4572.6,-9827.4,-7735.5,-6606.6,-6.6,-5.4,-499.5,-480.6,-0.6,-77.1,-145.5,-251.7,0,864,0,129,0, 
0.4833,-235.5,-222.6,-110.4,-186.3,-352.5,-242.7,-222.3,-367.8,-2297.1,-263.4,-94.8,-331.8,-4383.0,-9827.4,-7767.3,-6837.0,-6.9,-6.3,-496.2,-474.3,-0.9,-68.7,-147.6,-259.8,0,870,0,130,0, 
0.4867,-239.4,-227.4,-332.4,-187.2,-345.0,-239.7,-219.3,-372.3,-2519.4,-268.8,-96.9,-335.7,-4503.3,-9827.4,-7413.9,-6596.4,-6.9,-6.0,-498.6,-479.4,-0.6,-81.3,-144.0,-257.1,0,876,0,131,0, 
0.4900,-239.7,-228.9,-450.9,-185.7,-354.3,-240.3,-205.2,-370.8,-2445.3,-272.4,-96.9,-336.3,-4766.4,-9827.4,-7237.8,-6274.2,-6.9,-5.7,-501.0,-481.8,-0.6,-89.7,-149.4,-258.6,0,882,0,132,0, 
0.4933,-237.6,-215.7,-325.8,-174.6,-349.5,-237.0,-203.4,-358.8,-2445.3,-276.0,-92.1,-331.5,-4798.5,-9827.4,-7446.3,-6288.3,-6.6,-6.0,-496.8,-471.6,-0.9,-66.6,-147.9,-250.2,0,888,0,133,0, 
0.4967,-239.1,-220.2,-95.7,-181.2,-366.3,-244.2,-218.4,-367.2,-2593.5,-262.5,-91.2,-333.3,-4577.1,-9827.4,-7775.4,-6697.5,-6.9,-5.4,-490.2,-474.3,-1.2,-83.1,-154.2,-259.8,0,894,0,134,0, 
0.5000,-238.2,-223.5,-62.1,-187.8,-369.9,-240.9,-216.9,-368.7,-2593.5,-281.4,-96.6,-342.0,-4367.1,-9827.4,-7764.0,-6853.8,-6.6,-5.7,-499.5,-478.8,-0.9,-81.3,-153.0,-243.0,0,900,0,135,0, 
0.5033,-237.0,-224.1,-272.4,-188.1,-361.2,-242.7,-206.4,-366.6,-2593.5,-271.8,-97.8,-336.3,-4485.0,-9827.4,-7471.2,-6556.2,-6.9,-6.0,-498.3,-478.2,-0.6,-83.7,-147.0,-243.3,0,906,0,136,0, 
0.5067,-234.0,-223.8,-431.7,-189.3,-350.4,-243.9,-198.3,-364.5,-2593.5,-283.2,-97.2,-338.4,-4717.8,-9827.4,-7233.9,-6238.5,-7.2,-6.3,-492.6,-485.1,-0.9,-81.0,-148.8,-255.9,0,912,0,137,0, 
0.5100,-229.8,-225.0,-280.2,-189.6,-359.7,-241.2,-204.0,-363.3,-2593.5,-270.3,-95.1,-336.9,-4798.2,-9827.4,-7485.3,-6297.6,-6.9,-5.7,-494.1,-481.8,-0.9,-77.1,-150.0,-243.6,0,918,0,138,0, 
0.5133,-237.0,-231.6,-16.2,-199.2,-367.8,-244.5,-221.7,-363.3,-2593.5,-291.9,-105.0,-348.6,-4578.9,-9827.4,-7752.0,-6660.6,-6.9,-6.0,-502.8,-493.2,-0.9,-102.6,-156.6,-258.6,0,924,0,139,0, 
0.5167,-233.1,-221.1,6.0,-193.2,-359.4,-247.2,-219.6,-357.0,-2519.4,-288.3,-104.1,-347.7,-4414.5,-9827.4,-7783.8,-6859.8,-6.6,-5.7,-501.9,-491.1,-0.9,-101.7,-157.8,-257.4,0,930,0,140,0, 
0.5200,-233.7,-227.1,-208.2,-197.4,-357.0,-251.7,-217.2,-360.9,-2371.2,-296.1,-109.5,-353.1,-4573.5,-9827.4,-7431.0,-6578.7,-7.5,-6.0,-505.5,-496.5,-0.6,-101.1,-155.4,-250.5,0,936,0,141,0, 
0.5233,-231.6,-217.2,-382.8,-196.8,-351.0,-245.1,-209.1,-352.2,-2593.5,-295.2,-108.3,-356.1,-4747.2,-9827.4,-7221.9,-6218.4,-6.6,-6.0,-509.1,-500.7,-0.6,-101.4,-152.7,-246.3,0,942,0,142,0, 
0.5267,-231.9,-216.3,-299.7,-199.8,-368.4,-248.7,-219.3,-351.0,-2519.4,-289.2,-110.4,-353.7,-4782.6,-9827.4,-7452.0,-6238.2,-7.2,-6.0,-503.7,-502.8,-0.9,-103.5,-154.8,-264.3,0,948,0,143,0, 
0.5300,-234.6,-222.0,15.0,-199.5,-382.5,-252.0,-223.8,-353.4,-2667.6,-290.7,-110.7,-350.7,-4561.8,-9827.4,-7744.8,-6589.8,-6.6,-6.0,-510.3,-498.9,-0.9,-97.5,-164.1,-264.3,0,954,0,144,0, 
0.5333,-234.6,-220.5,-33.0,-201.6,-390.3,-246.0,-223.5,-350.4,-2667.6,-295.5,-111.3,-352.2,-4436.4,-9827.4,-7752.3,-6861.9,-7.2,-6.3,-507.9,-500.1,-0.9,-112.2,-158.1,-254.4,0,960,0,145,0, 
0.5367,-230.7,-217.5,-277.2,-201.6,-367.8,-243.0,-218.7,-347.4,-2445.3,-283.8,-113.1,-350.1,-4546.8,-9827.4,-7508.7,-6604.8,-6.9,-6.0,-508.8,-495.3,-0.9,-87.0,-152.4,-250.2,0,966,0,146,0, 
0.5400,-234.0,-218.7,-402.6,-208.5,-363.0,-244.8,-211.5,-354.0,-2519.4,-286.5,-106.8,-357.0,-4756.5,-9827.4,-7178.7,-6180.9,-7.2,-5.4,-503.1,-497.7,-0.9,-87.9,-150.0,-246.0,0,972,0,147,0, 
0.5433,-231.0,-211.5,-344.1,-203.1,-370.8,-244.5,-208.5,-354.6,-2519.4,-279.3,-106.2,-353.4,-4770.3,-9827.4,-7391.7,-6274.5,-6.6,-5.4,-507.3,-495.0,-0.6,-86.4,-156.3,-247.2,0,978,0,148,0, 
0.5467,-228.0,-217.2,-84.9,-199.5,-366.6,-240.3,-225.6,-349.5,-2593.5,-279.3,-103.2,-344.7,-4584.0,-9827.4,-7681.5,-6587.1,-6.9,-5.7,-502.5,-483.0,-0.6,-82.5,-147.0,-249.3,0,984,0,149,0, 
0.5500,-233.4,-219.0,-32.1,-198.6,-367.2,-243.9,-226.5,-356.1,-2593.5,-281.4,-103.8,-346.8,-4406.1,-9827.4,-7696.8,-6738.0,-6.9,-5.7,-498.0,-481.8,-0.6,-93.6,-154.5,-252.0,0,990,0,150,0, 
0.5533,-237.3,-217.2,-270.9,-201.9,-370.8,-252.9,-225.0,-354.0,-2445.3,-278.7,-106.2,-351.3,-4526.7,-9827.4,-7395.6,-6552.0,-6.9,-5.7,-499.2,-491.1,-1.2,-100.8,-156.9,-253.2,0,996,0,151,0, 
0.5567,-234.6,-222.3,-367.2,-201.9,-362.4,-254.7,-211.8,-355.5,-2593.5,-279.9,-107.7,-348.9,-4741.2,-9827.4,-7188.6,-6205.2,-6.3,-6.0,-504.0,-491.7,-1.2,-87.9,-155.1,-259.2,0,1002,0,152,0, 
0.5600,-235.5,-219.6,-230.7,-199.2,-355.2,-247.2,-216.0,-347.4,-2593.5,-274.8,-104.4,-344.1,-4779.9,-9827.4,-7327.2,-6192.9,-6.9,-6.0,-498.9,-487.2,-0.6,-75.6,-147.0,-256.8,0,1008,0,153,0, 
0.5633,-235.8,-219.3,-19.5,-204.0,-381.6,-253.2,-222.0,-349.8,-2667.6,-275.7,-104.1,-351.0,-4638.6,-9827.4,-7695.3,-6563.1,-6.9,-6.0,-502.8,-496.8,-1.2,-84.3,-153.0,-254.7,0,1014,0,154,0, 
0.5667,-234.3,-221.1,-15.3,-202.8,-372.6,-246.6,-217.2,-343.5,-2593.5,-268.5,-101.4,-350.7,-4471.8,-9827.4,-7756.8,-6795.3,-6.6,-5.7,-500.4,-495.3,-0.9,-92.4,-147.6,-258.3,0,1020,0,155,0, 
0.5700,-236.1,-227.1,-243.9,-202.8,-368.7,-250.5,-213.0,-347.1,-2519.4,-276.6,-99.9,-346.2,-4549.5,-9827.4,-7402.8,-6536.4,-7.2,-6.0,-497.4,-494.4,-1.2,-96.6,-148.8,-244.5,0,1026,0,156,0, 
0.5733,-243.3,-230.4,-391.8,-202.5,-368.1,-242.7,-212.4,-343.8,-2445.3,-282.3,-98.7,-348.6,-4788.0,-9827.4,-7163.7,-6118.5,-6.6,-5.7,-492.6,-491.7,-1.2,-92.7,-149.1,-231.9,0,1032,0,157,0, 
0.5767,-240.3,-231.6,-257.1,-206.4,-372.0,-248.7,-213.6,-345.3,-2519.4,-270.3,-106.5,-357.3,-4827.0,-9827.4,-7285.2,-6185.1,-6.9,-6.0,-504.3,-502.2,-0.9,-90.3,-156.9,-255.6,0,1038,0,158,0, 
0.5800,-239.4,-239.1,-78.9,-209.1,-373.5,-240.6,-220.2,-345.3,-2519.4,-279.9,-110.7,-356.1,-4665.6,-9827.4,-7652.1,-6585.0,-6.6,-6.0,-505.8,-503.7,-0.6,-84.3,-155.7,-246.9,0,1044,0,159,0, 
0.5833,-243.6,-243.0,-25.2,-210.6,-379.2,-252.6,-216.9,-353.7,-2593.5,-279.0,-111.9,-354.9,-4505.4,-9827.4,-7641.6,-6746.4,-6.6,-6.3,-509.1,-499.2,-0.6,-92.7,-156.3,-247.2,0,1050,0,160,0, 
0.5867,-241.8,-245.4,-245.1,-213.3,-368.7,-246.6,-204.9,-355.8,-2519.4,-287.4,-112.5,-351.9,-4620.6,-9827.4,-7376.1,-6456.3,-6.3,-6.0,-512.4,-496.8,-0.9,-91.8,-151.8,-239.7,0,1056,0,161,0, 
0.5900,-240.0,-240.3,-373.2,-209.7,-365.7,-245.7,-195.9,-357.6,-2519.4,-275.1,-109.5,-354.0,-4792.2,-9827.4,-7155.6,-6077.4,-6.9,-6.0,-507.9,-501.0,-0.9,-94.2,-150.0,-227.7,0,1062,0,162,0, 
0.5933,-237.9,-235.2,-264.9,-205.2,-362.4,-242.4,-204.6,-351.9,-2593.5,-285.0,-109.8,-353.4,-4848.6,-9827.4,-7307.1,-6166.5,-6.3,-6.0,-512.1,-503.7,-0.6,-86.7,-154.8,-231.6,0,1068,0,163,0, 
0.5967,-240.9,-236.7,-83.4,-210.6,-368.4,-250.5,-216.9,-356.4,-2519.4,-282.0,-114.0,-358.8,-4647.3,-9827.4,-7638.0,-6545.1,-6.6,-5.7,-516.6,-509.1,-0.9,-94.8,-158.1,-243.3,0,1074,0,164,0, 
0.6000,-237.0,-232.5,7.2,-212.1,-380.1,-246.3,-218.7,-356.7,-2593.5,-289.5,-119.1,-363.6,-4478.7,-9827.4,-7614.9,-6730.2,-6.9,-6.3,-512.4,-519.9,-0.9,-106.2,-159.3,-233.7,0,1080,0,165,0, 
0.6033,-240.3,-234.6,-240.9,-216.0,-387.6,-252.0,-213.6,-358.8,-2519.4,-290.4,-119.4,-367.2,-4629.0,-9827.4,-7345.2,-6511.8,-7.2,-5.7,-512.1,-516.9,-1.2,-119.1,-156.3,-234.9,0,1086,0,166,0, 
0.6067,-233.7,-227.7,-145.5,-213.6,-346.5,-252.3,-193.5,-359.7,-2445.3,-284.1,-114.3,-363.0,-4645.2,-9827.4,-6769.8,-5884.5,-6.9,-6.0,-506.4,-509.7,-1.2,-102.3,-151.2,-250.8,0,1092,0,167,0, 
0.6100,-228.9,-223.5,129.9,-206.4,-360.0,-247.8,-209.4,-354.3,-2445.3,-278.1,-106.5,-354.3,-4592.4,-9827.4,-6748.2,-5876.1,-6.9,-5.7,-501.3,-500.7,-0.9,-93.9,-154.8,-247.2,0,1098,0,168,0, 
0.6133,-228.6,-223.8,161.1,-203.1,-372.9,-244.5,-219.6,-351.9,-2593.5,-268.2,-106.5,-351.6,-4504.2,-9827.4,-7292.7,-6421.2,-6.6,-6.0,-499.8,-495.9,-0.9,-85.2,-154.8,-252.6,0,1104,0,169,0, 
0.6167,-230.7,-228.9,138.3,-207.6,-374.1,-250.8,-216.6,-353.4,-2667.6,-288.3,-108.3,-355.8,-4362.0,-9827.4,-7357.5,-6609.0,-6.6,-5.7,-504.6,-501.3,-0.9,-95.7,-154.8,-248.1,0,1110,0,170,0, 
0.6200,-227.4,-222.6,-141.6,-201.9,-378.3,-241.2,-200.7,-347.7,-2519.4,-273.6,-104.7,-350.7,-4502.1,-9827.4,-7108.8,-6392.7,-6.9,-5.7,-498.0,-494.1,-0.9,-89.7,-150.3,-241.5,0,1116,0,171,0, 
0.6233,-225.6,-221.1,-383.7,-201.0,-365.4,-243.0,-205.2,-348.9,-2519.4,-314.4,-110.4,-355.8,-4831.2,-9827.4,-7024.5,-6133.8,-6.9,-6.3,-506.4,-497.4,-1.2,-87.9,-147.6,-237.3,0,1122,0,172,0, 
0.6267,-227.7,-228.6,-221.4,-195.6,-363.6,-238.2,-217.2,-351.3,-2371.2,-279.3,-107.4,-356.7,-4880.7,-9827.4,-7251.0,-6112.5,-6.6,-6.0,-501.3,-494.7,-0.9,-76.2,-142.8,-229.8,0,1128,0,173,0, 
0.6300,-221.1,-221.4,57.0,-189.0,-364.5,-234.0,-203.4,-344.4,-2593.5,-273.6,-97.8,-342.9,-4650.6,-9827.4,-7534.2,-6483.6,-6.9,-6.6,-491.7,-483.3,-0.9,-75.6,-139.5,-220.2,0,1134,0,174,0, 
0.6333,-222.0,-215.7,54.6,-180.6,-354.0,-228.6,-198.0,-335.7,-2445.3,-265.2,-89.4,-333.9,-4398.9,-9827.4,-7595.1,-6671.4,-6.9,-6.0,-483.3,-483.9,-0.6,-66.0,-134.7,-222.9,0,1140,0,175,0, 
0.6367,-221.7,-218.7,-225.3,-182.4,-345.6,-233.4,-192.3,-333.9,-2519.4,-262.8,-97.2,-336.0,-4498.8,-9827.4,-7287.0,-6432.6,-6.9,-6.0,-485.1,-489.0,-0.6,-76.2,-131.7,-222.0,0,1146,0,176,0, 
0.6400,-225.3,-219.0,-434.4,-184.5,-345.9,-233.7,-193.8,-334.5,-2519.4,-262.5,-96.0,-334.8,-4767.6,-9827.4,-7084.8,-6130.2,-6.6,-6.3,-489.3,-483.0,-0.9,-75.3,-132.6,-225.3,0,1152,0,177,0, 
0.6433,-222.6,-215.4,-283.5,-187.8,-353.1,-235.8,-196.5,-335.7,-2519.4,-273.0,-93.6,-339.9,-4881.6,-9827.4,-7253.4,-6137.4,-6.6,-6.0,-491.4,-485.4,-0.3,-80.1,-140.1,-225.6,0,1158,0,178,0, 
0.6467,-225.3,-228.0,-77.4,-191.4,-368.1,-235.8,-203.1,-339.9,-2667.6,-267.9,-96.6,-339.3,-4656.3,-9827.4,-7592.7,-6571.2,-7.2,-6.6,-492.6,-489.9,-1.2,-83.7,-140.4,-234.0,0,1164,0,179,0, 
0.6500,-222.3,-227.4,-23.1,-190.5,-366.3,-237.3,-202.5,-335.7,-2593.5,-276.6,-98.1,-337.5,-4423.8,-9827.4,-7512.6,-6706.8,-6.6,-6.3,-487.2,-487.2,-0.9,-77.7,-136.5,-234.0,0,1170,0,180,0, 
0.6533,-224.4,-228.9,-249.6,-190.5,-362.7,-230.4,-198.0,-334.5,-2371.2,-262.5,-95.1,-334.8,-4556.7,-9827.4,-7167.9,-6519.9,-6.6,-5.7,-486.9,-488.4,-0.9,-73.8,-132.0,-228.6,0,1176,0,181,0, 
0.6567,-227.1,-227.1,-405.3,-188.1,-351.9,-223.2,-201.3,-331.5,-2371.2,-261.0,-94.5,-335.1,-4838.7,-9827.4,-7023.3,-6149.7,-6.9,-5.7,-487.2,-483.3,-0.9,-77.1,-132.0,-234.3,0,1182,0,182,0, 
0.6600,-226.2,-227.1,-310.2,-188.1,-338.4,-232.5,-202.8,-331.5,-2593.5,-260.4,-94.5,-336.9,-4850.1,-9827.4,-7146.0,-6142.8,-7.2,-6.3,-489.9,-481.2,-0.9,-73.2,-140.1,-231.3,0,1188,0,183,0, 
0.6633,-225.6,-221.1,-43.8,-193.8,-365.4,-234.6,-207.3,-329.7,-2519.4,-266.7,-103.5,-343.2,-4635.9,-9827.4,-7455.0,-6486.0,-6.9,-6.0,-496.2,-492.0,-0.6,-73.8,-141.6,-237.6,0,1194,0,184,0, 
0.6667,-234.3,-231.9,-19.2,-195.9,-362.4,-232.2,-214.5,-334.5,-2519.4,-269.7,-109.5,-348.3,-4423.8,-9827.4,-7446.6,-6711.3,-6.6,-5.7,-498.9,-491.4,-1.2,-74.1,-141.0,-230.7,0,1200,0,185,0, 
0.6700,-234.9,-234.3,-188.1,-197.1,-366.9,-236.4,-212.1,-331.2,-2519.4,-279.6,-112.2,-350.7,-4569.6,-9827.4,-7188.0,-6530.1,-7.2,-6.0,-502.5,-492.9,-0.9,-78.3,-133.2,-240.9,0,1206,0,186,0, 
0.6733,-235.8,-234.0,-357.3,-192.9,-357.9,-230.4,-207.0,-330.3,-2445.3,-267.0,-107.4,-353.1,-4812.9,-9827.4,-6987.0,-6180.0,-6.9,-5.4,-503.1,-490.8,-0.9,-74.4,-132.3,-240.3,0,1212,0,187,0, 
0.6767,-236.7,-231.9,-226.2,-195.3,-355.5,-235.8,-216.3,-335.4,-2445.3,-276.6,-110.4,-354.9,-4871.1,-9827.4,-7218.6,-6192.6,-7.5,-6.3,-502.2,-492.6,-1.5,-85.2,-135.9,-236.7,0,1218,0,188,0, 
0.6800,-240.9,-240.9,-47.4,-205.2,-380.1,-240.9,-220.2,-347.1,-2593.5,-283.5,-114.9,-351.6,-4695.0,-9827.4,-7507.2,-6557.7,-6.9,-5.7,-508.5,-490.5,-0.6,-78.6,-139.2,-242.4,0,1224,0,189,0, 
0.6833,-237.9,-237.9,5.7,-205.2,-379.5,-237.9,-214.2,-353.7,-2667.6,-272.7,-118.2,-357.0,-4530.0,-9827.4,-7555.5,-6774.0,-7.2,-6.3,-512.7,-496.8,-1.5,-81.3,-143.1,-236.1,0,1230,0,190,0, 
0.6867,-236.4,-236.4,-156.9,-204.9,-359.7,-240.6,-209.4,-359.7,-2445.3,-281.1,-115.5,-357.0,-4554.3,-9827.4,-7090.2,-6458.4,-6.9,-6.3,-510.3,-497.7,-0.9,-80.7,-138.3,-241.5,0,1236,0,191,0, 
0.6900,-233.4,-229.8,-393.9,-201.9,-351.6,-238.5,-205.2,-354.0,-2593.5,-282.6,-114.0,-353.7,-4862.4,-9827.4,-6963.0,-6128.4,-6.9,-6.0,-507.0,-496.5,-0.9,-89.1,-131.1,-235.5,0,1242,0,192,0, 
0.6933,-230.4,-226.2,-285.9,-203.4,-371.4,-241.5,-204.0,-350.4,-2593.5,-276.3,-118.8,-356.7,-4893.9,-9827.4,-7063.2,-6190.8,-6.6,-5.7,-514.5,-497.7,-0.9,-81.9,-142.5,-238.5,0,1248,0,193,0, 
0.6967,-234.6,-237.0,-40.2,-204.3,-380.7,-244.5,-224.4,-347.7,-2519.4,-279.6,-117.9,-357.9,-4704.9,-9827.4,-7464.3,-6589.2,-6.6,-5.7,-510.3,-500.7,-0.9,-75.6,-146.4,-229.8,0,1254,0,194,0, 
0.7000,-233.7,-231.6,-40.8,-206.4,-374.7,-242.7,-214.2,-345.9,-2519.4,-278.7,-120.3,-361.5,-4503.0,-9827.4,-7497.3,-6791.1,-6.9,-5.7,-507.6,-501.6,-0.9,-88.2,-149.1,-230.1,0,1260,0,195,0, 
0.7033,-234.9,-230.1,-251.4,-207.6,-380.1,-248.7,-215.7,-355.2,-2371.2,-286.8,-121.5,-361.2,-4617.6,-9827.4,-7233.0,-6510.3,-6.9,-6.0,-515.4,-500.7,-0.6,-90.3,-150.9,-233.1,0,1266,0,196,0, 
0.7067,-231.3,-225.9,-391.8,-201.9,-348.6,-243.9,-214.8,-349.2,-2445.3,-286.5,-113.7,-355.8,-4827.0,-9827.4,-7036.5,-6141.0,-6.9,-6.0,-506.4,-498.6,-0.9,-84.9,-148.2,-228.6,0,1272,0,197,0, 
0.7100,-231.0,-215.7,-239.1,-197.4,-354.3,-239.1,-200.7,-347.7,-2815.8,-274.5,-109.2,-354.9,-4912.5,-9827.4,-7226.4,-6110.1,-6.6,-5.7,-501.3,-501.9,-0.9,-86.1,-149.4,-222.3,0,1278,0,198,0, 
0.7133,-233.4,-218.4,-78.3,-204.6,-367.2,-241.2,-229.5,-352.2,-2519.4,-288.6,-117.6,-359.1,-4764.0,-9827.4,-7492.5,-6552.3,-6.9,-6.0,-508.2,-510.3,-0.9,-102.6,-164.1,-227.7,0,1284,0,199,0, 
0.7167,-231.3,-224.7,-25.5,-198.9,-357.0,-247.5,-225.6,-348.0,-2741.7,-274.5,-112.5,-355.2,-4570.8,-9827.4,-7531.5,-6802.2,-6.3,-6.0,-506.1,-501.6,-0.9,-82.5,-150.0,-235.8,0,1290,0,200,0, 
0.7200,-236.7,-234.0,-275.7,-205.2,-374.1,-256.2,-216.0,-348.3,-2593.5,-284.4,-112.8,-360.3,-4648.5,-9827.4,-7209.3,-6460.5,-6.9,-6.0,-499.8,-511.5,-0.9,-92.4,-155.7,-238.5,0,1296,0,201,0, 
0.7233,-232.2,-228.3,-383.1,-203.7,-363.9,-252.0,-205.5,-348.0,-2519.4,-277.8,-113.1,-351.6,-4848.9,-9827.4,-6944.7,-6117.0,-6.9,-6.0,-503.1,-509.1,-0.9,-85.2,-144.9,-237.9,0,1302,0,202,0, 
0.7267,-235.5,-221.7,-272.1,-202.5,-361.5,-250.8,-215.4,-348.0,-2593.5,-283.8,-113.4,-350.7,-4929.3,-9827.4,-7190.4,-6179.1,-7.2,-5.7,-501.9,-503.4,-0.6,-91.5,-150.9,-242.1,0,1308,0,203,0, 
0.7300,-242.1,-227.4,8.4,-207.0,-366.3,-250.2,-223.5,-354.0,-2593.5,-272.4,-111.9,-354.3,-4740.3,-9827.4,-7426.8,-6585.6,-6.9,-5.7,-501.3,-501.0,-0.9,-91.5,-151.5,-235.5,0,1314,0,204,0, 
0.7333,-237.6,-224.4,46.5,-203.1,-374.1,-246.3,-226.2,-354.0,-2667.6,-278.4,-107.1,-350.7,-4571.4,-9827.4,-7486.2,-6768.6,-6.6,-5.7,-499.5,-498.3,-1.2,-82.5,-146.7,-232.8,0,1320,0,205,0, 
0.7367,-241.8,-224.7,-165.6,-199.8,-374.1,-248.4,-222.0,-352.5,-2445.3,-267.9,-107.4,-351.6,-4680.3,-9827.4,-7226.1,-6539.1,-6.6,-6.0,-496.8,-498.9,-0.3,-72.0,-135.6,-243.9,0,1326,0,206,0, 
0.7400,-237.3,-222.9,-351.9,-199.8,-370.8,-243.3,-207.6,-348.0,-2445.3,-272.7,-109.5,-350.7,-4908.6,-9827.4,-6951.9,-6227.4,-6.9,-5.7,-496.5,-496.5,-0.9,-90.9,-131.7,-234.3,0,1332,0,207,0, 
0.7433,-241.8,-226.5,-289.8,-200.4,-367.8,-242.7,-208.8,-345.0,-2519.4,-275.4,-110.4,-351.6,-4956.3,-9827.4,-7101.9,-6170.1,-6.6,-6.0,-500.1,-491.4,-0.6,-79.5,-139.8,-234.6,0,1338,0,208,0, 
0.7467,-236.1,-223.2,-9.3,-198.3,-366.3,-238.8,-224.1,-338.1,-2593.5,-266.4,-110.4,-344.7,-4715.4,-9827.4,-7436.7,-6506.7,-6.9,-6.0,-493.8,-481.5,-0.6,-78.3,-142.2,-231.9,0,1344,0,209,0, 
0.7500,-239.4,-219.0,-48.3,-192.3,-363.9,-224.7,-225.6,-331.2,-2667.6,-271.2,-103.5,-347.4,-4534.8,-9827.4,-7434.6,-6726.3,-6.6,-6.0,-496.8,-480.3,-0.9,-59.4,-136.5,-223.5,0,1350,0,210,0, 
0.7533,-240.0,-216.3,-165.6,-189.0,-355.2,-225.0,-209.1,-331.5,-2593.5,-273.0,-103.2,-346.8,-4586.4,-9827.4,-7143.6,-6473.7,-6.9,-5.7,-487.8,-488.4,-0.9,-71.4,-131.7,-211.8,0,1356,0,211,0, 
0.7567,-237.6,-215.7,-375.6,-189.6,-363.6,-235.2,-200.1,-330.3,-2445.3,-273.0,-100.8,-347.4,-4881.3,-9827.4,-6965.4,-6095.7,-6.6,-6.0,-488.7,-486.6,-1.2,-82.5,-134.1,-218.7,0,1362,0,212,0, 
0.7600,-234.9,-211.8,-236.1,-190.8,-363.0,-234.9,-207.3,-334.8,-2593.5,-276.6,-103.2,-346.2,-4908.0,-9827.4,-7044.0,-6141.0,-7.2,-5.7,-493.8,-482.1,-0.9,-81.6,-142.2,-231.6,0,1368,0,213,0, 
0.7633,-236.1,-219.9,13.2,-193.8,-373.5,-243.6,-218.1,-340.8,-2667.6,-267.3,-104.4,-349.5,-4677.0,-9827.4,-7358.1,-6478.2,-6.9,-5.7,-494.4,-486.9,-1.2,-83.1,-145.8,-246.0,0,1374,0,214,0, 
0.7667,-230.4,-212.4,15.9,-192.9,-377.7,-239.4,-216.6,-336.3,-2593.5,-259.8,-100.8,-349.8,-4488.3,-9827.4,-7365.9,-6700.2,-7.2,-6.0,-487.8,-488.7,-0.9,-82.5,-144.3,-236.1,0,1380,0,215,0, 
0.7700,-231.0,-209.7,-211.8,-198.3,-378.3,-239.4,-203.7,-339.3,-2519.4,-269.1,-106.2,-354.9,-4634.4,-9827.4,-7095.0,-6460.8,-6.6,-5.7,-496.2,-494.7,-0.6,-87.9,-141.3,-225.6,0,1386,0,216,0, 
0.7733,-235.2,-216.3,-302.4,-202.8,-373.8,-250.5,-200.4,-349.8,-2519.4,-268.8,-115.2,-358.8,-4791.6,-9827.4,-6821.1,-6070.5,-6.6,-5.7,-501.6,-502.8,-0.6,-81.6,-147.9,-232.2,0,1392,0,217,0, 
0.7767,-233.7,-216.6,-227.4,-204.0,-382.2,-244.8,-198.3,-350.1,-2741.7,-269.1,-117.6,-358.2,-4856.7,-9827.4,-6997.2,-6136.2,-7.2,-6.0,-503.1,-504.6,-0.9,-87.0,-142.2,-240.3,0,1398,0,218,0, 
0.7800,-237.6,-217.8,-17.1,-204.6,-387.0,-251.1,-214.5,-354.6,-2667.6,-280.5,-121.8,-361.5,-4668.0,-9827.4,-7378.8,-6500.4,-6.6,-6.0,-510.3,-506.1,-0.6,-87.9,-156.3,-239.7,0,1404,0,219,0, 
0.7833,-231.9,-215.7,-15.6,-203.1,-375.9,-246.3,-210.3,-357.3,-2519.4,-280.5,-120.6,-360.0,-4471.8,-9827.4,-7277.4,-6687.6,-6.6,-5.7,-501.3,-506.7,-0.6,-83.7,-151.5,-242.4,0,1410,0,220,0, 
0.7867,-235.8,-226.2,-251.7,-204.6,-375.6,-251.4,-205.5,-361.8,-2297.1,-279.6,-127.2,-365.4,-4635.3,-9827.4,-7063.5,-6473.4,-6.6,-6.3,-514.2,-501.9,-0.9,-82.2,-149.4,-228.9,0,1416,0,221,0, 
0.7900,-235.2,-225.6,-366.6,-207.6,-362.1,-253.8,-200.1,-352.5,-2593.5,-279.6,-120.0,-362.7,-4828.2,-9827.4,-6788.7,-6042.6,-6.9,-6.0,-512.1,-505.2,-1.2,-90.3,-148.2,-232.5,0,1422,0,222,0, 
0.7933,-236.1,-216.6,-445.8,-204.3,-373.8,-256.8,-210.6,-346.8,-2593.5,-296.1,-120.6,-362.4,-4974.9,-9827.4,-7194.9,-6213.0,-6.9,-6.0,-512.1,-504.3,-0.9,-81.0,-160.5,-241.2,0,1428,0,223,0, 
0.7967,-240.3,-230.4,-297.6,-210.3,-394.8,-260.1,-218.4,-348.3,-2593.5,-285.6,-122.4,-360.9,-4874.1,-9827.4,-7584.3,-6641.1,-6.9,-6.3,-507.3,-503.1,-0.6,-102.9,-162.3,-242.4,0,1434,0,224,0, 
0.8000,-234.6,-218.7,-150.6,-210.6,-367.2,-262.2,-216.6,-346.5,-2667.6,-271.8,-122.4,-362.4,-4576.5,-9827.4,-7461.6,-6691.8,-6.9,-6.3,-513.0,-503.1,-1.2,-94.5,-160.5,-247.8,0,1440,0,225,0, 
0.8033,-234.6,-219.6,-324.3,-205.8,-374.4,-261.6,-206.7,-345.6,-2445.3,-279.6,-121.5,-361.8,-4625.7,-9827.4,-7079.7,-6445.5,-6.9,-6.0,-504.3,-503.4,-0.6,-91.8,-154.8,-237.3,0,1446,0,226,0, 
0.8067,-232.8,-218.1,-452.7,-199.8,-364.2,-257.7,-199.5,-348.6,-2371.2,-276.0,-119.4,-356.4,-4870.8,-9827.4,-6855.3,-6099.0,-6.9,-5.7,-503.1,-488.1,-0.6,-88.5,-157.2,-243.6,0,1452,0,227,0, 
0.8100,-231.6,-216.3,-311.4,-202.8,-363.3,-255.9,-201.9,-349.8,-2519.4,-277.5,-117.6,-357.9,-4896.0,-9827.4,-7082.4,-6106.2,-6.9,-6.0,-496.2,-488.7,-0.6,-94.2,-154.8,-239.1,0,1458,0,228,0, 
0.8133,-235.2,-220.8,-59.4,-202.2,-366.6,-255.6,-202.2,-352.8,-2593.5,-273.6,-119.4,-357.6,-4672.2,-9827.4,-7379.1,-6477.3,-6.9,-6.0,-506.4,-490.8,-0.6,-86.4,-156.9,-252.3,0,1464,0,229,0, 
0.8167,-239.1,-225.3,-9.3,-207.9,-376.8,-262.2,-207.6,-357.6,-2667.6,-282.6,-120.9,-362.1,-4477.5,-9827.4,-7344.6,-6706.2,-6.6,-5.7,-504.6,-497.1,-0.3,-86.1,-158.1,-249.6,0,1470,0,230,0, 
0.8200,-237.6,-225.9,-223.5,-208.2,-383.4,-261.6,-209.1,-355.8,-2593.5,-286.2,-119.4,-363.9,-4554.6,-9827.4,-6985.2,-6415.8,-7.2,-6.0,-506.1,-495.0,-0.9,-91.2,-154.8,-255.3,0,1476,0,231,0, 
0.8233,-236.1,-222.6,-396.0,-210.3,-376.5,-261.9,-202.8,-348.9,-2519.4,-265.8,-119.4,-366.3,-4794.9,-9827.4,-6755.4,-6060.3,-7.2,-6.0,-505.2,-493.2,-0.6,-93.3,-158.7,-242.4,0,1482,0,232,0, 
0.8267,-236.4,-218.7,-239.4,-207.6,-386.1,-260.4,-216.6,-345.0,-2593.5,-274.5,-112.5,-359.7,-4821.0,-9827.4,-6846.3,-6048.3,-6.9,-5.7,-497.7,-501.3,-0.6,-88.2,-155.4,-236.4,0,1488,0,233,0, 
0.8300,-234.0,-214.2,-68.1,-204.3,-366.6,-248.1,-216.0,-342.9,-2593.5,-274.2,-115.2,-358.8,-4622.1,-9827.4,-7286.1,-6465.9,-6.3,-6.0,-498.9,-501.6,-0.9,-90.6,-157.8,-233.7,0,1494,0,234,0, 
0.8333,-231.9,-218.4,-46.2,-202.8,-360.3,-246.9,-207.0,-342.3,-2593.5,-274.5,-109.5,-353.1,-4430.7,-9827.4,-7346.7,-6692.4,-6.9,-6.0,-491.7,-489.0,-0.9,-74.7,-152.4,-224.1,0,1500,0,235,0, 
0.8367,-228.9,-209.7,-274.5,-199.8,-361.5,-246.3,-204.6,-338.1,-2371.2,-268.5,-106.2,-348.0,-4485.6,-9827.4,-7057.5,-6413.7,-6.6,-6.3,-487.5,-481.5,-0.6,-81.3,-141.9,-220.5,0,1506,0,236,0, 
0.8400,-231.9,-217.8,-406.2,-200.7,-352.8,-248.4,-196.8,-342.0,-2519.4,-271.5,-109.2,-351.0,-4763.4,-9827.4,-6835.5,-6058.2,-6.9,-6.0,-494.7,-490.2,-0.6,-78.6,-144.3,-226.8,0,1512,0,237,0, 
0.8433,-227.7,-206.7,-232.8,-196.5,-366.9,-246.0,-201.6,-338.4,-2593.5,-266.4,-106.2,-353.1,-4823.1,-9827.4,-7036.2,-6117.0,-6.9,-6.0,-490.5,-488.4,-0.6,-92.1,-152.7,-224.1,0,1518,0,238,0, 
0.8467,-224.7,-210.0,24.6,-196.8,-376.8,-246.3,-195.6,-339.9,-2519.4,-275.1,-105.9,-351.9,-4579.2,-9827.4,-7314.3,-6435.0,-6.6,-6.0,-487.8,-486.9,-1.2,-85.8,-150.0,-233.7,0,1524,0,239,0, 
0.8500,-224.1,-210.6,42.0,-191.4,-365.7,-240.0,-208.5,-334.2,-2593.5,-268.8,-104.1,-343.2,-4415.1,-9827.4,-7317.6,-6648.9,-6.9,-6.0,-486.3,-479.1,-0.9,-72.3,-140.1,-222.3,0,1530,0,240,0, 
0.8533,-226.5,-215.1,-144.9,-192.0,-353.1,-244.2,-191.4,-333.0,-2519.4,-262.5,-105.3,-345.9,-4494.0,-9827.4,-7012.2,-6451.5,-6.3,-6.0,-491.7,-477.6,-0.6,-73.8,-136.2,-215.1,0,1536,0,241,0, 
0.8567,-223.5,-211.5,-299.1,-191.7,-352.8,-237.6,-194.1,-328.5,-2667.6,-265.8,-100.5,-347.1,-4725.0,-9827.4,-6747.0,-6023.4,-7.2,-6.0,-485.4,-475.8,-0.6,-83.7,-138.6,-216.9,0,1542,0,242,0, 
0.8600,-218.7,-207.3,-222.9,-192.0,-342.9,-241.2,-201.0,-324.3,-2593.5,-266.4,-96.9,-345.3,-4765.2,-9827.4,-7014.6,-6072.0,-7.2,-5.4,-480.9,-481.2,-0.9,-88.8,-141.9,-229.8,0,1548,0,243,0, 
0.8633,-222.9,-212.1,-32.1,-191.7,-343.8,-234.6,-201.9,-329.7,-2593.5,-265.8,-95.1,-340.8,-4539.3,-9827.4,-7287.9,-6436.2,-7.2,-6.0,-478.8,-486.0,-1.2,-83.4,-143.4,-234.3,0,1554,0,244,0, 
0.8667,-225.3,-206.7,-60.6,-196.2,-363.0,-242.1,-207.0,-336.3,-2667.6,-280.2,-102.0,-355.5,-4347.3,-9827.4,-7351.2,-6673.8,-6.6,-6.0,-489.0,-488.7,-0.9,-84.9,-150.9,-229.5,0,1560,0,245,0, 
0.8700,-222.3,-214.8,-299.7,-193.8,-345.9,-248.4,-195.3,-329.4,-2445.3,-272.1,-95.7,-343.8,-4418.1,-9827.4,-7064.1,-6390.6,-6.9,-6.0,-483.3,-481.8,-1.2,-86.4,-143.4,-245.7,0,1566,0,246,0, 
0.8733,-225.6,-222.9,-393.0,-197.1,-360.6,-249.3,-184.8,-337.8,-2445.3,-279.3,-101.7,-344.1,-4713.3,-9827.4,-6839.7,-6037.5,-7.2,-6.3,-489.9,-486.6,-0.6,-92.4,-146.4,-244.8,0,1572,0,247,0, 
0.8767,-226.2,-228.0,-257.7,-194.4,-373.5,-246.3,-197.7,-339.0,-2593.5,-269.4,-100.8,-338.7,-4736.7,-9827.4,-6894.0,-6071.7,-6.9,-5.7,-488.7,-483.6,-0.9,-79.2,-143.4,-236.1,0,1578,0,248,0, 
0.8800,-227.4,-219.9,-42.6,-195.9,-380.4,-244.8,-202.2,-340.2,-2593.5,-272.4,-102.3,-343.2,-4506.6,-9827.4,-7195.8,-6381.0,-6.9,-6.0,-487.2,-487.5,-0.6,-84.3,-143.7,-245.1,0,1584,0,249,0, 
0.8833,-229.5,-224.4,-2.4,-196.2,-385.8,-247.2,-201.9,-340.2,-2593.5,-263.4,-102.6,-341.4,-4277.1,-9827.4,-7225.2,-6597.0,-6.9,-6.0,-487.2,-485.1,-0.9,-80.7,-141.3,-237.9,0,1590,0,250,0, 
0.8867,-225.0,-212.1,-203.4,-192.3,-371.4,-242.4,-184.2,-339.6,-2445.3,-270.0,-99.9,-339.3,-4366.8,-9827.4,-7002.9,-6416.1,-7.2,-6.3,-482.7,-479.4,-1.2,-82.2,-131.4,-236.1,0,1596,0,251,0, 
0.8900,-225.6,-214.5,-281.4,-192.6,-360.6,-245.7,-194.7,-348.0,-2445.3,-265.8,-99.3,-340.8,-4644.3,-9827.4,-6726.3,-6013.8,-6.6,-6.0,-481.2,-480.6,-1.2,-82.2,-133.2,-239.1,0,1602,0,252,0, 
0.8933,-224.1,-211.8,-155.1,-194.7,-360.6,-247.5,-198.9,-345.6,-2371.2,-263.1,-100.2,-343.5,-4699.2,-9827.4,-6926.7,-6030.6,-7.2,-5.7,-486.6,-477.3,-1.2,-75.9,-135.0,-247.5,0,1608,0,253,0, 
0.8967,-221.1,-205.5,12.6,-190.2,-370.8,-246.6,-201.6,-344.1,-2593.5,-263.4,-95.4,-332.7,-4493.4,-9827.4,-7284.6,-6386.7,-6.6,-5.7,-477.3,-463.5,-0.9,-60.6,-139.8,-226.5,0,1614,0,254,0, 
0.9000,-221.4,-209.4,15.0,-189.6,-370.2,-241.8,-200.1,-342.0,-2371.2,-262.2,-98.7,-335.7,-4314.3,-9827.4,-7244.1,-6618.6,-6.9,-5.7,-489.3,-467.1,-1.2,-75.6,-140.7,-235.2,0,1620,0,255,0, 
0.9033,-221.4,-206.1,-202.8,-183.6,-365.4,-239.1,-196.8,-333.0,-2519.4,-260.1,-94.8,-334.5,-4422.0,-9827.4,-6953.4,-6472.8,-6.6,-6.0,-472.8,-468.6,-0.6,-76.5,-131.1,-227.4,0,1626,0,0,0, 
0.9067,-222.9,-212.1,-319.2,-183.6,-347.7,-242.4,-184.5,-334.5,-2519.4,-262.2,-92.1,-330.0,-4638.0,-9827.4,-6726.6,-6106.8,-7.2,-5.7,-470.4,-466.2,-0.6,-70.5,-129.9,-227.7,0,1632,0,1,0, 
0.9100,-227.7,-218.1,-238.2,-189.6,-367.5,-251.1,-201.6,-335.1,-2593.5,-263.4,-95.4,-332.7,-4778.1,-9827.4,-6961.8,-6095.1,-6.9,-6.0,-478.2,-467.7,-0.6,-73.5,-131.1,-224.7,0,1638,0,2,0, 
0.9133,-230.1,-212.4,40.5,-191.7,-381.6,-250.5,-202.8,-334.8,-2519.4,-263.4,-98.4,-342.3,-4562.4,-9827.4,-7154.1,-6415.5,-6.9,-6.0,-485.1,-473.4,-1.2,-82.2,-138.3,-233.7,0,1644,0,3,0, 
0.9167,-231.0,-216.0,-24.9,-192.3,-387.9,-254.4,-197.1,-333.9,-2593.5,-262.5,-93.6,-340.8,-4381.2,-9827.4,-7200.0,-6615.3,-6.9,-5.7,-479.4,-473.7,-1.2,-78.3,-142.5,-237.3,0,1650,0,4,0, 
0.9200,-229.5,-207.6,-229.8,-194.4,-381.9,-249.3,-200.1,-333.0,-2519.4,-265.5,-102.6,-347.1,-4469.4,-9827.4,-6858.0,-6348.3,-6.3,-6.0,-488.7,-478.8,-1.5,-75.9,-139.8,-236.1,0,1656,0,5,0, 
0.9233,-232.5,-218.1,-396.9,-200.1,-384.0,-253.8,-201.0,-334.8,-2519.4,-279.3,-102.6,-346.8,-4671.6,-9827.4,-6645.9,-6016.5,-7.2,-5.7,-484.5,-485.1,-1.2,-78.6,-138.0,-238.8,0,1662,0,6,0, 
0.9267,-231.9,-214.5,-292.8,-202.2,-384.0,-247.5,-192.0,-334.5,-2519.4,-270.6,-108.6,-349.8,-4714.8,-9827.4,-6915.0,-6079.5,-6.9,-6.3,-492.9,-492.0,-0.6,-76.5,-129.9,-233.1,0,1668,0,7,0, 
0.9300,-233.7,-217.8,-28.2,-204.3,-390.0,-246.0,-206.4,-335.1,-2593.5,-264.3,-112.2,-353.7,-4504.5,-9827.4,-7159.2,-6469.8,-7.2,-5.7,-494.1,-491.1,-0.6,-82.5,-135.9,-228.6,0,1674,0,8,0, 
0.9333,-235.5,-216.3,-24.6,-205.2,-385.5,-250.5,-208.8,-338.7,-2593.5,-278.7,-110.7,-356.4,-4357.5,-9827.4,-7245.6,-6673.5,-6.9,-6.3,-492.9,-490.2,-0.9,-82.2,-145.2,-237.0,0,1680,0,9,0, 
0.9367,-238.2,-225.9,-227.1,-209.4,-392.4,-249.0,-201.3,-339.9,-2519.4,-279.3,-113.4,-355.5,-4433.1,-9827.4,-6924.9,-6385.2,-7.5,-6.3,-498.6,-492.0,-0.6,-85.2,-137.7,-227.7,0,1686,0,10,0, 
0.9400,-236.7,-222.0,-448.5,-206.1,-366.3,-248.7,-190.8,-335.4,-2445.3,-269.4,-111.0,-351.3,-4702.8,-9827.4,-6780.9,-6002.7,-6.9,-6.0,-495.9,-480.6,-0.6,-85.2,-131.1,-232.2,0,1692,0,11,0, 
0.9433,-230.4,-214.8,-263.4,-204.6,-377.7,-246.3,-195.0,-337.8,-2593.5,-270.0,-110.4,-349.5,-4728.3,-9827.4,-6878.1,-6000.9,-6.9,-6.0,-493.5,-484.2,-0.6,-92.4,-136.8,-229.2,0,1698,0,12,0, 
0.9467,-235.2,-219.3,-62.1,-203.7,-375.0,-248.1,-211.2,-340.8,-2741.7,-285.6,-107.7,-350.4,-4550.4,-9827.4,-7253.4,-6400.2,-6.6,-5.4,-489.3,-483.0,-0.6,-83.4,-142.2,-243.3,0,1704,0,13,0, 
0.9500,-231.3,-213.9,18.3,-199.2,-391.2,-237.3,-200.4,-340.5,-2519.4,-270.6,-106.2,-343.8,-4291.2,-9827.4,-7161.6,-6619.2,-6.6,-6.0,-487.8,-480.6,-1.2,-90.0,-139.5,-220.8,0,1710,0,14,0, 
0.9533,-231.0,-212.7,-170.7,-197.1,-371.1,-246.9,-195.6,-340.5,-2519.4,-271.5,-101.1,-341.7,-4394.1,-9827.4,-6922.5,-6384.9,-6.9,-5.7,-479.7,-481.8,-0.6,-81.0,-138.9,-237.0,0,1716,0,15,0, 
0.9567,-223.8,-208.2,-318.3,-186.3,-352.8,-234.0,-177.6,-334.5,-2519.4,-267.6,-94.5,-330.6,-4664.4,-9827.4,-6725.4,-6010.2,-6.9,-6.6,-482.7,-471.0,-0.9,-76.2,-135.6,-222.0,0,1722,0,16,0, 
0.9600,-229.2,-210.0,-192.0,-186.0,-355.5,-240.9,-201.3,-335.1,-2593.5,-262.8,-93.0,-332.7,-4685.1,-9827.4,-6932.1,-5996.4,-7.2,-5.7,-471.3,-472.2,-0.6,-73.8,-138.6,-243.6,0,1728,0,17,0, 
0.9633,-231.9,-213.9,48.3,-187.8,-362.7,-245.1,-196.8,-335.1,-2519.4,-261.3,-96.3,-338.7,-4502.4,-9827.4,-7222.5,-6388.8,-6.9,-6.0,-473.7,-480.9,-0.6,-84.3,-138.6,-244.8,0,1734,0,18,0, 
0.9667,-225.9,-213.3,73.8,-190.5,-372.9,-250.5,-201.3,-332.7,-2519.4,-269.7,-101.4,-336.9,-4274.1,-9827.4,-7180.2,-6601.8,-6.9,-6.0,-471.0,-480.0,-0.6,-69.9,-141.3,-242.4,0,1740,0,19,0, 
0.9700,-225.6,-217.8,-112.5,-191.1,-363.9,-248.4,-198.9,-335.4,-2445.3,-267.3,-99.3,-340.8,-4396.8,-9827.4,-6954.6,-6401.4,-7.2,-5.7,-478.8,-483.0,-1.2,-77.1,-134.4,-237.9,0,1746,0,20,0, 
0.9733,-223.5,-215.4,-320.1,-191.1,-376.5,-245.1,-196.8,-336.9,-2593.5,-275.4,-98.7,-345.3,-4663.8,-9827.4,-6706.5,-6084.3,-6.9,-5.7,-472.5,-489.9,-0.6,-75.9,-132.0,-250.8,0,1752,0,21,0, 
0.9767,-225.0,-211.8,-182.1,-192.0,-353.7,-241.2,-191.1,-329.7,-2519.4,-267.6,-97.8,-345.0,-4724.4,-9827.4,-6815.7,-6067.2,-6.9,-5.7,-474.6,-489.9,-0.3,-73.2,-129.6,-247.8,0,1758,0,22,0, 
0.9800,-225.0,-208.2,63.6,-189.0,-381.6,-240.0,-195.9,-326.4,-2593.5,-269.1,-93.6,-337.8,-4548.9,-9827.4,-7153.2,-6433.8,-6.6,-5.4,-470.1,-482.7,-0.6,-72.3,-131.4,-233.7,0,1764,0,23,0, 
0.9833,-220.2,-200.4,25.8,-187.5,-389.4,-234.3,-197.4,-326.4,-2519.4,-269.7,-93.6,-333.6,-4375.5,-9827.4,-7285.5,-6707.4,-6.9,-6.0,-468.6,-486.3,-0.6,-79.8,-135.6,-246.3,0,1770,0,24,0, 
0.9867,-217.5,-192.6,98.7,-186.0,-347.1,-240.9,-175.8,-324.0,-2445.3,-262.5,-89.7,-335.1,-4243.5,-9827.4,-6626.7,-6201.6,-6.9,-6.0,-465.0,-485.1,-1.2,-74.7,-128.4,-250.5,0,1776,0,25,0, 
0.9900,-221.7,-203.4,110.4,-189.9,-335.4,-245.1,-176.4,-327.3,-2593.5,-269.1,-93.3,-333.9,-4369.2,-9827.4,-6183.9,-5788.2,-7.2,-6.0,-468.0,-480.3,-0.6,-80.4,-131.1,-245.4,0,1782,0,26,0, 
0.9933,-225.9,-205.8,1.2,-191.7,-364.2,-246.3,-175.2,-325.8,-2445.3,-250.8,-95.7,-337.2,-4614.9,-9827.4,-6621.6,-5972.7,-6.9,-6.0,-469.5,-483.9,-0.6,-71.1,-134.1,-252.9,0,1788,0,27,0, 
0.9967,-220.8,-186.0,207.3,-186.6,-356.1,-245.1,-194.4,-321.0,-2667.6,-255.3,-93.6,-334.2,-4431.6,-9827.4,-6954.0,-6307.2,-6.9,-6.0,-465.6,-480.0,-0.6,-69.0,-134.7,-260.4,0,1794,0,28,0, 
1.0000,-225.9,-204.6,182.1,-192.0,-354.3,-241.2,-198.3,-326.1,-2519.4,-262.8,-100.2,-342.3,-4302.6,-9827.4,-7079.1,-6590.4,-6.9,-6.0,-477.3,-487.8,-0.9,-82.5,-136.5,-258.9,0,1800,0,29,0, 
1.0033,-222.3,-204.3,-52.5,-187.5,-343.8,-236.1,-193.8,-325.8,-2445.3,-254.7,-93.9,-334.8,-4410.6,-9827.4,-6862.5,-6403.2,-7.2,-5.7,-468.6,-474.3,-0.6,-80.1,-133.8,-246.0,0,1806,0,30,0, 
1.0067,-228.3,-207.0,-214.5,-195.9,-351.0,-242.4,-184.5,-331.2,-2519.4,-256.5,-97.5,-342.0,-4663.5,-9827.4,-6623.7,-5984.1,-6.9,-6.0,-478.8,-486.0,-0.9,-90.3,-134.1,-242.4,0,1812,0,31,0, 
1.0100,-226.8,-201.0,-119.7,-192.3,-350.1,-235.8,-190.2,-332.1,-2593.5,-260.7,-96.0,-343.2,-4738.5,-9827.4,-6779.4,-6007.2,-6.9,-6.0,-468.3,-487.2,-0.9,-85.2,-142.5,-237.9,0,1818,0,32,0, 
1.0133,-228.0,-200.7,66.0,-200.7,-366.9,-237.0,-212.1,-333.9,-2593.5,-275.4,-105.3,-347.7,-4575.6,-9827.4,-7158.6,-6342.3,-6.9,-6.0,-475.5,-485.4,-0.6,-76.5,-141.9,-244.5,0,1824,0,33,0, 
1.0167,-219.9,-197.4,111.6,-198.9,-367.2,-233.7,-200.4,-328.2,-2667.6,-257.4,-96.9,-345.0,-4424.4,-9827.4,-7199.7,-6614.4,-7.2,-5.7,-469.8,-478.5,-0.3,-75.9,-141.3,-245.7,0,1830,0,34,0, 
1.0200,-223.5,-194.4,-105.3,-203.4,-363.0,-239.1,-195.3,-330.3,-2593.5,-259.2,-102.9,-345.9,-4499.1,-9827.4,-6979.5,-6387.9,-6.9,-6.0,-476.1,-477.9,-0.6,-79.8,-136.2,-249.6,0,1836,0,35,0, 
1.0233,-226.8,-204.6,-281.4,-202.2,-360.9,-237.6,-192.6,-328.8,-2445.3,-263.7,-101.7,-345.0,-4725.6,-9827.4,-6743.7,-6027.9,-6.9,-5.4,-477.6,-479.4,-0.9,-84.9,-134.1,-247.2,0,1842,0,36,0, 
1.0267,-225.6,-196.8,-207.9,-204.6,-366.0,-236.7,-184.8,-332.1,-2519.4,-269.1,-105.9,-352.8,-4779.3,-9827.4,-6824.4,-6034.2,-6.6,-6.3,-476.7,-480.3,-0.9,-81.6,-139.2,-254.4,0,1848,0,37,0, 
1.0300,-222.6,-198.3,28.5,-196.2,-361.2,-228.6,-190.8,-325.8,-2593.5,-255.3,-106.5,-348.6,-4563.6,-9827.4,-7113.3,-6414.6,-6.6,-5.7,-472.5,-474.3,-1.2,-79.5,-138.3,-249.6,0,1854,0,38,0, 
1.0333,-222.0,-190.5,46.2,-195.9,-344.1,-227.1,-195.9,-321.0,-2519.4,-260.7,-101.4,-339.3,-4394.7,-9827.4,-7139.1,-6571.8,-6.9,-6.0,-477.3,-468.9,-0.9,-69.0,-134.1,-251.7,0,1860,0,39,0, 
1.0367,-217.5,-187.8,-132.6,-192.0,-332.1,-224.1,-191.1,-322.2,-2519.4,-250.2,-92.7,-331.8,-4442.7,-9827.4,-6862.8,-6334.5,-7.2,-5.7,-468.6,-462.9,-0.9,-60.6,-123.6,-236.7,0,1866,0,40,0, 
1.0400,-221.7,-186.9,-247.8,-194.4,-340.2,-221.1,-190.8,-324.9,-2371.2,-261.3,-91.8,-336.3,-4692.3,-9827.4,-6686.4,-5990.7,-6.6,-6.0,-467.4,-468.6,-0.9,-70.5,-132.0,-232.2,0,1872,0,41,0, 
1.0433,-218.4,-189.3,-168.6,-187.5,-331.5,-223.2,-194.7,-319.5,-2519.4,-252.6,-86.7,-330.3,-4770.9,-9827.4,-6823.2,-6014.4,-6.9,-5.7,-465.0,-466.2,-0.6,-63.9,-133.5,-233.1,0,1878,0,42,0, 
1.0467,-221.1,-193.8,140.7,-185.7,-329.7,-223.8,-200.7,-322.5,-2593.5,-264.6,-87.3,-327.9,-4560.9,-9827.4,-7106.7,-6357.3,-7.2,-6.0,-464.7,-465.0,-0.9,-72.0,-136.2,-236.4,0,1884,0,43,0, 
1.0500,-220.8,-200.4,144.0,-186.3,-341.7,-230.4,-212.4,-324.3,-2519.4,-261.6,-92.1,-334.2,-4384.2,-9827.4,-7208.1,-6654.3,-6.6,-6.0,-462.3,-469.8,-0.6,-76.5,-143.1,-247.2,0,1890,0,44,0, 
1.0533,-227.4,-201.6,-114.9,-184.2,-344.1,-223.8,-193.5,-325.2,-2593.5,-245.7,-88.2,-331.8,-4497.9,-9827.4,-6962.1,-6406.2,-7.2,-6.0,-467.1,-469.8,-0.9,-68.4,-142.5,-232.2,0,1896,0,45,0, 
1.0567,-226.2,-202.8,-299.7,-189.9,-333.0,-225.6,-191.7,-328.5,-2445.3,-255.0,-94.8,-335.4,-4698.3,-9827.4,-6666.0,-6000.3,-6.6,-5.7,-475.8,-467.7,-0.6,-67.5,-139.8,-236.1,0,1902,0,46,0, 
1.0600,-227.7,-208.2,-191.1,-192.6,-343.8,-231.3,-199.5,-337.5,-2593.5,-262.8,-96.3,-336.6,-4820.1,-9827.4,-6877.2,-5995.5,-6.9,-5.7,-473.4,-469.5,-1.2,-70.5,-139.2,-247.2,0,1908,0,47,0, 
1.0633,-225.9,-216.0,34.5,-189.9,-358.2,-241.8,-214.5,-343.2,-2741.7,-263.7,-98.7,-339.0,-4574.7,-9827.4,-7174.5,-6392.4,-6.6,-6.3,-471.3,-469.5,-0.6,-66.3,-145.2,-253.2,0,1914,0,48,0, 
1.0667,-229.2,-207.3,58.2,-193.2,-362.7,-238.2,-209.1,-342.9,-2519.4,-259.8,-99.3,-341.7,-4380.0,-9827.4,-7285.8,-6620.1,-6.6,-5.7,-475.8,-473.7,-0.3,-80.4,-140.4,-252.9,0,1920,0,49,0, 
1.0700,-226.5,-213.0,-162.0,-192.9,-354.3,-243.6,-208.2,-340.5,-2519.4,-261.9,-100.2,-339.0,-4418.1,-9827.4,-6939.0,-6372.6,-6.9,-5.7,-475.2,-471.9,-0.6,-75.9,-141.6,-250.8,0,1926,0,50,0, 
1.0733,-228.0,-209.1,-288.3,-193.2,-349.5,-234.0,-201.9,-335.4,-2445.3,-264.6,-98.4,-338.7,-4714.2,-9827.4,-6712.2,-5991.6,-7.2,-5.7,-468.3,-481.5,-0.9,-85.5,-139.8,-250.8,0,1932,0,51,0, 
1.0767,-223.5,-212.4,-143.1,-190.2,-326.1,-236.7,-204.9,-331.8,-2519.4,-266.4,-104.7,-343.2,-4793.4,-9827.4,-6790.8,-6020.1,-6.9,-6.0,-472.2,-477.3,-0.6,-86.1,-140.4,-239.4,0,1938,0,52,0, 
1.0800,-227.1,-209.1,53.1,-190.8,-367.8,-237.0,-215.7,-333.3,-2741.7,-267.6,-102.0,-351.6,-4602.6,-9827.4,-7213.8,-6438.3,-6.9,-5.7,-474.0,-480.6,-0.9,-85.2,-149.1,-250.8,0,1944,0,53,0, 
1.0833,-226.8,-207.6,66.6,-192.6,-362.7,-241.2,-216.9,-330.0,-2593.5,-266.1,-96.9,-340.8,-4427.7,-9827.4,-7242.0,-6648.0,-7.2,-6.3,-469.2,-476.7,-0.3,-76.8,-151.2,-266.7,0,1950,0,54,0, 
1.0867,-232.2,-207.3,-92.4,-197.1,-351.9,-246.6,-207.6,-333.9,-2519.4,-278.1,-104.1,-340.8,-4500.3,-9827.4,-6962.7,-6390.0,-6.9,-5.7,-475.5,-477.3,-0.6,-84.3,-147.0,-266.4,0,1956,0,55,0, 
1.0900,-230.7,-202.2,-327.0,-192.3,-334.2,-236.4,-189.6,-327.3,-2519.4,-260.1,-99.0,-339.0,-4709.4,-9827.4,-6693.3,-6018.9,-6.9,-5.7,-468.0,-475.8,-0.6,-80.1,-144.0,-252.9,0,1962,0,56,0, 
1.0933,-229.2,-207.9,-253.5,-197.7,-342.0,-238.2,-204.0,-329.4,-2519.4,-248.7,-104.1,-343.5,-4795.8,-9827.4,-6799.2,-6088.8,-7.2,-5.7,-474.0,-480.9,-0.6,-79.5,-149.4,-260.7,0,1968,0,57,0, 
1.0967,-231.0,-209.4,3.0,-198.9,-351.0,-234.9,-215.1,-333.0,-2519.4,-260.7,-103.5,-345.3,-4634.1,-9827.4,-7210.8,-6438.3,-6.9,-5.7,-476.1,-481.2,-0.3,-83.4,-143.1,-264.3,0,1974,0,58,0, 
1.1000,-225.3,-211.8,6.3,-193.8,-352.8,-231.0,-204.6,-333.0,-2519.4,-257.1,-104.4,-339.6,-4473.9,-9827.4,-7285.2,-6663.0,-7.2,-5.4,-472.5,-474.0,-0.9,-69.6,-140.4,-252.9,0,1980,0,59,0, 
1.1033,-222.6,-201.9,-154.5,-193.5,-360.9,-228.9,-194.1,-330.9,-2519.4,-258.0,-100.5,-340.2,-4506.9,-9827.4,-6915.0,-6382.8,-6.9,-6.0,-468.0,-475.5,-0.6,-69.6,-134.7,-247.2,0,1986,0,60,0, 
1.1067,-223.5,-208.2,-213.6,-194.4,-346.2,-220.8,-183.9,-325.5,-2445.3,-258.6,-102.3,-342.3,-4729.5,-9827.4,-6621.3,-5997.0,-6.6,-6.0,-475.5,-477.6,-0.9,-77.7,-130.2,-240.9,0,1992,0,61,0, 
1.1100,-226.5,-211.8,-135.9,-196.8,-361.2,-229.8,-196.2,-327.6,-2519.4,-258.9,-104.1,-342.9,-4809.9,-9827.4,-6872.4,-6043.8,-6.9,-6.0,-472.8,-478.8,-0.9,-74.1,-139.5,-254.1,0,1998,0,62,0, 
1.1133,-226.8,-220.8,84.3,-201.0,-368.1,-229.8,-207.6,-331.2,-2593.5,-259.8,-110.1,-347.1,-4636.2,-9827.4,-7180.5,-6422.7,-6.9,-5.7,-479.7,-481.5,-0.9,-68.4,-135.3,-241.8,0,2004,0,63,0, 
1.1167,-226.2,-217.8,118.8,-191.4,-357.0,-222.6,-206.7,-335.4,-2593.5,-264.6,-101.7,-337.5,-4430.7,-9827.4,-7202.1,-6650.1,-6.9,-5.7,-472.8,-475.8,-0.9,-54.9,-134.7,-234.0,0,2010,0,64,0, 
1.1200,-224.4,-218.7,-62.1,-194.4,-341.4,-226.8,-191.1,-328.8,-2445.3,-258.6,-101.7,-342.9,-4522.2,-9827.4,-6896.1,-6375.0,-6.9,-5.7,-471.0,-476.7,-0.9,-70.5,-130.8,-233.1,0,2016,0,65,0, 
1.1233,-221.7,-212.4,-290.7,-194.4,-344.1,-225.0,-180.3,-329.4,-2519.4,-245.1,-102.9,-344.7,-4767.0,-9827.4,-6636.0,-5966.4,-6.9,-5.7,-473.7,-479.4,-0.9,-64.2,-128.1,-230.1,0,2022,0,66,0, 
1.1267,-221.4,-209.7,-147.6,-194.4,-356.1,-226.8,-181.8,-331.2,-2519.4,-257.4,-103.5,-345.9,-4839.3,-9827.4,-6834.9,-5953.8,-6.9,-6.3,-470.1,-480.3,-0.6,-69.0,-136.5,-237.0,0,2028,0,67,0, 
1.1300,-219.9,-204.3,61.5,-186.6,-348.0,-222.9,-183.3,-324.9,-2667.6,-248.4,-96.9,-337.8,-4600.8,-9827.4,-7178.1,-6332.4,-6.9,-6.0,-463.8,-474.3,-0.9,-57.6,-132.9,-237.6,0,2034,0,68,0, 
1.1333,-218.4,-204.9,44.7,-188.4,-347.1,-227.7,-192.9,-323.7,-2667.6,-257.1,-98.1,-338.1,-4390.2,-9827.4,-7190.7,-6593.4,-7.2,-6.0,-463.8,-473.7,-0.6,-66.6,-137.7,-235.5,0,2040,0,69,0, 
1.1367,-218.7,-205.2,-204.3,-189.9,-341.4,-231.3,-197.4,-322.8,-2445.3,-261.9,-99.0,-335.7,-4490.7,-9827.4,-6893.7,-6341.7,-6.6,-6.3,-463.5,-473.4,-0.6,-71.1,-134.4,-238.2,0,2046,0,70,0, 
1.1400,-224.7,-205.8,-309.6,-190.8,-336.9,-232.8,-196.5,-326.1,-2445.3,-259.2,-97.2,-336.0,-4698.6,-9827.4,-6651.9,-5979.9,-6.9,-5.7,-465.9,-473.1,-0.6,-63.9,-138.6,-239.1,0,2052,0,71,0, 
1.1433,-224.1,-205.2,-204.9,-193.8,-354.3,-232.8,-195.0,-331.2,-2445.3,-258.9,-99.0,-336.6,-4774.5,-9827.4,-6886.5,-6015.0,-6.9,-6.0,-468.9,-473.4,-0.6,-73.5,-143.1,-236.7,0,2058,0,72,0, 
1.1467,-222.3,-207.9,66.0,-190.2,-352.5,-231.3,-213.0,-324.9,-2741.7,-256.8,-95.1,-336.3,-4591.5,-9827.4,-7198.2,-6361.2,-6.9,-6.0,-465.0,-470.4,-0.9,-72.3,-148.8,-240.9,0,2064,0,73,0, 
1.1500,-219.6,-210.3,27.0,-186.3,-366.6,-225.3,-206.4,-318.6,-2593.5,-248.7,-95.4,-331.5,-4474.5,-9827.4,-7281.0,-6616.8,-6.9,-6.0,-462.6,-461.7,-0.9,-51.9,-135.6,-236.4,0,2070,0,74,0, 
1.1533,-222.9,-208.2,-80.4,-185.4,-356.7,-228.9,-193.8,-319.8,-2593.5,-258.0,-108.3,-341.7,-4517.1,-9827.4,-6822.9,-6354.0,-6.6,-6.0,-471.9,-470.1,-0.6,-61.2,-134.7,-232.5,0,2076,0,75,0, 
1.1567,-222.9,-214.2,-267.9,-184.8,-344.1,-224.1,-189.0,-320.4,-2445.3,-269.4,-109.2,-350.7,-4798.5,-9827.4,-6711.9,-6023.7,-6.9,-5.7,-478.8,-475.5,-0.9,-60.0,-135.0,-231.6,0,2082,0,76,0, 
1.1600,-228.0,-218.1,-123.3,-186.0,-353.1,-229.2,-190.8,-321.0,-2445.3,-257.4,-100.2,-340.2,-4855.5,-9827.4,-6874.2,-6011.7,-6.9,-6.0,-468.6,-473.4,-0.6,-76.5,-139.8,-238.8,0,2088,0,77,0, 
1.1633,-227.1,-215.1,58.8,-184.2,-349.2,-235.8,-204.0,-324.9,-2593.5,-247.5,-86.1,-327.6,-4668.3,-9827.4,-7186.2,-6383.7,-6.9,-5.7,-453.0,-462.3,-0.6,-65.7,-141.0,-242.7,0,2094,0,78,0, 
1.1667,-223.8,-208.5,146.7,-187.2,-352.2,-238.5,-202.2,-324.9,-2667.6,-249.3,-82.5,-325.8,-4446.6,-9827.4,-7226.4,-6631.2,-6.9,-6.0,-454.5,-470.1,-0.9,-72.3,-144.3,-257.7,0,2100,0,79,0, 
1.1700,-222.6,-207.0,-147.6,-183.9,-348.6,-237.0,-200.4,-320.7,-2593.5,-249.3,-82.2,-328.2,-4510.5,-9827.4,-6986.1,-6417.9,-7.5,-5.7,-450.9,-471.3,-1.2,-69.0,-145.5,-251.7,0,2106,0,80,0, 
1.1733,-225.3,-208.2,-334.2,-194.1,-358.8,-245.1,-195.3,-330.3,-2445.3,-262.5,-88.5,-336.3,-4757.1,-9827.4,-6682.8,-6008.7,-6.9,-6.0,-451.8,-483.6,-0.9,-84.3,-154.2,-265.8,0,2112,0,81,0, 
1.1767,-220.2,-201.3,-211.8,-189.3,-353.7,-239.4,-200.4,-324.3,-2593.5,-249.0,-84.9,-331.8,-4826.1,-9827.4,-6759.6,-5973.0,-6.9,-6.0,-452.1,-474.9,-0.9,-74.1,-148.8,-261.0,0,2118,0,82,0, 
1.1800,-225.0,-205.8,60.0,-197.1,-357.3,-243.0,-207.6,-330.3,-2519.4,-264.0,-97.2,-338.7,-4627.5,-9827.4,-7106.1,-6330.9,-6.6,-6.6,-457.5,-482.1,-0.6,-71.1,-153.6,-264.0,0,2124,0,83,0, 
1.1833,-217.2,-196.5,85.2,-197.4,-362.7,-237.6,-223.8,-326.1,-2667.6,-269.7,-93.6,-343.2,-4445.1,-9827.4,-7158.3,-6552.0,-7.2,-5.7,-459.3,-485.1,-0.9,-82.8,-154.2,-253.2,0,2130,0,84,0, 
1.1867,-224.1,-205.2,-126.9,-202.5,-370.8,-240.6,-209.7,-325.2,-2445.3,-258.3,-97.5,-345.3,-4542.6,-9827.4,-6837.3,-6326.4,-6.6,-6.3,-459.0,-489.9,-1.5,-83.7,-153.0,-260.4,0,2136,0,85,0, 
1.1900,-227.1,-206.1,-286.8,-212.4,-357.6,-240.9,-204.0,-329.1,-2519.4,-258.3,-107.4,-351.6,-4797.0,-9827.4,-6558.9,-5964.9,-7.2,-6.0,-467.7,-496.8,-0.9,-73.8,-152.1,-262.2,0,2142,0,86,0, 
1.1933,-224.1,-206.4,-204.0,-214.5,-359.7,-239.1,-201.6,-329.7,-2519.4,-270.3,-113.1,-351.9,-4914.3,-9827.4,-6828.9,-5989.5,-6.9,-6.0,-478.8,-498.0,-0.6,-79.5,-154.5,-254.7,0,2148,0,87,0, 
1.1967,-229.2,-206.7,-14.7,-211.5,-362.4,-233.7,-214.5,-325.5,-2667.6,-249.3,-110.4,-349.5,-4691.1,-9827.4,-7198.5,-6318.9,-6.9,-6.3,-471.6,-494.7,-0.6,-77.4,-154.5,-252.3,0,2154,0,88,0, 
1.2000,-221.4,-207.0,68.7,-213.3,-363.9,-235.8,-211.8,-329.7,-2445.3,-261.3,-110.7,-348.0,-4491.0,-9827.4,-7227.9,-6561.9,-6.9,-6.0,-471.9,-494.4,-0.9,-82.2,-159.6,-252.3,0,2160,0,89,0, 
1.2033,-224.1,-205.5,-150.3,-209.1,-354.0,-233.4,-204.0,-330.3,-2445.3,-265.2,-106.8,-348.6,-4546.5,-9827.4,-6879.9,-6330.9,-7.2,-6.0,-468.9,-496.5,-0.6,-77.7,-148.8,-250.8,0,2166,0,90,0, 
1.2067,-222.0,-207.9,-299.1,-207.9,-368.4,-231.0,-201.6,-335.1,-2445.3,-266.4,-110.7,-348.9,-4758.9,-9827.4,-6611.7,-5913.3,-7.2,-6.0,-473.7,-496.2,-1.5,-85.2,-144.6,-245.1,0,2172,0,91,0, 
1.2100,-228.9,-209.1,-210.6,-207.9,-363.9,-232.2,-199.5,-340.5,-2593.5,-252.0,-102.9,-345.3,-4851.0,-9827.4,-6816.0,-5935.5,-7.2,-6.0,-465.9,-488.7,-0.9,-72.3,-147.6,-242.4,0,2178,0,92,0, 
1.2133,-225.6,-206.7,-21.3,-207.0,-380.4,-225.6,-208.2,-338.4,-2593.5,-262.8,-103.2,-346.5,-4686.6,-9827.4,-7083.6,-6336.3,-6.6,-6.0,-465.3,-489.0,-0.9,-76.2,-148.8,-246.9,0,2184,0,93,0, 
1.2167,-225.3,-208.8,13.8,-205.2,-375.3,-222.6,-198.3,-336.6,-2445.3,-255.3,-102.9,-345.3,-4472.4,-9827.4,-7059.6,-6491.1,-6.9,-6.0,-468.3,-480.9,-0.9,-66.6,-141.3,-230.1,0,2190,0,94,0, 
1.2200,-224.1,-208.5,-149.4,-208.5,-362.1,-232.5,-202.8,-342.9,-2445.3,-274.2,-117.3,-351.3,-4528.8,-9827.4,-6801.9,-6308.4,-6.9,-6.0,-478.8,-496.2,-0.6,-74.7,-150.9,-242.7,0,2196,0,95,0, 
1.2233,-222.6,-209.7,-300.9,-206.7,-364.2,-235.5,-187.2,-343.5,-2445.3,-259.5,-107.1,-350.7,-4785.0,-9827.4,-6527.7,-5879.7,-6.9,-6.0,-466.5,-488.7,-0.9,-86.4,-145.5,-244.5,0,2202,0,96,0, 
1.2267,-225.0,-221.7,-195.0,-212.1,-354.3,-246.6,-193.8,-344.4,-2593.5,-270.0,-111.0,-355.5,-4877.4,-9827.4,-6721.8,-5913.0,-6.3,-6.0,-475.5,-496.8,-0.9,-94.2,-158.1,-264.3,0,2208,0,97,0, 
1.2300,-225.9,-210.9,-49.5,-207.9,-376.8,-246.3,-215.7,-344.4,-2593.5,-266.7,-105.9,-352.8,-4669.8,-9827.4,-7063.8,-6228.3,-6.6,-5.4,-468.6,-496.8,-0.9,-89.4,-164.1,-256.8,0,2214,0,98,0, 
1.2333,-222.6,-206.7,51.6,-200.1,-374.1,-240.6,-213.9,-337.5,-2445.3,-267.0,-96.9,-342.6,-4502.1,-9827.4,-7175.1,-6525.3,-6.9,-6.0,-460.5,-481.8,-0.9,-71.1,-161.7,-241.8,0,2220,0,99,0, 
1.2367,-224.4,-209.7,-156.3,-198.6,-369.6,-244.5,-200.7,-341.1,-2593.5,-255.6,-95.7,-345.3,-4529.7,-9827.4,-6852.6,-6275.1,-7.2,-5.4,-456.6,-485.1,-1.2,-77.4,-156.0,-237.6,0,2226,0,100,0, 
1.2400,-222.6,-206.7,-324.3,-195.3,-363.3,-240.0,-198.3,-341.4,-2445.3,-260.1,-97.8,-340.5,-4751.7,-9827.4,-6581.4,-5862.9,-7.2,-6.0,-458.1,-489.6,-0.9,-80.7,-151.2,-239.1,0,2232,0,101,0, 
1.2433,-222.3,-207.9,-165.6,-194.4,-364.2,-235.5,-198.9,-337.8,-2667.6,-260.1,-97.5,-337.5,-4840.5,-9827.4,-6709.5,-5865.0,-6.6,-5.7,-459.6,-485.1,-0.9,-90.9,-157.8,-240.9,0,2238,0,102,0, 
1.2467,-223.5,-207.0,66.0,-190.2,-369.3,-238.8,-204.3,-334.8,-2667.6,-245.4,-95.4,-340.5,-4639.8,-9827.4,-7021.8,-6221.4,-6.6,-6.0,-454.5,-485.1,-0.9,-73.5,-155.4,-236.7,0,2244,0,103,0, 
1.2500,-225.9,-206.1,61.2,-187.5,-369.3,-231.9,-201.0,-335.1,-2593.5,-249.0,-89.7,-334.2,-4394.4,-9827.4,-7103.7,-6483.3,-6.6,-5.1,-450.0,-475.5,-0.9,-62.4,-153.6,-234.9,0,2250,0,104,0, 
1.2533,-226.5,-204.9,-70.8,-189.6,-355.5,-235.8,-193.2,-340.2,-2445.3,-264.6,-94.8,-339.3,-4470.0,-9827.4,-6765.9,-6275.7,-6.9,-6.0,-459.6,-479.4,-0.6,-69.0,-151.2,-227.7,0,2256,0,105,0, 
1.2567,-221.4,-208.8,-306.6,-188.4,-358.5,-242.1,-195.3,-340.2,-2519.4,-247.8,-90.9,-336.3,-4711.5,-9827.4,-6682.2,-5894.4,-6.6,-6.0,-460.8,-479.4,-0.6,-82.2,-144.6,-222.6,0,2262,0,106,0, 
1.2600,-222.6,-212.4,-199.2,-193.8,-362.1,-247.8,-200.7,-343.8,-2593.5,-251.7,-96.6,-342.3,-4811.1,-9827.4,-6694.5,-5863.2,-7.5,-5.4,-462.0,-485.7,-0.6,-74.7,-149.7,-223.5,0,2268,0,107,0, 
1.2633,-226.5,-217.8,15.0,-197.4,-363.0,-251.1,-216.6,-347.7,-2593.5,-259.2,-98.4,-342.6,-4594.5,-9827.4,-7058.1,-6246.9,-6.9,-5.7,-463.2,-492.9,-0.3,-81.6,-152.4,-235.5,0,2274,0,108,0, 
1.2667,-221.7,-221.1,61.2,-193.8,-371.7,-243.0,-200.7,-347.4,-2445.3,-255.9,-93.3,-338.7,-4436.4,-9827.4,-7080.9,-6487.2,-7.5,-6.3,-455.7,-490.8,-0.9,-66.0,-143.7,-222.6,0,2280,0,109,0, 
1.2700,-219.6,-214.2,-85.2,-193.2,-359.1,-243.3,-197.7,-351.0,-2445.3,-257.7,-96.9,-339.6,-4473.0,-9827.4,-6705.6,-6202.2,-7.2,-5.7,-464.4,-491.1,-1.2,-76.5,-140.7,-225.3,0,2286,0,110,0, 
1.2733,-221.4,-213.0,-279.3,-197.4,-379.8,-245.4,-195.0,-351.9,-2593.5,-265.8,-108.3,-347.4,-4677.3,-9827.4,-6522.6,-5893.2,-6.9,-6.0,-469.8,-501.0,-1.2,-85.8,-139.5,-224.4,0,2292,0,111,0, 
1.2767,-222.3,-226.5,-203.7,-196.5,-362.1,-242.4,-187.8,-348.9,-2519.4,-260.1,-101.7,-348.9,-4777.8,-9827.4,-6617.4,-5918.7,-6.9,-5.7,-462.6,-497.7,-0.6,-87.3,-148.5,-230.4,0,2298,0,112,0, 
1.2800,-226.2,-220.5,30.6,-199.8,-363.0,-238.8,-212.7,-350.7,-2667.6,-271.8,-105.6,-354.3,-4585.8,-9827.4,-7016.4,-6282.0,-6.6,-6.3,-465.3,-501.9,-0.9,-88.5,-157.8,-224.1,0,2304,0,113,0, 
1.2833,-227.7,-221.1,13.8,-203.4,-379.5,-238.8,-210.3,-348.3,-2519.4,-268.8,-107.4,-353.4,-4395.9,-9827.4,-7092.6,-6575.4,-6.9,-5.4,-472.8,-498.6,-0.6,-85.8,-154.5,-223.8,0,2310,0,114,0, 
1.2867,-227.4,-224.7,-458.4,-198.9,-392.7,-235.5,-208.2,-345.6,-2519.4,-264.9,-109.2,-351.3,-4669.8,-9827.4,-7144.2,-6519.9,-7.8,-5.4,-476.4,-500.1,-1.2,-78.6,-148.2,-215.1,0,2316,0,115,0, 
1.2900,-223.5,-216.9,-499.2,-194.4,-368.1,-231.3,-189.0,-341.1,-2445.3,-267.9,-104.7,-350.7,-4839.9,-9827.4,-6780.6,-6092.7,-7.2,-5.7,-469.2,-496.2,-0.6,-87.3,-150.6,-207.6,0,2322,0,116,0, 
1.2933,-226.5,-220.8,-361.8,-200.4,-378.3,-235.2,-201.6,-343.2,-2667.6,-268.2,-104.4,-354.0,-4885.2,-9827.4,-6786.6,-5975.1,-6.9,-6.0,-468.9,-499.2,-0.9,-90.0,-152.1,-213.9,0,2328,0,117,0, 
1.2967,-225.0,-213.3,-65.7,-201.0,-378.9,-230.7,-200.4,-339.9,-2445.3,-270.0,-106.2,-356.7,-4661.1,-9827.4,-7046.1,-6332.7,-6.9,-6.0,-469.2,-506.1,-0.9,-87.9,-158.4,-211.8,0,2334,0,118,0, 
1.3000,-227.4,-219.9,-32.1,-206.4,-384.3,-234.6,-202.8,-343.5,-2519.4,-270.3,-108.0,-351.6,-4461.0,-9827.4,-7094.7,-6547.8,-7.2,-5.4,-471.9,-507.3,-1.2,-89.1,-157.2,-211.5,0,2340,0,119,0, 
1.3033,-222.6,-210.3,-222.6,-201.6,-361.8,-238.2,-198.3,-340.8,-2371.2,-272.7,-103.5,-348.3,-4482.3,-9827.4,-6806.7,-6331.5,-6.9,-6.0,-466.2,-500.1,-0.9,-83.4,-144.3,-211.2,0,2346,0,120,0, 
1.3067,-220.2,-216.6,-388.2,-201.9,-364.2,-239.1,-184.2,-334.8,-2593.5,-252.6,-102.3,-347.1,-4751.4,-9827.4,-6510.6,-5907.3,-6.6,-5.7,-463.2,-493.5,-1.2,-82.8,-143.7,-217.2,0,2352,0,121,0, 
1.3100,-222.6,-216.3,-249.0,-198.6,-353.1,-232.8,-183.3,-332.4,-2741.7,-261.0,-97.2,-345.6,-4818.3,-9827.4,-6678.6,-5902.8,-7.2,-6.0,-456.3,-487.5,-0.9,-83.1,-146.4,-219.6,0,2358,0,122,0, 
1.3133,-218.4,-210.9,33.6,-191.4,-356.7,-224.4,-186.9,-327.3,-2593.5,-256.8,-94.5,-338.1,-4561.5,-9827.4,-7017.9,-6287.1,-6.9,-6.0,-460.5,-484.8,-1.2,-75.3,-148.5,-210.3,0,2364,0,123,0, 
1.3167,-213.6,-201.6,77.4,-190.2,-360.0,-221.4,-193.8,-321.6,-2519.4,-253.5,-90.6,-338.7,-4405.5,-9827.4,-7116.9,-6498.9,-6.9,-6.0,-453.0,-484.2,-0.9,-70.2,-146.1,-216.6,0,2370,0,124,0, 
1.3200,-219.0,-206.7,-186.0,-192.0,-354.6,-221.4,-191.4,-323.1,-2445.3,-251.1,-92.7,-337.8,-4495.8,-9827.4,-6799.5,-6297.3,-6.6,-5.7,-452.4,-484.2,-0.9,-73.2,-138.9,-210.9,0,2376,0,125,0, 
1.3233,-219.6,-208.2,-337.8,-192.3,-353.7,-233.7,-189.0,-325.8,-2445.3,-245.4,-87.9,-332.7,-4710.6,-9827.4,-6506.4,-5900.4,-6.9,-6.0,-452.1,-474.9,-1.2,-63.3,-138.0,-212.4,0,2382,0,126,0, 
1.3267,-217.8,-198.3,-270.9,-187.8,-372.0,-231.6,-182.7,-325.5,-2519.4,-243.6,-83.7,-330.6,-4765.8,-9827.4,-6685.8,-5871.0,-6.9,-6.0,-446.4,-479.1,-0.9,-61.8,-141.6,-202.8,0,2388,0,127,0, 
1.3300,-221.4,-203.4,-48.6,-188.4,-372.3,-236.7,-180.6,-325.5,-2741.7,-245.1,-84.6,-330.0,-4561.8,-9827.4,-6959.1,-6237.0,-6.6,-5.7,-448.5,-484.2,-0.6,-60.0,-144.6,-206.4,0,2394,0,128,0, 
1.3333,-218.7,-204.0,-39.0,-187.8,-373.5,-233.4,-194.1,-323.7,-2519.4,-237.3,-94.5,-330.9,-4369.2,-9827.4,-7008.3,-6491.1,-6.6,-6.0,-453.9,-481.5,-0.9,-66.9,-137.1,-197.7,0,2400,0,129,0, 
1.3367,-219.6,-197.1,-285.6,-185.1,-363.3,-230.7,-185.4,-321.6,-2593.5,-254.4,-88.5,-330.3,-4473.3,-9827.4,-6735.6,-6239.1,-6.9,-6.0,-444.6,-479.1,-0.9,-60.3,-132.9,-196.2,0,2406,0,130,0, 
1.3400,-216.6,-198.3,-405.9,-183.0,-346.5,-229.5,-183.6,-314.7,-2445.3,-239.7,-78.0,-326.1,-4701.3,-9827.4,-6474.6,-5820.3,-6.9,-6.3,-434.7,-471.0,-0.6,-66.0,-134.4,-195.6,0,2412,0,131,0, 
1.3433,-218.1,-198.3,-252.9,-187.8,-355.5,-233.4,-189.9,-320.7,-2519.4,-246.3,-81.3,-328.2,-4801.8,-9827.4,-6548.7,-5780.1,-6.9,-5.4,-441.3,-480.6,-0.9,-69.9,-142.2,-203.4,0,2418,0,132,0, 
1.3467,-215.1,-193.8,-31.2,-187.8,-355.8,-237.6,-203.1,-326.4,-2519.4,-246.6,-86.4,-331.8,-4602.9,-9827.4,-6955.5,-6200.4,-6.9,-6.3,-443.4,-476.1,-0.9,-81.9,-154.2,-206.7,0,2424,0,133,0, 
1.3500,-220.8,-203.1,21.0,-187.2,-369.0,-234.6,-205.8,-324.0,-2593.5,-242.1,-81.6,-325.8,-4422.6,-9827.4,-6955.5,-6429.6,-6.6,-6.0,-438.3,-470.4,-0.9,-70.5,-151.8,-213.9,0,2430,0,134,0, 
1.3533,-225.9,-196.8,-154.5,-187.5,-353.1,-237.3,-190.8,-332.1,-2445.3,-243.6,-84.6,-324.0,-4488.6,-9827.4,-6641.7,-6230.4,-7.2,-6.0,-443.7,-471.3,-0.9,-61.5,-144.9,-211.2,0,2436,0,135,0, 
1.3567,-221.7,-199.2,-341.7,-186.6,-350.7,-232.2,-184.8,-336.6,-2445.3,-235.8,-83.1,-322.8,-4749.9,-9827.4,-6350.7,-5848.8,-6.9,-6.0,-439.2,-471.0,-0.9,-67.5,-144.3,-216.9,0,2442,0,136,0, 
1.3600,-220.5,-200.1,-224.1,-187.8,-355.8,-233.1,-191.4,-334.2,-2445.3,-240.6,-83.7,-320.4,-4783.5,-9827.4,-6502.8,-5802.6,-6.9,-6.0,-442.8,-468.6,-0.9,-58.2,-139.8,-210.0,0,2448,0,137,0, 
1.3633,-223.2,-199.8,-20.1,-193.2,-368.1,-233.1,-196.5,-338.4,-2667.6,-251.4,-88.5,-325.2,-4601.4,-9827.4,-6936.3,-6166.5,-6.6,-6.3,-448.2,-476.7,-0.6,-61.8,-144.3,-217.8,0,2454,0,138,0, 
1.3667,-224.4,-210.3,32.1,-195.9,-371.1,-229.5,-197.4,-337.2,-2593.5,-249.6,-104.1,-345.3,-4442.7,-9827.4,-6936.6,-6419.7,-7.5,-5.7,-463.2,-489.0,-0.9,-54.0,-141.0,-205.8,0,2460,0,139,0, 
1.3700,-221.7,-200.7,-148.8,-198.6,-372.3,-237.6,-183.0,-335.7,-2445.3,-254.1,-118.2,-358.2,-4537.2,-9827.4,-6672.0,-6149.1,-6.9,-6.0,-476.7,-498.9,-0.9,-71.1,-133.5,-221.4,0,2466,0,140,0, 
1.3733,-224.4,-206.4,-308.7,-198.6,-363.3,-240.3,-180.6,-344.1,-2371.2,-238.8,-106.5,-348.6,-4765.8,-9827.4,-6399.9,-5789.1,-6.6,-6.0,-459.6,-491.1,-0.6,-78.9,-141.6,-216.3,0,2472,0,141,0, 
1.3767,-220.2,-207.6,-193.5,-192.9,-362.4,-231.9,-183.0,-337.2,-2445.3,-253.2,-85.2,-325.8,-4869.6,-9827.4,-6499.8,-5826.3,-7.5,-6.0,-439.5,-480.3,-0.6,-75.9,-138.0,-204.3,0,2478,0,142,0, 
1.3800,-222.3,-203.7,-3.0,-196.5,-362.7,-233.7,-195.3,-337.5,-2593.5,-243.6,-90.6,-333.0,-4661.7,-9827.4,-6840.9,-6163.8,-6.9,-6.3,-444.0,-491.1,-0.9,-70.8,-138.6,-210.0,0,2484,0,143,0, 
1.3833,-226.5,-207.9,105.6,-199.5,-348.0,-234.6,-198.9,-338.4,-2445.3,-249.6,-95.4,-340.2,-4485.3,-9827.4,-6938.4,-6394.8,-6.9,-6.0,-450.3,-496.2,-0.9,-63.6,-144.9,-201.9,0,2490,0,144,0, 
1.3867,-221.4,-199.5,-101.1,-200.4,-359.4,-234.0,-177.9,-338.4,-2593.5,-249.6,-98.4,-344.4,-4548.9,-9827.4,-6652.2,-6125.4,-6.6,-6.3,-453.3,-500.1,-0.6,-83.4,-144.3,-188.1,0,2496,0,145,0, 
1.3900,-224.1,-208.2,-266.7,-205.8,-357.3,-243.6,-183.9,-344.7,-2519.4,-249.9,-102.0,-348.9,-4811.1,-9827.4,-6400.2,-5767.8,-6.6,-5.7,-450.6,-513.3,-0.6,-81.3,-144.3,-208.8,0,2502,0,146,0, 
1.3933,-222.3,-208.2,-195.6,-207.6,-365.4,-243.6,-188.4,-340.5,-2519.4,-240.3,-104.7,-351.0,-4903.2,-9827.4,-6519.0,-5748.9,-7.2,-6.6,-451.8,-510.6,-0.6,-92.4,-146.7,-214.5,0,2508,0,147,0, 
1.3967,-222.9,-199.8,39.6,-198.9,-363.9,-239.1,-191.1,-336.6,-2519.4,-244.2,-95.7,-345.0,-4744.2,-9827.4,-6846.0,-6082.8,-7.2,-5.7,-444.0,-502.5,-0.6,-74.4,-144.3,-215.4,0,2514,0,148,0, 
1.4000,-222.3,-200.4,76.8,-199.5,-366.9,-234.6,-185.4,-340.2,-2593.5,-240.3,-93.3,-338.1,-4509.6,-9827.4,-6905.7,-6334.5,-6.9,-6.0,-438.0,-499.8,-0.6,-77.7,-145.2,-209.7,0,2520,0,149,0, 
1.4033,-223.8,-195.0,-129.3,-194.7,-352.5,-234.0,-181.2,-335.7,-2519.4,-243.0,-90.0,-331.8,-4556.4,-9827.4,-6632.1,-6140.4,-6.9,-6.3,-439.2,-491.7,-1.2,-72.0,-146.1,-213.3,0,2526,0,150,0, 
1.4067,-221.4,-194.7,-257.1,-192.0,-346.2,-235.2,-174.6,-332.4,-2445.3,-233.7,-87.6,-330.0,-4817.1,-9827.4,-6372.6,-5751.3,-6.9,-6.3,-438.9,-491.7,-0.9,-65.7,-138.9,-211.5,0,2532,0,151,0, 
1.4100,-227.4,-198.0,-122.4,-195.3,-337.8,-234.0,-183.3,-337.5,-2593.5,-240.6,-90.3,-335.1,-4918.2,-9827.4,-6492.3,-5777.7,-6.9,-5.7,-442.5,-489.9,-0.9,-75.6,-143.7,-207.6,0,2538,0,152,0, 
1.4133,-225.9,-195.6,37.5,-191.7,-350.1,-228.6,-190.2,-329.1,-2667.6,-238.5,-89.4,-334.2,-4737.6,-9827.4,-6851.4,-6186.9,-6.9,-6.0,-439.2,-490.5,-0.9,-68.7,-145.2,-213.6,0,2544,0,153,0, 
1.4167,-228.9,-197.7,93.0,-192.6,-345.0,-237.0,-192.0,-329.7,-2593.5,-240.3,-90.6,-336.0,-4512.9,-9827.4,-6872.1,-6448.8,-7.5,-5.4,-441.9,-497.7,-1.2,-79.5,-151.5,-215.4,0,2550,0,154,0, 
1.4200,-224.7,-192.0,-80.1,-189.6,-352.5,-238.2,-191.7,-321.3,-2445.3,-225.9,-89.1,-338.4,-4588.5,-9827.4,-6654.3,-6283.2,-7.2,-6.0,-434.4,-499.2,-0.9,-69.0,-147.9,-213.0,0,2556,0,155,0, 
1.4233,-224.1,-189.9,-232.5,-191.4,-344.4,-228.6,-188.4,-323.7,-2519.4,-236.7,-85.8,-331.8,-4854.0,-9827.4,-6435.6,-5852.1,-7.2,-5.4,-433.5,-490.5,-0.6,-67.2,-145.2,-202.2,0,2562,0,156,0, 
1.4267,-225.3,-196.2,-115.5,-195.9,-349.2,-238.5,-187.2,-323.4,-2519.4,-236.1,-90.0,-333.6,-4989.3,-9827.4,-6463.8,-5810.4,-7.2,-6.0,-439.8,-491.1,-0.9,-72.0,-144.9,-217.8,0,2568,0,157,0, 
1.4300,-223.5,-195.0,140.7,-192.9,-342.9,-238.2,-193.5,-321.9,-2519.4,-242.4,-95.4,-337.8,-4750.2,-9827.4,-6832.5,-6174.9,-6.3,-5.7,-438.9,-488.1,-1.2,-74.4,-144.9,-216.0,0,2574,0,158,0, 
1.4333,-224.7,-200.4,117.6,-195.9,-345.9,-237.6,-184.5,-315.6,-2519.4,-243.0,-99.0,-336.9,-4535.7,-9827.4,-6880.8,-6458.1,-6.9,-5.7,-444.0,-488.1,-0.9,-69.3,-150.9,-215.4,0,2580,0,159,0, 
1.4367,-227.7,-201.3,-73.8,-200.1,-372.9,-241.8,-197.4,-318.6,-2519.4,-253.2,-105.0,-349.2,-4605.0,-9827.4,-6555.9,-6233.1,-6.6,-6.0,-459.0,-501.9,-1.5,-93.6,-147.9,-208.2,0,2586,0,160,0, 
1.4400,-225.9,-195.9,-255.3,-197.1,-340.8,-239.4,-185.1,-314.1,-2593.5,-249.3,-101.7,-349.5,-4830.6,-9827.4,-6275.1,-5826.6,-6.9,-6.0,-449.7,-506.7,-0.6,-90.0,-147.3,-205.2,0,2592,0,161,0, 
1.4433,-228.6,-207.6,-204.6,-199.2,-347.7,-237.0,-184.8,-320.7,-2593.5,-243.0,-105.3,-354.0,-4914.3,-9827.4,-6406.8,-5865.3,-6.9,-5.7,-450.6,-506.4,-0.6,-82.8,-145.5,-211.5,0,2598,0,162,0, 
1.4467,-230.4,-192.9,63.6,-200.4,-347.1,-243.9,-181.2,-315.6,-2667.6,-242.4,-102.6,-350.7,-4657.8,-9827.4,-6691.2,-6168.0,-7.2,-6.3,-447.9,-501.6,-0.9,-79.8,-146.4,-213.9,0,2604,0,163,0, 
1.4500,-229.5,-199.8,81.9,-201.3,-361.2,-236.7,-197.4,-320.4,-2519.4,-256.5,-109.5,-355.8,-4524.3,-9827.4,-6841.2,-6462.0,-6.9,-6.0,-457.5,-507.9,-0.3,-95.1,-150.0,-209.1,0,2610,0,164,0, 
1.4533,-226.8,-200.7,-124.5,-197.1,-355.2,-226.5,-181.2,-321.6,-2371.2,-248.1,-104.1,-349.2,-4626.6,-9827.4,-6471.6,-6269.1,-6.6,-6.0,-448.8,-506.7,-0.9,-82.8,-140.7,-193.8,0,2616,0,165,0, 
1.4567,-228.0,-199.5,-221.1,-197.4,-346.5,-229.5,-171.9,-325.2,-2519.4,-244.2,-106.5,-351.3,-4851.0,-9827.4,-6252.6,-5831.7,-7.2,-6.0,-445.2,-508.8,-0.6,-84.0,-146.1,-207.9,0,2622,0,166,0, 
1.4600,-225.9,-196.5,-99.3,-189.6,-344.1,-232.5,-181.8,-322.8,-2445.3,-238.2,-97.2,-340.8,-4906.8,-9827.4,-6438.0,-5794.5,-7.2,-5.7,-439.5,-498.9,-0.9,-80.1,-142.5,-209.4,0,2628,0,167,0, 
1.4633,-231.0,-198.3,99.9,-191.4,-359.4,-235.8,-187.5,-324.3,-2593.5,-237.6,-102.6,-346.5,-4756.8,-9827.4,-6794.4,-6201.9,-7.2,-6.0,-441.3,-504.6,-0.6,-84.0,-157.8,-216.6,0,2634,0,168,0, 
1.4667,-229.8,-190.8,155.1,-190.2,-343.5,-231.0,-188.1,-323.4,-2593.5,-237.3,-99.9,-341.4,-4559.7,-9827.4,-6897.9,-6428.4,-6.6,-6.0,-441.0,-500.7,-0.9,-67.5,-151.2,-206.4,0,2640,0,169,0, 
1.4700,-232.2,-195.9,-112.2,-193.5,-359.4,-231.9,-185.7,-327.3,-2519.4,-236.4,-99.0,-341.4,-4621.5,-9827.4,-6612.6,-6243.9,-6.9,-6.3,-443.1,-499.2,-0.9,-81.3,-151.8,-208.2,0,2646,0,170,0, 
1.4733,-228.6,-203.4,-271.2,-188.4,-345.0,-228.0,-172.8,-326.7,-2593.5,-231.3,-91.8,-334.8,-4860.6,-9827.4,-6264.3,-5835.6,-7.2,-5.7,-434.7,-496.5,-0.6,-69.3,-138.6,-199.2,0,2652,0,171,0, 
1.4767,-225.0,-200.1,-159.6,-189.0,-336.9,-227.1,-169.2,-331.5,-2371.2,-233.1,-95.4,-337.2,-4968.9,-9827.4,-6396.6,-5763.3,-6.9,-6.0,-435.6,-493.2,-0.9,-63.9,-137.7,-203.4,0,2658,0,172,0, 
1.4800,-228.3,-201.3,113.1,-193.5,-345.0,-227.4,-189.0,-334.2,-2593.5,-233.4,-103.8,-342.6,-4728.6,-9827.4,-6694.8,-6110.1,-6.9,-5.7,-447.0,-499.8,-0.9,-67.2,-132.0,-212.4,0,2664,0,173,0, 
1.4833,-227.4,-199.2,91.5,-198.0,-358.8,-224.4,-184.5,-333.6,-2667.6,-234.9,-98.1,-345.9,-4550.4,-9827.4,-6750.0,-6350.7,-7.2,-6.0,-443.1,-506.7,-0.9,-67.5,-131.1,-210.3,0,2670,0,174,0, 
1.4867,-231.6,-207.9,-90.9,-200.4,-360.9,-228.9,-187.5,-336.0,-2445.3,-240.3,-102.3,-345.9,-4639.5,-9827.4,-6498.6,-6145.2,-6.9,-5.7,-448.2,-508.8,-0.6,-78.9,-124.5,-204.3,0,2676,0,175,0, 
1.4900,-229.2,-204.0,-235.2,-196.8,-349.2,-227.7,-169.2,-331.2,-2445.3,-243.6,-105.3,-347.7,-4872.3,-9827.4,-6281.1,-5772.9,-6.6,-6.3,-451.8,-509.7,-0.9,-74.1,-130.2,-199.5,0,2682,0,176,0, 
1.4933,-229.5,-203.1,-234.3,-194.4,-354.6,-211.2,-179.1,-328.2,-2519.4,-238.2,-102.3,-344.1,-4968.0,-9827.4,-6467.7,-5792.1,-6.6,-5.4,-448.5,-507.9,-0.6,-75.3,-133.8,-194.1,0,2688,0,177,0, 
1.4967,-228.3,-192.3,330.6,-198.3,-342.0,-223.2,-180.6,-332.7,-2593.5,-261.3,-108.3,-351.3,-4573.8,-9827.4,-6381.9,-5828.1,-6.9,-6.0,-452.7,-504.9,-0.9,-93.0,-136.2,-204.0,0,2694,0,178,0, 
1.5000,-226.2,-201.6,567.6,-195.3,-329.4,-224.7,-174.9,-325.5,-2593.5,-251.7,-105.6,-345.9,-4283.7,-9827.4,-6264.0,-5991.0,-6.9,-5.7,-452.1,-497.4,-1.2,-84.9,-133.2,-203.7,0,2700,0,179,0, 
1.5033,-222.9,-204.9,172.5,-190.8,-342.6,-225.0,-174.9,-323.1,-2593.5,-257.1,-106.2,-344.7,-4461.6,-9827.4,-6242.1,-5980.2,-6.9,-6.3,-447.6,-503.1,-1.2,-79.8,-137.4,-203.7,0,2706,0,180,0, 
1.5067,-214.5,-190.5,-69.3,-181.5,-325.5,-220.5,-174.3,-312.9,-2445.3,-248.4,-95.1,-335.4,-4756.5,-9827.4,-6123.6,-5637.9,-6.9,-5.7,-446.4,-495.3,-0.9,-81.3,-134.4,-201.6,0,2712,0,181,0, 
1.5100,-219.6,-200.7,-24.0,-183.9,-330.3,-222.9,-180.0,-314.4,-2593.5,-255.0,-96.0,-343.5,-4890.6,-9827.4,-6333.0,-5685.6,-7.2,-6.3,-446.7,-500.7,-0.9,-82.8,-136.8,-205.8,0,2718,0,182,0, 
1.5133,-216.0,-202.5,170.1,-182.4,-347.1,-224.7,-180.6,-311.4,-2519.4,-245.1,-94.5,-342.0,-4720.8,-9827.4,-6679.8,-6038.7,-6.9,-6.0,-436.5,-499.5,-0.9,-77.7,-143.4,-210.3,0,2724,0,183,0, 
1.5167,-220.2,-201.3,213.3,-188.1,-339.3,-230.1,-190.8,-315.3,-2593.5,-260.4,-96.3,-339.6,-4546.2,-9827.4,-6759.6,-6326.4,-6.9,-6.0,-438.6,-501.6,-0.9,-90.6,-148.2,-209.1,0,2730,0,184,0, 
1.5200,-221.7,-198.9,-26.4,-190.2,-334.2,-226.8,-177.6,-315.9,-2445.3,-250.8,-97.2,-341.4,-4611.6,-9827.4,-6421.5,-6096.6,-6.6,-5.7,-440.7,-500.4,-0.9,-75.6,-152.7,-210.0,0,2736,0,185,0, 
1.5233,-225.0,-200.7,-172.2,-187.5,-338.4,-229.5,-183.3,-321.3,-2371.2,-252.6,-98.7,-336.3,-4890.3,-9827.4,-6248.4,-5776.5,-6.9,-5.7,-436.2,-496.2,-0.6,-63.6,-150.9,-227.7,0,2742,0,186,0, 
1.5267,-223.5,-201.9,-79.8,-187.8,-336.9,-231.3,-182.7,-321.6,-2519.4,-241.5,-93.6,-340.5,-4970.4,-9827.4,-6356.1,-5691.0,-6.3,-5.4,-435.6,-497.4,-0.3,-84.3,-157.8,-210.3,0,2748,0,187,0, 
1.5300,-227.1,-200.4,131.4,-186.3,-346.8,-231.3,-201.3,-320.1,-2593.5,-251.7,-92.1,-338.4,-4791.3,-9827.4,-6684.9,-6101.1,-6.9,-6.0,-432.3,-490.8,-1.2,-88.2,-158.1,-224.7,0,2754,0,188,0, 
1.5333,-224.4,-204.0,184.5,-189.3,-333.3,-231.3,-197.4,-323.1,-2519.4,-249.0,-95.1,-337.5,-4518.0,-9827.4,-6734.1,-6301.8,-6.9,-5.4,-443.1,-486.6,-1.2,-75.6,-150.0,-220.2,0,2760,0,189,0, 
1.5367,-224.4,-198.9,-42.3,-192.9,-334.5,-232.5,-187.8,-326.1,-2445.3,-248.7,-95.7,-336.9,-4652.7,-9827.4,-6498.9,-6133.2,-7.2,-6.3,-439.2,-487.5,-1.2,-77.1,-150.0,-218.4,0,2766,0,190,0, 
1.5400,-225.6,-195.0,-201.3,-190.8,-318.6,-229.8,-184.2,-330.6,-2519.4,-246.3,-96.0,-342.3,-4869.3,-9827.4,-6219.3,-5735.4,-7.2,-6.3,-442.2,-496.8,-0.9,-93.9,-154.8,-218.1,0,2772,0,191,0, 
1.5433,-223.8,-190.5,-74.4,-191.4,-336.0,-231.0,-190.5,-330.0,-2593.5,-254.1,-95.7,-336.9,-4947.6,-9827.4,-6317.4,-5691.9,-6.9,-6.0,-438.9,-489.3,-0.6,-87.6,-153.0,-218.7,0,2778,0,192,0, 
1.5467,-231.0,-205.2,96.0,-193.2,-352.5,-228.9,-203.4,-339.3,-2593.5,-244.2,-97.5,-339.9,-4765.5,-9827.4,-6667.8,-6067.2,-6.6,-5.4,-438.9,-495.6,-0.9,-79.8,-156.6,-214.8,0,2784,0,193,0, 
1.5500,-234.6,-204.0,182.7,-195.6,-339.0,-227.7,-198.0,-342.3,-2519.4,-246.9,-100.2,-342.3,-4531.5,-9827.4,-6798.6,-6330.0,-7.2,-5.7,-440.4,-500.1,-0.9,-83.7,-159.3,-226.8,0,2790,0,194,0, 
1.5533,-227.1,-195.6,-27.6,-192.3,-333.0,-228.6,-199.2,-336.9,-2445.3,-240.0,-103.8,-342.6,-4567.5,-9827.4,-6429.3,-6157.8,-6.6,-6.0,-442.2,-495.3,-1.2,-81.6,-150.3,-222.9,0,2796,0,195,0, 
1.5567,-229.2,-202.8,-177.6,-198.3,-338.7,-232.5,-198.0,-334.2,-2593.5,-248.7,-108.3,-346.2,-4884.0,-9827.4,-6204.9,-5778.0,-6.9,-6.0,-448.8,-503.4,-0.9,-81.9,-162.9,-215.7,0,2802,0,196,0, 
1.5600,-225.6,-194.7,-69.3,-194.7,-340.5,-233.7,-205.5,-330.3,-2519.4,-243.0,-104.7,-344.4,-4938.9,-9827.4,-6329.7,-5724.3,-6.6,-6.0,-444.9,-503.4,-0.9,-75.0,-163.8,-212.4,0,2808,0,197,0, 
1.5633,-228.0,-201.3,99.0,-194.1,-348.0,-228.6,-203.4,-325.5,-2519.4,-255.3,-100.2,-342.6,-4745.4,-9827.4,-6694.5,-6147.0,-6.9,-6.0,-442.2,-500.1,-1.2,-76.2,-156.3,-219.0,0,2814,0,198,0, 
1.5667,-227.1,-195.9,135.6,-191.1,-343.5,-228.0,-200.4,-321.9,-2519.4,-253.5,-102.3,-342.6,-4575.9,-9827.4,-6735.3,-6386.4,-6.9,-6.3,-438.0,-499.5,-0.6,-71.7,-158.1,-218.4,0,2820,0,199,0, 
1.5700,-224.4,-192.0,-75.9,-191.1,-347.7,-222.9,-198.0,-320.4,-2371.2,-245.1,-104.1,-348.6,-4628.4,-9827.4,-6447.9,-6179.4,-7.2,-6.3,-441.3,-511.2,-0.9,-83.7,-156.9,-206.1,0,2826,0,200,0, 
1.5733,-223.8,-193.8,-242.7,-189.0,-356.1,-227.7,-190.5,-319.8,-2519.4,-243.3,-101.4,-345.6,-4884.6,-9827.4,-6237.6,-5845.8,-6.9,-6.0,-437.7,-505.8,-0.9,-79.8,-156.0,-219.0,0,2832,0,201,0, 
1.5767,-216.9,-189.0,-89.4,-189.6,-350.7,-222.9,-185.7,-319.2,-2519.4,-251.4,-96.0,-343.2,-4968.0,-9827.4,-6375.3,-5712.6,-6.9,-6.3,-431.4,-496.5,-0.9,-85.2,-157.8,-213.3,0,2838,0,202,0, 
1.5800,-221.4,-193.2,181.2,-186.0,-345.6,-229.8,-197.7,-318.9,-2741.7,-240.0,-94.8,-336.0,-4759.5,-9827.4,-6679.8,-6086.7,-6.6,-5.7,-435.0,-495.6,-0.9,-78.0,-160.8,-215.4,0,2844,0,203,0, 
1.5833,-221.7,-187.2,193.8,-188.4,-341.1,-224.4,-197.1,-322.2,-2519.4,-242.1,-99.6,-339.3,-4572.3,-9827.4,-6705.3,-6379.5,-6.6,-6.3,-441.3,-500.1,-1.2,-78.3,-159.0,-205.5,0,2850,0,204,0, 
1.5867,-228.6,-198.9,-39.3,-194.7,-350.4,-235.5,-199.8,-329.4,-2519.4,-255.0,-107.4,-345.6,-4643.1,-9827.4,-6474.0,-6193.8,-7.2,-5.7,-452.7,-507.9,-0.9,-87.0,-161.7,-222.0,0,2856,0,205,0, 
1.5900,-226.8,-197.4,-196.2,-193.2,-345.9,-228.0,-185.7,-325.8,-2519.4,-257.1,-108.9,-346.2,-4866.3,-9827.4,-6237.3,-5822.1,-6.9,-5.7,-452.7,-508.5,-0.9,-97.2,-155.4,-220.5,0,2862,0,206,0, 
1.5933,-226.2,-199.5,-25.8,-190.2,-343.2,-227.7,-195.0,-325.5,-2519.4,-257.1,-101.4,-342.3,-4953.9,-9827.4,-6287.7,-5753.4,-6.6,-6.3,-447.6,-505.5,-0.9,-78.3,-160.8,-228.3,0,2868,0,207,0, 
1.5967,-226.5,-197.7,182.1,-193.5,-345.6,-227.7,-202.2,-327.9,-2593.5,-253.2,-106.5,-341.4,-4740.9,-9827.4,-6613.2,-6098.1,-6.9,-6.0,-447.9,-507.3,-0.9,-92.1,-160.5,-216.3,0,2874,0,208,0, 
1.6000,-230.7,-204.0,281.4,-195.0,-350.1,-236.1,-215.4,-329.7,-2519.4,-254.7,-110.1,-344.1,-4559.4,-9827.4,-6681.9,-6373.5,-6.9,-6.0,-448.8,-510.9,-0.9,-96.9,-165.9,-233.7,0,2880,0,209,0, 
1.6033,-225.0,-202.5,22.2,-190.5,-347.4,-235.5,-197.4,-325.2,-2371.2,-250.8,-97.8,-340.2,-4628.4,-9827.4,-6460.8,-6258.3,-6.9,-6.0,-441.3,-502.5,-0.9,-89.7,-154.8,-219.9,0,2886,0,210,0, 
1.6067,-228.0,-204.3,-113.1,-193.5,-337.8,-232.8,-195.6,-324.3,-2519.4,-258.3,-102.6,-345.3,-4892.4,-9827.4,-6158.1,-5796.3,-6.6,-6.0,-447.6,-501.9,-0.6,-89.1,-154.2,-216.0,0,2892,0,211,0, 
1.6100,-223.5,-209.1,-158.7,-191.4,-341.7,-234.9,-188.4,-321.9,-2593.5,-258.9,-105.0,-341.4,-5022.3,-9827.4,-6392.7,-5856.6,-7.2,-5.7,-450.9,-501.6,-0.3,-96.9,-153.6,-225.9,0,2898,0,212,0, 
1.6133,-222.6,-211.5,66.6,-193.2,-343.5,-236.4,-192.9,-321.6,-2667.6,-246.9,-110.4,-347.1,-4838.1,-9827.4,-6732.3,-6205.2,-6.3,-5.7,-454.8,-498.9,-0.9,-85.8,-161.1,-228.6,0,2904,0,213,0, 
1.6167,-226.8,-199.5,122.1,-198.0,-360.9,-236.7,-206.4,-319.8,-2667.6,-267.0,-109.8,-348.9,-4625.7,-9827.4,-6808.2,-6474.6,-6.9,-5.7,-452.7,-503.4,-0.6,-91.2,-161.4,-226.2,0,2910,0,214,0, 
1.6200,-224.7,-200.4,-59.4,-186.9,-347.1,-234.9,-202.8,-315.3,-2593.5,-255.6,-90.9,-333.9,-4685.1,-9827.4,-6504.0,-6239.7,-6.6,-5.7,-430.2,-498.6,-0.6,-84.0,-150.9,-210.9,0,2916,0,215,0, 
1.6233,-222.3,-201.0,-238.2,-192.3,-338.4,-236.1,-194.7,-317.4,-2519.4,-260.4,-98.7,-340.5,-4926.0,-9827.4,-6319.2,-5887.2,-6.6,-6.6,-440.4,-502.8,-0.6,-86.7,-156.6,-205.2,0,2922,0,216,0, 
1.6267,-228.3,-204.6,-97.2,-187.2,-339.0,-228.6,-189.0,-322.2,-2371.2,-257.1,-99.9,-340.5,-5032.5,-9827.4,-6442.2,-5786.1,-6.6,-5.7,-443.4,-502.2,-1.2,-97.2,-156.0,-211.2,0,2928,0,217,0, 
1.6300,-230.4,-206.1,81.9,-191.1,-355.2,-234.9,-215.4,-325.8,-2667.6,-262.8,-101.4,-342.0,-4861.5,-9827.4,-6853.5,-6198.0,-6.9,-6.0,-440.7,-498.6,-0.9,-89.1,-159.0,-211.2,0,2934,0,218,0, 
1.6333,-230.7,-211.8,161.7,-188.4,-364.8,-231.6,-199.5,-331.2,-2519.4,-263.7,-99.6,-339.0,-4644.3,-9827.4,-6874.8,-6430.2,-6.9,-6.0,-439.5,-496.5,-0.9,-92.1,-151.5,-208.5,0,2940,0,219,0, 
1.6367,-228.9,-207.6,38.4,-193.2,-358.8,-229.5,-191.7,-327.3,-2519.4,-265.5,-105.9,-347.4,-4746.6,-9827.4,-6565.2,-6244.8,-6.6,-5.7,-447.3,-506.7,-0.9,-90.9,-151.2,-200.7,0,2946,0,220,0, 
1.6400,-228.9,-213.0,-119.4,-196.2,-334.8,-221.7,-185.7,-330.6,-2519.4,-268.5,-106.8,-351.6,-4967.4,-9827.4,-6309.3,-5856.3,-6.9,-6.0,-444.6,-510.3,-0.6,-101.4,-145.5,-192.6,0,2952,0,221,0, 
1.6433,-232.8,-209.7,-9.9,-201.0,-352.2,-224.1,-184.2,-335.7,-2667.6,-264.6,-113.4,-354.3,-5026.5,-9827.4,-6415.5,-5858.4,-6.6,-5.7,-455.7,-515.1,-1.2,-101.4,-149.7,-198.0,0,2958,0,222,0, 
1.6467,-226.2,-200.1,186.9,-198.9,-347.7,-223.2,-186.6,-327.0,-2519.4,-275.1,-112.5,-350.7,-4816.5,-9827.4,-6788.7,-6186.3,-7.2,-6.6,-451.2,-508.8,-1.2,-92.7,-144.9,-204.3,0,2964,0,223,0, 
1.6500,-222.0,-196.5,156.3,-196.2,-343.8,-223.8,-189.6,-326.7,-2667.6,-260.4,-108.6,-344.4,-4620.6,-9827.4,-6873.0,-6458.7,-7.2,-5.7,-446.1,-499.5,-0.9,-96.0,-144.0,-201.9,0,2970,0,224,0, 
1.6533,-225.9,-199.2,-21.3,-200.7,-341.7,-224.1,-187.5,-332.4,-2593.5,-262.5,-111.3,-349.2,-4672.5,-9827.4,-6657.6,-6239.7,-7.5,-6.3,-450.0,-499.5,-1.2,-89.1,-147.0,-215.1,0,2976,0,225,0, 
1.6567,-227.1,-200.1,-222.0,-200.4,-337.5,-223.2,-174.9,-330.3,-2519.4,-251.1,-111.9,-345.9,-4922.1,-9827.4,-6318.6,-5868.3,-7.2,-5.7,-447.3,-495.9,-1.2,-80.4,-131.1,-198.6,0,2982,0,226,0, 
1.6600,-226.5,-199.5,-118.2,-202.2,-355.5,-227.7,-181.5,-333.9,-2667.6,-255.0,-108.3,-343.8,-4992.3,-9827.4,-6418.2,-5831.7,-7.5,-6.3,-444.0,-494.4,-0.3,-78.6,-136.8,-207.6,0,2988,0,227,0, 
1.6633,-233.1,-211.5,167.7,-207.3,-366.0,-236.1,-202.2,-338.4,-2593.5,-249.3,-114.6,-350.4,-4794.6,-9827.4,-6752.7,-6184.5,-7.2,-5.7,-450.0,-501.0,-1.2,-82.2,-146.1,-219.3,0,2994,0,228,0, 
1.6667,-225.3,-203.1,187.2,-201.0,-360.6,-233.4,-195.0,-333.0,-2667.6,-247.8,-107.4,-347.1,-4532.7,-9827.4,-6753.0,-6439.8,-6.9,-6.0,-444.3,-500.7,-0.9,-75.0,-138.9,-225.6,0,3000,0,229,0, 
1.6700,-227.7,-198.0,-39.6,-195.3,-365.7,-229.2,-186.0,-328.2,-2593.5,-237.6,-101.4,-344.7,-4617.6,-9827.4,-6582.6,-6258.6,-6.9,-6.0,-437.1,-489.9,-0.6,-78.3,-145.2,-225.3,0,3006,0,230,0, 
1.6733,-226.8,-199.8,-166.2,-199.2,-361.8,-233.1,-183.0,-327.9,-2445.3,-245.4,-104.1,-342.3,-4922.7,-9827.4,-6326.1,-5925.3,-7.2,-5.7,-441.9,-489.9,-0.9,-81.9,-139.8,-222.0,0,3012,0,231,0, 
1.6767,-231.3,-198.9,-124.2,-210.3,-379.2,-238.5,-187.5,-331.2,-2519.4,-264.6,-113.1,-345.6,-4993.2,-9827.4,-6468.0,-5908.2,-7.2,-6.0,-450.3,-497.1,-0.9,-81.9,-146.4,-224.1,0,3018,0,232,0, 
1.6800,-229.8,-202.8,94.8,-204.0,-361.5,-231.9,-197.7,-331.2,-2741.7,-249.0,-110.1,-346.2,-4773.3,-9827.4,-6771.3,-6202.2,-6.9,-6.0,-450.3,-497.4,-0.9,-84.3,-149.7,-221.1,0,3024,0,233,0, 
1.6833,-231.6,-198.6,123.6,-207.0,-383.4,-234.9,-187.8,-330.0,-2667.6,-251.7,-115.5,-352.2,-4611.6,-9827.4,-6942.0,-6457.5,-6.9,-5.7,-452.7,-504.0,-0.6,-92.4,-149.4,-217.2,0,3030,0,234,0, 
1.6867,-228.9,-203.7,-15.6,-204.3,-357.0,-230.7,-179.1,-325.2,-2519.4,-245.7,-112.5,-349.2,-4662.6,-9827.4,-6679.2,-6275.7,-6.9,-6.0,-436.8,-496.2,-0.9,-84.6,-143.7,-196.8,0,3036,0,235,0, 
1.6900,-227.1,-198.9,-251.4,-207.9,-366.9,-235.2,-178.2,-329.1,-2445.3,-248.4,-112.2,-350.7,-4985.7,-9827.4,-6448.5,-5937.9,-6.9,-5.7,-440.7,-502.2,-0.9,-86.1,-147.0,-209.4,0,3042,0,236,0, 
1.6933,-222.9,-196.5,-395.4,-202.8,-380.1,-240.0,-188.4,-332.4,-2667.6,-240.9,-102.6,-348.6,-5257.2,-9827.4,-6866.4,-6036.9,-6.9,-6.3,-434.4,-504.9,-0.9,-97.8,-156.0,-228.0,0,3048,0,237,0, 
1.6967,-222.9,-195.3,-27.0,-204.3,-377.4,-240.9,-187.8,-327.6,-2519.4,-247.2,-105.6,-348.0,-4960.2,-9827.4,-7069.8,-6348.9,-6.6,-5.7,-441.3,-500.4,-0.9,-93.3,-156.3,-239.1,0,3054,0,238,0, 
1.7000,-227.7,-196.2,6.3,-205.8,-378.3,-240.9,-191.7,-325.5,-2519.4,-248.1,-104.7,-348.9,-4727.1,-9827.4,-7038.3,-6567.0,-6.6,-6.0,-440.7,-509.1,-0.6,-86.4,-162.9,-225.3,0,3060,0,239,0, 
1.7033,-225.3,-191.4,-111.0,-206.7,-358.8,-242.4,-186.6,-330.9,-2519.4,-262.8,-108.9,-348.3,-4773.9,-9827.4,-6722.1,-6323.1,-6.9,-6.0,-444.3,-511.2,-0.6,-95.4,-158.1,-227.1,0,3066,0,240,0, 
1.7067,-223.8,-192.0,-281.1,-196.2,-337.2,-234.3,-186.9,-320.7,-2519.4,-243.0,-103.5,-341.7,-4975.5,-9827.4,-6490.2,-5902.5,-6.9,-6.0,-438.3,-505.5,-0.6,-84.0,-157.5,-209.4,0,3072,0,241,0, 
1.7100,-226.2,-192.3,-253.8,-193.5,-332.7,-235.5,-174.3,-319.5,-2519.4,-246.3,-98.4,-335.4,-5092.8,-9827.4,-6594.0,-5903.7,-6.6,-6.0,-432.0,-501.9,-1.2,-89.7,-152.1,-222.0,0,3078,0,242,0, 
1.7133,-225.6,-191.1,6.9,-190.2,-333.9,-237.3,-190.8,-324.0,-2593.5,-243.0,-93.9,-331.8,-4893.6,-9827.4,-6858.6,-6214.2,-7.5,-5.7,-429.6,-497.4,-0.6,-85.5,-158.4,-228.3,0,3084,0,243,0, 
1.7167,-225.9,-190.2,39.9,-191.4,-358.8,-233.4,-195.0,-323.7,-2519.4,-247.2,-97.2,-333.9,-4718.7,-9827.4,-6950.7,-6478.8,-6.9,-6.3,-430.8,-504.0,-0.9,-83.7,-157.2,-220.8,0,3090,0,244,0, 
1.7200,-221.7,-190.5,-126.9,-190.8,-342.0,-237.9,-195.9,-319.5,-2519.4,-243.9,-101.1,-337.8,-4737.6,-9827.4,-6680.4,-6273.9,-6.6,-5.4,-428.7,-499.5,-0.9,-82.2,-153.0,-209.4,0,3096,0,245,0, 
1.7233,-228.9,-201.3,-329.4,-193.8,-346.2,-238.2,-175.8,-321.3,-2371.2,-251.7,-100.5,-342.6,-5057.7,-9827.4,-6423.0,-5916.0,-6.9,-6.3,-435.0,-502.2,-0.9,-79.8,-147.6,-222.3,0,3102,0,246,0, 
1.7267,-223.2,-197.4,-204.6,-191.1,-344.4,-232.5,-173.1,-322.8,-2667.6,-239.4,-94.8,-343.8,-5123.4,-9827.4,-6498.0,-5859.3,-6.9,-6.0,-432.3,-504.6,-1.2,-87.6,-154.5,-224.4,0,3108,0,247,0, 
1.7300,-226.8,-198.0,33.0,-195.3,-354.0,-231.9,-184.8,-324.0,-2593.5,-259.5,-101.1,-341.4,-4915.2,-9827.4,-6851.1,-6265.2,-6.6,-5.7,-438.6,-511.2,-1.2,-88.8,-156.3,-228.0,0,3114,0,248,0, 
1.7333,-223.2,-196.5,103.8,-197.7,-358.2,-227.7,-179.7,-323.7,-2519.4,-251.1,-102.9,-339.0,-4707.6,-9827.4,-6988.2,-6554.4,-6.9,-6.3,-442.5,-507.9,-1.2,-84.3,-149.4,-219.3,0,3120,0,249,0, 
1.7367,-220.2,-191.7,-93.6,-200.4,-359.7,-231.0,-171.3,-325.2,-2593.5,-258.0,-108.6,-345.3,-4772.1,-9827.4,-6720.6,-6387.0,-6.9,-6.0,-438.9,-506.7,-0.6,-95.4,-147.3,-213.6,0,3126,0,250,0, 
1.7400,-222.3,-192.9,-227.4,-201.0,-334.8,-231.6,-170.1,-330.0,-2445.3,-255.0,-110.7,-346.2,-5008.5,-9827.4,-6417.0,-5941.5,-6.6,-5.7,-442.5,-509.1,-0.9,-97.5,-148.5,-204.6,0,3132,0,251,0, 
1.7433,-222.6,-201.9,-116.7,-201.9,-343.2,-222.9,-162.9,-326.4,-2593.5,-255.3,-114.0,-351.6,-5026.2,-9827.4,-6442.8,-5889.3,-7.2,-6.0,-445.2,-506.7,-0.6,-86.7,-140.1,-205.5,0,3138,0,252,0, 
1.7467,-222.0,-196.2,99.9,-205.8,-356.7,-230.7,-171.3,-330.9,-2593.5,-273.9,-118.2,-351.0,-4877.1,-9827.4,-6838.8,-6272.4,-6.9,-5.7,-447.9,-501.9,-0.9,-91.2,-143.7,-219.0,0,3144,0,253,0, 
1.7500,-231.6,-204.0,195.3,-207.0,-371.7,-237.3,-187.8,-334.5,-2593.5,-258.0,-118.8,-351.3,-4642.5,-9827.4,-7004.4,-6533.7,-6.9,-5.7,-450.3,-502.5,-1.2,-90.0,-143.1,-223.8,0,3150,0,254,0, 
1.7533,-231.0,-198.0,-12.3,-216.3,-381.6,-243.9,-186.6,-338.7,-2593.5,-268.8,-127.2,-361.2,-4707.3,-9827.4,-6714.3,-6299.1,-6.6,-6.0,-457.8,-516.6,-0.9,-106.5,-146.1,-231.9,0,3156,0,255,0, 
1.7567,-225.0,-200.1,-244.5,-213.6,-381.3,-233.1,-167.4,-330.0,-2593.5,-261.9,-127.8,-356.4,-4962.3,-9827.4,-6511.2,-5976.6,-6.9,-6.0,-460.2,-503.7,-0.6,-97.2,-140.4,-225.3,0,3162,0,0,0, 
1.7600,-220.2,-191.1,-163.8,-199.5,-367.2,-226.5,-171.6,-314.4,-2519.4,-254.7,-114.6,-346.8,-5014.2,-9827.4,-6614.7,-5844.6,-6.9,-6.3,-445.8,-494.7,-0.6,-87.3,-143.1,-226.5,0,3168,0,1,0, 
1.7633,-222.6,-196.8,33.0,-202.8,-375.6,-230.7,-186.6,-314.4,-2593.5,-259.8,-115.2,-348.3,-4785.3,-9827.4,-6947.4,-6255.3,-6.9,-5.7,-446.7,-498.6,-0.9,-87.6,-150.6,-225.6,0,3174,0,2,0, 
1.7667,-216.0,-194.1,118.2,-199.2,-355.8,-228.9,-182.4,-315.3,-2519.4,-254.7,-114.0,-345.3,-4548.3,-9827.4,-6991.2,-6462.9,-6.9,-6.3,-445.5,-498.9,-1.2,-92.7,-146.7,-221.1,0,3180,0,3,0, 
1.7700,-221.1,-194.7,-129.6,-199.5,-376.2,-228.3,-176.1,-317.1,-2519.4,-263.4,-117.9,-348.6,-4655.7,-9827.4,-6785.1,-6332.1,-6.6,-6.0,-447.0,-498.9,-0.9,-90.0,-142.8,-216.9,0,3186,0,4,0, 
1.7733,-224.1,-193.8,-331.2,-200.4,-355.2,-231.9,-172.2,-321.6,-2371.2,-256.2,-116.7,-351.6,-4918.5,-9827.4,-6464.1,-5908.8,-7.2,-5.7,-447.3,-505.5,-0.6,-88.8,-144.9,-223.8,0,3192,0,5,0, 
1.7767,-216.6,-196.8,-194.4,-189.6,-366.6,-227.7,-176.7,-322.2,-2667.6,-251.4,-114.6,-346.5,-4996.8,-9827.4,-6629.1,-5897.7,-6.9,-6.3,-445.2,-498.3,-0.9,-79.2,-142.2,-210.3,0,3198,0,6,0, 
1.7800,-217.2,-191.7,-0.3,-186.3,-372.3,-229.2,-192.9,-324.3,-2593.5,-259.8,-111.3,-349.8,-4816.2,-9827.4,-6969.9,-6253.5,-6.9,-5.7,-441.0,-499.5,-0.9,-82.2,-143.1,-225.0,0,3204,0,7,0, 
1.7833,-222.9,-189.9,83.7,-183.6,-366.0,-225.6,-192.3,-328.2,-2445.3,-246.6,-109.8,-340.2,-4612.5,-9827.4,-7127.7,-6550.5,-6.9,-6.0,-440.4,-498.6,-0.9,-70.8,-139.2,-219.6,0,3210,0,8,0, 
1.7867,-225.0,-185.4,-143.7,-189.3,-351.6,-234.9,-187.8,-335.4,-2445.3,-267.3,-111.9,-345.0,-4652.1,-9827.4,-6837.0,-6315.0,-6.6,-6.0,-441.9,-504.0,-0.6,-99.3,-148.8,-228.9,0,3216,0,9,0, 
1.7900,-219.3,-182.7,-340.5,-190.8,-369.6,-233.1,-185.1,-330.9,-2445.3,-247.2,-114.6,-345.9,-4974.3,-9827.4,-6660.9,-5929.5,-6.9,-6.0,-447.0,-498.0,-1.2,-86.1,-141.6,-234.3,0,3222,0,10,0, 
1.7933,-220.8,-193.2,-230.4,-189.6,-363.3,-231.6,-182.7,-331.2,-2593.5,-245.1,-107.7,-338.4,-5064.0,-9827.4,-6686.7,-5885.4,-7.2,-6.3,-443.7,-487.8,-0.6,-82.8,-141.6,-233.7,0,3228,0,11,0, 
1.7967,-228.9,-190.5,12.0,-197.7,-391.5,-230.4,-189.6,-340.5,-2519.4,-246.0,-115.5,-349.5,-4863.3,-9827.4,-7022.4,-6266.4,-6.9,-6.0,-441.6,-497.4,-0.6,-87.0,-145.8,-226.2,0,3234,0,12,0, 
1.8000,-225.0,-188.1,91.8,-199.8,-373.2,-239.4,-196.8,-338.1,-2667.6,-246.9,-115.5,-349.8,-4629.3,-9827.4,-7105.5,-6474.3,-6.9,-6.0,-441.3,-495.0,-0.9,-85.5,-149.1,-234.3,0,3240,0,13,0, 
1.8033,-225.0,-189.0,-53.1,-198.6,-364.8,-233.7,-184.5,-336.0,-2519.4,-246.9,-115.5,-350.1,-4685.1,-9827.4,-6896.4,-6288.3,-6.3,-6.0,-447.3,-496.8,-0.9,-85.5,-140.1,-221.1,0,3246,0,14,0, 
1.8067,-226.2,-191.1,-219.3,-198.0,-360.6,-223.5,-194.4,-327.6,-2519.4,-249.3,-115.5,-347.7,-4883.4,-9827.4,-6543.0,-5912.4,-6.9,-5.7,-439.8,-496.2,-0.9,-93.0,-138.9,-225.6,0,3252,0,15,0, 
1.8100,-225.0,-189.0,-112.8,-193.8,-348.3,-228.3,-198.0,-325.8,-2519.4,-236.4,-107.4,-339.6,-4981.2,-9827.4,-6709.2,-5950.2,-7.2,-6.0,-437.1,-486.3,-0.3,-80.7,-135.6,-218.7,0,3258,0,16,0, 
1.8133,-226.8,-186.9,96.6,-193.8,-372.0,-231.6,-193.5,-330.3,-2593.5,-253.5,-107.7,-345.9,-4795.8,-9827.4,-7068.3,-6291.6,-7.2,-6.0,-436.8,-489.0,-0.9,-75.0,-138.0,-224.1,0,3264,0,17,0, 
1.8167,-226.8,-196.8,103.5,-192.9,-357.9,-228.3,-202.2,-330.3,-2371.2,-243.9,-106.5,-344.4,-4612.2,-9827.4,-7221.6,-6580.5,-6.6,-6.3,-436.8,-485.4,-0.6,-80.1,-142.2,-218.1,0,3270,0,18,0, 
1.8200,-227.1,-200.4,-88.5,-192.0,-355.8,-232.5,-198.9,-331.8,-2593.5,-246.9,-110.4,-342.6,-4614.9,-9827.4,-6842.7,-6349.8,-6.9,-5.7,-440.4,-482.4,-0.6,-84.6,-143.7,-216.0,0,3276,0,19,0, 
1.8233,-225.9,-202.2,-324.9,-192.0,-354.9,-230.4,-193.5,-332.4,-2371.2,-257.1,-108.9,-342.0,-4851.6,-9827.4,-6631.2,-5975.4,-7.2,-6.0,-440.4,-481.5,-1.2,-94.5,-142.5,-203.4,0,3282,0,20,0, 
1.8267,-229.8,-201.3,-147.0,-196.5,-358.8,-238.8,-190.2,-336.9,-2741.7,-256.2,-111.0,-342.3,-4933.5,-9827.4,-6719.7,-5897.7,-6.9,-6.0,-441.9,-492.6,-0.6,-87.6,-144.9,-220.2,0,3288,0,21,0, 
1.8300,-226.2,-198.3,102.9,-190.8,-368.4,-236.7,-200.7,-330.0,-2593.5,-253.5,-108.0,-340.5,-4737.0,-9827.4,-7031.1,-6278.1,-6.9,-6.0,-437.7,-491.1,-0.6,-91.2,-146.4,-224.7,0,3294,0,22,0, 
1.8333,-229.8,-199.8,121.5,-192.0,-357.0,-239.4,-199.2,-327.3,-2667.6,-262.8,-110.4,-340.5,-4512.3,-9827.4,-7100.1,-6506.1,-6.6,-6.0,-437.4,-489.6,-1.2,-87.3,-147.9,-224.1,0,3300,0,23,0, 
1.8367,-228.6,-198.3,-101.4,-194.4,-347.7,-236.4,-193.2,-334.5,-2519.4,-244.2,-109.8,-342.9,-4600.2,-9827.4,-6863.7,-6322.8,-6.6,-5.7,-439.8,-492.3,-0.6,-98.1,-143.1,-216.6,0,3306,0,24,0, 
1.8400,-229.2,-192.6,-309.0,-193.2,-331.8,-233.4,-189.6,-327.3,-2445.3,-246.9,-110.4,-339.6,-4835.4,-9827.4,-6547.8,-5898.9,-6.9,-6.0,-438.0,-494.1,-0.6,-90.9,-141.9,-214.5,0,3312,0,25,0, 
1.8433,-224.7,-192.9,-190.5,-190.8,-341.1,-229.5,-187.8,-331.2,-2519.4,-239.7,-105.0,-330.6,-4933.8,-9827.4,-6674.7,-5856.9,-6.9,-6.0,-429.6,-486.6,-0.3,-83.7,-139.2,-212.4,0,3318,0,26,0, 
1.8467,-226.5,-189.9,69.0,-190.2,-354.3,-235.2,-194.1,-331.8,-2593.5,-250.8,-104.1,-328.5,-4754.4,-9827.4,-7008.9,-6243.0,-6.6,-5.7,-433.8,-485.7,-0.6,-74.7,-145.2,-216.0,0,3324,0,27,0, 
1.8500,-225.6,-180.9,99.6,-187.5,-353.1,-233.7,-191.7,-329.1,-2593.5,-234.6,-98.7,-326.1,-4601.4,-9827.4,-7212.6,-6558.0,-6.6,-6.0,-430.2,-475.5,-0.9,-78.6,-147.0,-216.0,0,3330,0,28,0, 
1.8533,-225.6,-183.9,262.2,-185.7,-314.4,-228.3,-171.9,-321.9,-2519.4,-261.9,-101.1,-327.9,-4399.2,-9827.4,-6466.2,-6024.9,-6.9,-5.7,-421.5,-479.1,-0.6,-79.5,-142.8,-198.3,0,3336,0,29,0, 
1.8567,-229.2,-186.9,77.7,-190.5,-318.0,-233.7,-182.7,-322.5,-2519.4,-247.8,-109.5,-338.1,-4649.7,-9827.4,-6136.2,-5706.3,-6.6,-6.0,-431.4,-491.1,-0.9,-84.3,-144.0,-213.3,0,3342,0,30,0, 
1.8600,-226.8,-191.7,43.5,-187.5,-335.1,-235.5,-181.8,-318.6,-2519.4,-244.8,-102.3,-327.6,-4820.1,-9827.4,-6565.2,-5767.5,-6.6,-5.7,-430.2,-486.3,-0.6,-61.2,-140.4,-228.9,0,3348,0,31,0, 
1.8633,-224.4,-190.8,148.2,-182.7,-346.2,-234.6,-186.6,-318.9,-2667.6,-240.9,-99.9,-326.4,-4706.7,-9827.4,-6983.1,-6173.4,-7.2,-6.3,-425.4,-486.6,-1.5,-67.5,-141.3,-228.6,0,3354,0,32,0, 
1.8667,-227.1,-189.6,181.2,-183.6,-336.3,-234.6,-183.3,-317.4,-2593.5,-239.7,-99.9,-331.2,-4509.0,-9827.4,-7065.9,-6441.3,-6.9,-6.0,-428.7,-490.2,-0.6,-79.2,-131.7,-224.4,0,3360,0,33,0, 
1.8700,-224.4,-187.5,-37.5,-186.3,-362.1,-238.5,-185.1,-321.9,-2371.2,-245.1,-101.1,-329.7,-4618.5,-9827.4,-6872.4,-6295.2,-7.5,-6.6,-431.1,-488.4,-0.9,-79.5,-135.9,-221.7,0,3366,0,34,0, 
1.8733,-225.0,-190.2,-184.5,-183.0,-335.7,-242.4,-177.6,-328.8,-2593.5,-240.6,-98.7,-322.2,-4825.5,-9827.4,-6543.0,-5884.2,-6.9,-6.0,-426.6,-486.0,-0.3,-74.4,-129.9,-219.6,0,3372,0,35,0, 
1.8767,-222.9,-184.5,-73.5,-178.8,-335.4,-235.2,-174.9,-332.1,-2593.5,-235.5,-92.4,-317.7,-4928.1,-9827.4,-6768.3,-5826.6,-7.2,-6.3,-420.9,-480.9,-0.9,-72.3,-128.1,-231.0,0,3378,0,36,0, 
1.8800,-226.5,-183.3,213.6,-180.0,-337.2,-240.9,-177.6,-335.4,-2667.6,-234.0,-94.8,-320.7,-4699.2,-9827.4,-7025.4,-6131.4,-7.2,-6.0,-422.7,-479.4,-0.9,-67.2,-133.8,-222.9,0,3384,0,37,0, 
1.8833,-228.0,-190.2,173.1,-188.4,-350.4,-244.8,-189.6,-338.1,-2519.4,-248.4,-105.9,-333.6,-4570.8,-9827.4,-7168.2,-6456.0,-6.9,-6.0,-430.5,-489.9,-0.9,-74.4,-134.7,-227.7,0,3390,0,38,0, 
1.8867,-225.9,-185.4,-13.2,-190.2,-344.7,-242.7,-172.2,-337.2,-2519.4,-242.1,-107.7,-332.1,-4629.0,-9827.4,-6939.6,-6287.1,-6.9,-6.3,-435.9,-487.8,-1.2,-80.7,-133.2,-225.9,0,3396,0,39,0, 
1.8900,-228.6,-194.4,-221.1,-189.0,-319.2,-236.4,-177.6,-336.6,-2593.5,-259.5,-110.4,-337.5,-4870.5,-9827.4,-6694.5,-5878.5,-6.6,-5.7,-437.1,-490.5,-0.9,-74.7,-139.5,-216.3,0,3402,0,40,0, 
1.8933,-227.7,-191.1,-93.3,-193.5,-324.0,-244.5,-180.0,-339.0,-2593.5,-249.3,-109.5,-338.1,-4948.8,-9827.4,-6869.1,-5865.6,-6.6,-5.7,-433.8,-490.8,-0.9,-84.3,-139.2,-223.5,0,3408,0,41,0, 
1.8967,-231.0,-201.6,111.0,-200.7,-362.7,-245.4,-193.5,-347.7,-2519.4,-252.9,-115.8,-343.8,-4776.0,-9827.4,-7241.4,-6245.4,-6.6,-6.0,-445.5,-498.6,-0.9,-81.9,-139.2,-230.4,0,3414,0,42,0, 
1.9000,-229.8,-192.0,187.5,-199.2,-368.7,-240.9,-193.8,-349.2,-2593.5,-259.2,-116.4,-339.9,-4493.7,-9827.4,-7354.2,-6518.1,-6.9,-5.7,-441.9,-495.3,-0.9,-94.5,-145.8,-228.6,0,3420,0,43,0, 
1.9033,-232.5,-200.1,-28.2,-200.4,-362.4,-235.2,-178.8,-352.8,-2519.4,-264.0,-113.4,-339.3,-4591.8,-9827.4,-7052.1,-6328.8,-6.9,-6.0,-436.5,-489.6,-1.2,-88.2,-135.9,-228.0,0,3426,0,44,0, 
1.9067,-233.7,-197.1,-172.5,-200.7,-349.8,-237.0,-171.3,-354.9,-2445.3,-252.9,-117.3,-340.5,-4874.7,-9827.4,-6693.3,-5889.6,-6.6,-5.7,-438.9,-493.8,-0.9,-84.3,-135.6,-244.8,0,3432,0,45,0, 
1.9100,-230.1,-195.0,-184.2,-197.4,-343.2,-232.5,-187.2,-352.5,-2593.5,-256.2,-115.8,-343.5,-5043.3,-9827.4,-6946.2,-5899.5,-6.9,-6.0,-438.0,-496.5,-1.2,-96.6,-137.1,-233.7,0,3438,0,46,0, 
1.9133,-233.4,-196.2,101.4,-199.2,-363.6,-235.2,-198.0,-357.9,-2593.5,-248.7,-118.2,-339.6,-4848.6,-9827.4,-7187.1,-6225.9,-6.6,-5.7,-444.3,-492.6,-0.6,-82.5,-139.5,-232.8,0,3444,0,47,0, 
1.9167,-234.3,-196.8,138.9,-195.6,-363.6,-227.7,-191.7,-360.0,-2519.4,-249.0,-111.6,-332.4,-4611.6,-9827.4,-7230.9,-6482.1,-7.2,-6.0,-437.7,-486.0,-0.9,-81.6,-136.5,-240.0,0,3450,0,48,0, 
1.9200,-233.4,-189.9,-17.1,-195.9,-349.2,-228.9,-180.9,-357.6,-2445.3,-239.7,-111.6,-332.7,-4666.2,-9827.4,-6845.4,-6346.8,-6.3,-5.7,-437.7,-487.5,-0.6,-76.2,-134.1,-216.9,0,3456,0,49,0, 
1.9233,-231.6,-186.6,-179.4,-194.1,-347.4,-232.8,-181.5,-354.6,-2593.5,-246.9,-112.2,-336.9,-4911.3,-9827.4,-6634.2,-5940.3,-6.9,-6.0,-438.6,-491.7,-0.6,-81.3,-136.8,-228.9,0,3462,0,50,0, 
1.9267,-235.5,-191.1,-105.9,-196.2,-352.5,-230.4,-180.6,-349.8,-2519.4,-251.7,-112.8,-332.7,-4987.5,-9827.4,-6778.5,-5874.0,-6.9,-5.4,-440.4,-484.8,-0.6,-81.6,-137.1,-220.8,0,3468,0,51,0, 
1.9300,-232.5,-186.3,107.1,-195.6,-343.5,-227.1,-182.7,-344.4,-2667.6,-248.7,-115.2,-332.4,-4767.3,-9827.4,-7141.2,-6210.9,-7.2,-6.0,-442.8,-485.1,-0.6,-83.4,-143.1,-219.3,0,3474,0,52,0, 
1.9333,-235.2,-186.6,72.9,-195.3,-363.9,-225.0,-180.6,-339.9,-2519.4,-240.9,-112.8,-331.5,-4532.7,-9827.4,-7289.4,-6513.9,-6.6,-5.7,-441.0,-491.1,-0.6,-79.2,-139.2,-210.6,0,3480,0,53,0, 
1.9367,-237.6,-192.0,-125.1,-198.9,-342.0,-225.3,-176.4,-340.2,-2593.5,-258.3,-117.6,-335.7,-4583.7,-9827.4,-6973.5,-6320.1,-6.9,-5.7,-442.5,-489.6,-0.9,-75.3,-136.5,-222.9,0,3486,0,54,0, 
1.9400,-233.1,-190.8,-283.5,-203.4,-340.8,-227.4,-173.1,-338.7,-2371.2,-259.2,-120.9,-340.8,-4863.0,-9827.4,-6716.7,-5940.9,-6.9,-6.0,-443.4,-489.6,-0.9,-84.9,-139.2,-212.4,0,3492,0,55,0, 
1.9433,-231.3,-192.3,-149.7,-203.4,-345.0,-227.7,-184.2,-336.6,-2593.5,-246.6,-118.2,-342.3,-4955.7,-9827.4,-6852.0,-5920.5,-6.6,-6.3,-444.0,-491.7,-0.6,-89.4,-146.4,-226.8,0,3498,0,56,0, 
1.9467,-233.7,-195.9,93.6,-206.1,-354.0,-232.2,-183.3,-337.2,-2667.6,-249.6,-124.2,-346.2,-4777.5,-9827.4,-7161.6,-6270.3,-6.9,-5.7,-448.5,-499.2,-0.6,-100.8,-144.9,-234.6,0,3504,0,57,0, 
1.9500,-232.8,-190.5,174.9,-201.9,-368.7,-225.0,-183.9,-334.8,-2593.5,-247.8,-120.6,-334.2,-4592.7,-9827.4,-7298.1,-6525.9,-6.9,-6.3,-443.1,-492.3,-0.3,-81.3,-144.6,-224.1,0,3510,0,58,0, 
1.9533,-234.3,-193.2,7.8,-206.1,-364.2,-227.7,-181.8,-340.5,-2519.4,-246.0,-122.4,-333.9,-4666.2,-9827.4,-7056.9,-6328.5,-6.6,-6.3,-449.7,-491.7,-0.6,-93.3,-143.4,-229.8,0,3516,0,59,0, 
1.9567,-236.1,-197.4,-152.1,-207.3,-346.2,-225.3,-177.0,-343.8,-2519.4,-261.9,-129.9,-341.7,-4914.6,-9827.4,-6740.7,-5921.1,-6.9,-5.7,-455.1,-495.0,-0.6,-79.8,-135.3,-211.8,0,3522,0,60,0, 
1.9600,-237.3,-199.2,-63.9,-205.8,-362.1,-228.3,-181.2,-342.6,-2593.5,-247.2,-132.9,-351.9,-5039.7,-9827.4,-6861.0,-5927.1,-6.6,-6.6,-451.2,-501.9,-0.9,-92.1,-140.1,-221.1,0,3528,0,61,0, 
1.9633,-232.8,-193.8,146.1,-201.0,-363.9,-231.0,-187.5,-343.2,-2593.5,-249.6,-120.9,-342.0,-4835.1,-9827.4,-7220.4,-6272.7,-6.9,-6.0,-444.0,-500.1,-0.6,-93.6,-145.5,-225.0,0,3534,0,62,0, 
1.9667,-233.4,-189.0,214.5,-188.7,-353.7,-226.2,-188.4,-340.2,-2519.4,-236.4,-104.1,-326.1,-4624.2,-9827.4,-7266.3,-6537.0,-6.6,-6.0,-425.7,-487.2,-0.9,-79.5,-142.8,-219.0,0,3540,0,63,0, 
1.9700,-229.2,-185.1,-63.3,-187.5,-351.6,-231.3,-179.4,-342.3,-2371.2,-236.1,-99.6,-317.4,-4671.0,-9827.4,-7055.7,-6336.6,-6.6,-6.0,-420.9,-483.0,-1.2,-72.3,-144.0,-220.5,0,3546,0,64,0, 
1.9733,-228.9,-189.0,-208.2,-180.0,-346.5,-227.4,-177.3,-338.7,-2445.3,-232.5,-94.8,-316.8,-4837.5,-9827.4,-6725.4,-5924.4,-6.9,-6.0,-413.7,-481.2,-0.9,-75.9,-144.6,-206.7,0,3552,0,65,0, 
1.9767,-228.9,-186.9,-138.0,-176.1,-334.8,-224.7,-173.4,-337.5,-2445.3,-248.1,-94.2,-313.5,-4992.6,-9827.4,-6834.3,-5873.4,-6.9,-6.3,-412.8,-479.4,-0.9,-71.4,-138.3,-206.4,0,3558,0,66,0, 
1.9800,-231.6,-186.6,61.2,-178.5,-336.3,-235.5,-192.6,-340.5,-2593.5,-229.5,-95.4,-318.3,-4812.0,-9827.4,-7146.6,-6261.0,-6.9,-6.0,-420.3,-489.3,-0.9,-81.0,-146.1,-228.9,0,3564,0,67,0, 
1.9833,-229.8,-183.9,95.1,-175.2,-353.7,-235.2,-195.6,-339.3,-2519.4,-224.1,-88.5,-311.7,-4599.0,-9827.4,-7251.6,-6479.4,-6.9,-6.0,-412.5,-483.6,-0.6,-67.2,-141.3,-220.5,0,3570,0,68,0, 
1.9867,-229.2,-180.0,-24.6,-179.7,-347.7,-232.2,-189.3,-338.1,-2445.3,-242.7,-102.0,-321.6,-4670.4,-9827.4,-7029.6,-6389.7,-7.2,-6.0,-425.7,-491.7,-0.9,-74.1,-140.7,-223.5,0,3576,0,69,0, 
1.9900,-230.4,-189.9,-184.8,-187.5,-335.4,-231.6,-185.7,-339.3,-2667.6,-241.8,-109.5,-329.7,-4875.6,-9827.4,-6665.4,-5858.7,-7.2,-6.0,-427.2,-497.7,-0.9,-75.9,-140.7,-220.8,0,3582,0,70,0, 
1.9933,-231.3,-191.7,-114.9,-189.6,-341.1,-227.4,-176.7,-339.9,-2519.4,-243.6,-114.9,-333.0,-4960.8,-9827.4,-6751.5,-5901.0,-6.9,-6.3,-434.7,-501.0,-0.6,-73.8,-139.5,-210.9,0,3588,0,71,0, 
1.9967,-229.8,-195.0,141.3,-189.3,-348.0,-226.2,-174.9,-341.7,-2519.4,-243.9,-111.0,-330.9,-4814.4,-9827.4,-7077.0,-6126.9,-7.2,-6.0,-431.4,-495.9,-0.6,-69.6,-141.6,-214.8,0,3594,0,72,0, 
2.0000,-235.2,-203.7,146.1,-196.8,-351.6,-225.0,-180.3,-346.5,-2519.4,-241.5,-124.8,-337.8,-4602.3,-9827.4,-7216.2,-6455.4,-7.2,-6.3,-442.2,-501.3,-0.6,-83.4,-135.6,-217.8,0,3600,0,73,0, 
2.0033,-234.6,-201.9,-60.6,-198.6,-354.6,-222.6,-172.8,-347.1,-2519.4,-253.5,-120.3,-340.2,-4649.1,-9827.4,-6978.9,-6321.6,-6.9,-6.0,-439.2,-507.9,-0.3,-66.0,-134.7,-195.9,0,3606,0,74,0, 
2.0067,-234.0,-201.3,-276.3,-191.7,-353.4,-216.3,-174.0,-339.3,-2519.4,-240.9,-111.6,-331.8,-4881.3,-9827.4,-6783.3,-5901.6,-7.2,-6.0,-433.5,-496.2,-0.9,-87.0,-123.9,-195.6,0,3612,0,75,0, 
2.0100,-233.7,-203.4,-126.0,-195.3,-347.1,-217.2,-183.9,-342.0,-2741.7,-236.1,-111.3,-333.9,-5002.5,-9827.4,-6858.6,-5888.1,-6.9,-5.7,-430.5,-495.3,-0.6,-76.5,-125.7,-203.1,0,3618,0,76,0, 
2.0133,-234.3,-205.2,90.6,-191.7,-375.0,-222.9,-192.0,-337.5,-2593.5,-237.9,-112.2,-331.8,-4833.0,-9827.4,-7193.4,-6238.5,-7.2,-6.0,-429.9,-492.6,-0.6,-65.1,-122.7,-202.2,0,3624,0,77,0, 
2.0167,-232.8,-195.0,228.9,-191.4,-374.4,-225.3,-189.0,-334.8,-2667.6,-233.1,-108.0,-328.2,-4621.2,-9827.4,-7259.1,-6492.3,-7.2,-5.7,-433.8,-496.5,-0.9,-71.7,-126.9,-192.6,0,3630,0,78,0, 
2.0200,-230.1,-197.7,-38.7,-189.3,-364.8,-226.5,-187.8,-338.1,-2519.4,-243.9,-111.0,-327.6,-4665.0,-9827.4,-6994.5,-6354.0,-7.2,-5.7,-428.7,-492.6,-0.9,-79.2,-124.5,-198.9,0,3636,0,79,0, 
2.0233,-230.1,-192.6,-198.3,-186.3,-370.8,-223.5,-177.0,-343.5,-2519.4,-244.2,-108.0,-327.0,-4916.1,-9827.4,-6741.3,-5941.8,-6.9,-6.0,-419.4,-491.4,-1.2,-75.0,-129.0,-195.6,0,3642,0,80,0, 
2.0267,-232.5,-196.5,-150.3,-188.4,-380.4,-231.6,-187.5,-346.8,-2593.5,-230.7,-112.2,-334.5,-5025.6,-9827.4,-6869.4,-5881.2,-6.9,-6.0,-426.3,-499.2,-0.9,-78.6,-136.8,-206.1,0,3648,0,81,0, 
2.0300,-233.7,-196.8,54.0,-185.1,-381.9,-228.6,-198.6,-341.1,-2593.5,-235.5,-110.7,-329.1,-4832.4,-9827.4,-7204.8,-6220.2,-7.2,-6.0,-425.7,-498.0,-0.9,-69.3,-141.0,-200.7,0,3654,0,82,0, 
2.0333,-231.3,-198.9,152.1,-185.7,-360.3,-229.5,-201.0,-333.3,-2519.4,-238.8,-106.2,-329.4,-4606.8,-9827.4,-7331.1,-6495.9,-7.2,-6.3,-423.3,-496.2,-0.9,-82.2,-135.9,-198.3,0,3660,0,83,0, 
2.0367,-232.2,-195.9,33.0,-190.5,-366.6,-231.6,-194.4,-337.8,-2445.3,-247.8,-113.4,-337.8,-4653.3,-9827.4,-7068.3,-6321.6,-7.2,-6.3,-427.5,-505.8,-0.3,-85.5,-137.1,-202.2,0,3666,0,84,0, 
2.0400,-227.4,-194.7,-152.1,-188.7,-358.8,-230.7,-191.7,-336.3,-2445.3,-237.3,-111.9,-338.4,-4881.6,-9827.4,-6749.1,-5948.4,-6.9,-5.7,-425.1,-508.8,-0.9,-89.4,-135.6,-206.7,0,3672,0,85,0, 
2.0433,-229.8,-197.7,-243.6,-192.6,-379.2,-229.8,-197.7,-331.8,-2593.5,-241.2,-117.0,-339.6,-5119.2,-9827.4,-7094.1,-6005.4,-6.9,-5.7,-433.2,-504.9,-0.3,-86.4,-142.8,-215.1,0,3678,0,86,0, 
2.0467,-231.6,-200.4,-171.6,-190.2,-389.1,-226.8,-210.3,-330.3,-2667.6,-253.5,-120.3,-336.9,-5027.4,-9827.4,-7652.4,-6440.1,-6.9,-5.7,-427.5,-501.9,-0.9,-93.3,-146.4,-203.4,0,3684,0,87,0, 
2.0500,-232.2,-197.7,58.5,-190.2,-379.5,-225.3,-209.4,-334.5,-2371.2,-249.9,-117.9,-336.3,-4679.1,-9827.4,-7563.9,-6570.0,-6.9,-6.0,-434.4,-498.0,-0.9,-83.7,-141.0,-202.2,0,3690,0,88,0, 
2.0533,-236.4,-199.8,-173.7,-194.4,-362.7,-225.0,-202.5,-339.3,-2445.3,-256.8,-116.4,-336.9,-4690.2,-9827.4,-7272.6,-6417.0,-6.9,-5.7,-437.1,-496.8,-1.2,-86.1,-137.7,-200.4,0,3696,0,89,0, 
2.0567,-234.0,-202.2,-288.9,-194.1,-357.6,-221.1,-181.2,-334.5,-2519.4,-255.0,-115.8,-334.8,-4884.3,-9827.4,-6879.3,-5985.3,-6.9,-6.0,-432.0,-501.0,-0.9,-75.6,-131.4,-197.4,0,3702,0,90,0, 
2.0600,-232.8,-201.6,-166.2,-197.4,-362.4,-229.8,-186.9,-336.0,-2445.3,-251.1,-121.5,-342.0,-4989.9,-9827.4,-7000.5,-5973.9,-6.9,-6.3,-436.8,-507.0,-0.9,-84.0,-142.2,-197.1,0,3708,0,91,0, 
2.0633,-229.5,-199.2,105.9,-195.9,-377.1,-230.4,-198.6,-334.8,-2593.5,-247.2,-122.7,-343.8,-4782.6,-9827.4,-7361.7,-6299.7,-6.6,-5.7,-436.5,-507.0,-0.6,-93.0,-140.4,-203.4,0,3714,0,92,0, 
2.0667,-228.9,-196.5,138.9,-194.7,-373.2,-228.9,-198.3,-334.8,-2593.5,-254.7,-124.8,-346.2,-4577.1,-9827.4,-7482.3,-6583.5,-6.6,-6.0,-444.9,-505.5,-0.6,-93.6,-141.3,-192.6,0,3720,0,93,0, 
2.0700,-229.2,-194.4,-39.6,-197.1,-356.7,-230.1,-191.7,-337.5,-2519.4,-261.6,-127.8,-343.8,-4626.9,-9827.4,-7177.2,-6403.2,-7.2,-6.6,-445.8,-510.6,-0.6,-104.1,-137.4,-204.3,0,3726,0,94,0, 
2.0733,-232.8,-203.1,-275.4,-200.4,-371.1,-242.7,-192.9,-344.4,-2445.3,-250.8,-129.3,-346.2,-4891.2,-9827.4,-6895.5,-6025.2,-6.6,-5.7,-444.3,-516.9,-0.9,-102.3,-131.4,-213.9,0,3732,0,95,0, 
2.0767,-230.1,-201.9,-176.4,-197.1,-378.3,-240.0,-202.2,-347.4,-2519.4,-251.4,-124.8,-339.6,-4960.8,-9827.4,-6958.2,-5913.6,-6.9,-6.0,-436.5,-508.8,-0.9,-96.3,-131.4,-208.2,0,3738,0,96,0, 
2.0800,-229.8,-206.4,66.6,-200.4,-387.3,-237.9,-210.9,-354.9,-2667.6,-251.1,-127.5,-340.5,-4800.0,-9827.4,-7285.2,-6253.2,-6.9,-6.0,-441.0,-506.7,-0.9,-92.7,-139.2,-206.1,0,3744,0,97,0, 
2.0833,-232.5,-204.0,126.9,-201.6,-385.2,-233.4,-216.3,-353.4,-2519.4,-254.7,-133.5,-342.3,-4617.9,-9827.4,-7428.0,-6546.9,-6.9,-6.0,-445.8,-509.4,-0.9,-90.3,-128.4,-194.1,0,3750,0,98,0, 
2.0867,-235.8,-207.6,-83.4,-199.5,-380.4,-235.8,-204.9,-352.8,-2371.2,-244.8,-127.8,-341.4,-4641.9,-9827.4,-7102.2,-6377.7,-6.6,-6.3,-444.0,-507.9,-0.9,-87.3,-126.9,-196.8,0,3756,0,99,0, 
2.0900,-237.6,-199.8,-279.9,-200.4,-375.3,-232.2,-198.0,-350.7,-2445.3,-248.4,-127.5,-342.0,-4913.4,-9827.4,-6901.8,-6010.2,-7.2,-6.0,-442.5,-509.4,-0.6,-87.3,-123.3,-200.1,0,3762,0,100,0, 
2.0933,-234.6,-210.3,-118.5,-197.7,-356.1,-221.4,-191.7,-344.4,-2445.3,-236.7,-124.2,-339.6,-4978.2,-9827.4,-7033.2,-5851.8,-6.9,-6.0,-436.2,-503.1,-0.9,-78.0,-119.7,-192.3,0,3768,0,101,0, 
2.0967,-228.9,-201.0,69.0,-195.6,-360.0,-217.8,-199.5,-344.1,-2741.7,-238.2,-121.8,-338.7,-4849.2,-9827.4,-7394.7,-6269.1,-6.9,-6.0,-431.1,-502.2,-0.9,-77.1,-126.3,-193.2,0,3774,0,102,0, 
2.1000,-230.7,-204.0,211.5,-197.1,-358.5,-222.9,-198.3,-345.9,-2593.5,-232.8,-118.5,-331.2,-4552.8,-9827.4,-7416.0,-6539.1,-7.2,-5.7,-427.5,-488.7,-0.6,-68.1,-124.2,-186.3,0,3780,0,103,0, 
2.1033,-227.1,-195.0,39.0,-201.3,-362.4,-221.1,-192.6,-345.6,-2593.5,-240.6,-121.8,-335.4,-4638.9,-9827.4,-7137.0,-6382.8,-6.9,-6.0,-432.9,-489.6,-0.9,-66.9,-111.0,-181.5,0,3786,0,104,0, 
2.1067,-234.6,-202.8,-138.9,-203.1,-365.4,-230.7,-195.3,-347.1,-2519.4,-235.2,-123.6,-336.9,-4872.0,-9827.4,-6939.0,-6010.8,-6.9,-6.0,-435.0,-498.6,-0.9,-75.9,-116.7,-184.8,0,3792,0,105,0, 
2.1100,-234.6,-200.1,-104.1,-207.6,-378.9,-234.6,-193.5,-345.6,-2593.5,-244.8,-125.1,-339.6,-4973.1,-9827.4,-7046.4,-5912.4,-7.2,-6.0,-433.5,-504.0,-0.6,-79.5,-121.8,-201.9,0,3798,0,106,0, 
2.1133,-232.2,-204.0,117.9,-204.0,-388.2,-235.2,-201.0,-342.9,-2519.4,-231.9,-121.8,-339.0,-4819.5,-9827.4,-7383.0,-6290.4,-6.9,-5.4,-429.3,-498.6,-0.9,-78.3,-126.3,-194.7,0,3804,0,107,0, 
2.1167,-228.6,-189.9,200.7,-200.1,-373.5,-231.3,-198.9,-337.2,-2667.6,-230.7,-122.4,-336.3,-4595.1,-9827.4,-7472.1,-6515.7,-6.9,-6.0,-428.1,-495.3,-0.6,-71.4,-126.6,-188.1,0,3810,0,108,0, 
2.1200,-232.8,-204.3,3.3,-201.3,-365.4,-230.4,-204.6,-342.3,-2519.4,-235.2,-122.4,-334.2,-4679.4,-9827.4,-7273.5,-6394.8,-6.9,-5.7,-430.8,-495.3,-1.2,-64.5,-126.6,-182.1,0,3816,0,109,0, 
