Time,P3,C3,F3,Fz,F4,C4,P4,Cz,CM,A1,Fp1,Fp2,T3,T5,O1,O2,X3,X2,F7,F8,X1,A2,T6,T4,Trigger,Time_Offset,ADC_Status,ADC_Sequence,Event,Comments
0.0033,282.6,-1113.9,1010.4,146.1,283.2,327.0,195.3,621.6,-3038.1,825.0,32.1,1084.8,-743.1,383.7,-865.8,217.8,-7.2,-6.0,2775.3,645.0,-1.2,434.7,404.4,-452.7,0,6,0,58,0, 
0.0067,282.3,-1130.1,1002.0,140.7,276.3,327.3,190.5,621.6,-296.4,806.7,2475.9,3718.2,-659.4,650.4,2169.3,215.1,-6.9,-5.7,2772.6,638.1,-0.6,427.2,393.9,-446.7,0,12,0,59,0, 
0.0100,281.7,-1125.9,1008.9,147.3,279.3,328.8,195.6,622.5,-5557.5,823.5,931.2,2374.8,-889.2,564.0,-2941.8,214.8,-6.9,-5.7,2771.7,647.4,-1.2,435.0,383.4,-434.4,0,18,0,60,0, 
0.0133,271.5,-1134.9,998.4,141.3,274.8,332.7,199.8,608.7,-11633.7,814.5,-2129.4,-884.4,-1075.5,250.8,-9125.7,230.4,-6.9,-6.0,2748.9,635.7,-0.9,429.3,415.8,-406.8,0,24,0,61,0, 
0.0167,283.5,-1125.0,996.9,143.7,277.2,333.6,198.3,614.1,-10003.5,805.8,-2691.9,-1753.2,-930.6,167.4,-7836.3,210.6,-6.9,-5.7,2749.5,633.9,-0.9,411.9,416.1,-381.3,0,30,0,62,0, 
0.0200,282.6,-1134.6,1001.4,145.2,284.1,337.2,195.9,625.5,-3112.2,811.2,282.3,1178.4,-677.4,387.9,-877.8,209.1,-6.6,-5.7,2772.3,639.6,-0.3,420.9,405.0,-372.0,0,36,0,63,0, 
0.0233,278.1,-1137.3,1002.6,146.1,285.3,335.4,195.3,632.4,-370.5,814.5,2529.9,3765.9,-665.4,633.9,2139.9,201.3,-6.9,-6.0,2783.7,640.2,-0.9,437.1,410.4,-420.3,0,42,0,64,0, 
0.0267,276.3,-1123.5,1003.2,143.7,278.4,329.1,197.4,619.5,-5631.6,813.3,1202.7,2548.2,-874.2,548.4,-3005.7,207.3,-7.2,-6.0,2772.3,636.3,-0.6,422.1,413.1,-431.1,0,48,0,65,0, 
0.0300,289.8,-1123.2,999.0,148.5,281.4,330.0,195.6,614.7,-11707.8,809.1,-1989.3,-827.4,-1028.4,263.7,-9192.6,205.5,-6.9,-6.0,2752.5,639.3,-0.9,431.4,390.9,-420.9,0,54,0,66,0, 
0.0333,281.1,-1144.2,984.6,135.3,271.5,324.6,190.5,604.2,-10077.6,808.2,-2602.8,-1754.4,-963.9,160.2,-7927.2,201.9,-7.2,-6.3,2735.4,618.9,-0.3,404.1,388.2,-420.0,0,60,0,67,0, 
0.0367,279.3,-1151.1,982.5,134.7,270.3,325.8,186.9,615.0,-3112.2,798.3,305.1,990.3,-698.7,383.4,-947.7,209.7,-7.5,-5.7,2751.9,618.9,-0.3,401.1,377.4,-445.2,0,66,0,68,0, 
0.0400,271.8,-1151.1,993.3,143.4,276.0,329.4,189.9,624.9,-222.3,821.4,2740.8,3553.8,-660.9,620.1,2079.6,202.2,-6.9,-6.0,2781.6,634.5,-0.6,427.2,393.3,-460.5,0,72,0,69,0, 
0.0433,277.2,-1144.8,988.8,143.4,276.0,330.6,195.3,615.9,-5705.7,810.0,1333.8,2240.7,-876.3,550.5,-3112.8,207.0,-6.6,-5.7,2763.9,635.7,-1.2,432.0,405.6,-430.5,0,78,0,70,0, 
0.0467,273.9,-1140.3,984.6,136.5,269.7,324.0,192.9,601.2,-11707.8,810.0,-1970.1,-1134.6,-1085.1,248.7,-9313.2,223.8,-7.2,-5.7,2736.3,632.4,-0.6,423.9,398.4,-427.8,0,84,0,71,0, 
0.0500,280.8,-1126.5,997.2,145.2,279.3,334.8,197.1,609.6,-10151.7,814.2,-2511.6,-1953.0,-962.4,133.2,-8073.0,226.2,-7.2,-5.4,2755.2,639.3,-0.9,424.8,396.0,-448.8,0,90,0,72,0, 
0.0533,290.4,-1113.3,1003.8,144.6,278.1,334.2,200.7,620.7,-3260.4,821.1,386.4,852.0,-705.9,373.2,-1015.8,213.3,-6.6,-6.0,2777.1,637.2,-0.3,427.5,409.2,-441.6,0,96,0,73,0, 
0.0567,289.8,-1116.6,1007.1,146.4,282.3,342.0,199.5,631.8,-370.5,822.3,2810.1,3422.4,-670.8,617.1,2034.6,213.6,-6.3,-5.1,2781.3,639.3,-0.9,430.8,400.8,-415.8,0,102,0,74,0, 
0.0600,296.4,-1121.1,1002.0,143.7,276.0,346.8,202.8,625.5,-5779.8,810.6,1356.6,2238.3,-907.5,559.8,-3202.5,216.9,-6.9,-6.3,2763.0,639.3,-0.6,421.2,393.9,-387.9,0,108,0,75,0, 
0.0633,291.6,-1119.9,997.2,140.4,276.0,352.2,207.6,614.1,-11856.0,807.6,-1897.8,-1173.9,-1024.8,210.0,-9351.6,213.9,-6.9,-5.4,2746.8,629.7,-1.2,418.2,413.1,-384.6,0,114,0,76,0, 
0.0667,284.4,-1123.2,1007.4,147.0,278.1,349.2,205.5,613.2,-10225.8,818.1,-2403.9,-1926.3,-952.2,103.2,-8181.9,229.2,-6.9,-6.3,2755.2,636.3,-0.9,427.8,422.7,-407.4,0,120,0,77,0, 
0.0700,292.5,-1110.0,1011.9,151.5,284.4,342.9,200.4,627.3,-3260.4,827.4,442.5,834.0,-717.0,360.0,-1095.6,217.2,-7.2,-6.3,2775.3,644.7,-1.2,433.2,403.5,-412.2,0,126,0,78,0, 
0.0733,287.1,-1123.8,997.5,141.9,278.4,339.3,201.3,624.0,-518.7,816.9,2757.6,3412.5,-658.2,611.7,1952.1,212.7,-6.9,-6.0,2779.2,637.8,-0.9,437.1,395.4,-423.6,0,132,0,79,0, 
0.0767,286.5,-1116.9,996.3,144.6,275.7,342.9,202.8,623.4,-5705.7,816.3,1218.3,2102.7,-839.7,533.4,-3253.8,225.0,-7.2,-6.0,2769.3,636.3,-0.9,440.4,411.3,-431.1,0,138,0,80,0, 
0.0800,270.6,-1140.6,988.2,136.5,266.4,334.2,198.0,605.7,-12004.2,818.7,-2081.4,-1285.8,-1036.5,223.5,-9392.4,213.0,-6.9,-5.7,2745.3,630.6,-0.6,430.5,402.3,-436.2,0,144,0,81,0, 
0.0833,282.3,-1137.9,995.7,146.4,276.0,341.1,201.0,606.9,-10225.8,821.7,-2623.2,-2025.3,-928.8,123.9,-8210.7,218.4,-6.6,-5.7,2754.9,638.1,-0.6,436.8,402.3,-417.6,0,150,0,82,0, 
0.0867,276.6,-1136.4,991.2,142.2,272.7,335.7,192.0,611.7,-3186.3,814.2,215.4,747.0,-733.5,357.0,-1194.3,213.9,-7.2,-6.3,2772.0,627.6,-0.9,430.2,395.1,-414.9,0,156,0,83,0, 
0.0900,274.8,-1129.8,990.6,136.8,268.8,326.7,188.7,618.6,-518.7,813.6,2557.5,3396.6,-704.1,602.1,1879.2,219.9,-7.2,-6.0,2779.2,618.6,-0.3,418.5,379.8,-419.4,0,162,0,84,0, 
0.0933,282.9,-1127.4,987.6,139.5,261.0,323.4,190.2,610.8,-5928.0,810.3,1010.7,2067.3,-840.3,529.5,-3280.5,212.4,-6.9,-6.0,2764.8,612.0,-0.9,402.0,384.6,-434.7,0,168,0,85,0, 
0.0967,279.9,-1124.7,994.2,141.3,269.4,329.4,195.9,607.2,-11781.9,817.8,-2231.7,-1262.7,-1085.7,205.2,-9369.9,221.4,-6.9,-5.7,2748.0,616.5,-0.9,425.7,393.0,-435.3,0,174,0,86,0, 
0.1000,277.5,-1112.1,995.4,138.6,270.6,331.8,191.4,607.2,-10374.0,816.9,-2773.2,-2108.4,-1035.3,81.6,-8253.6,206.1,-6.9,-5.7,2743.8,613.5,-0.9,408.3,383.7,-443.1,0,180,0,87,0, 
0.1033,276.0,-1128.0,992.7,138.6,266.4,328.2,191.1,615.6,-3482.7,792.0,79.2,749.1,-736.2,354.3,-1212.3,210.3,-7.2,-5.7,2758.2,617.7,-0.9,405.9,396.0,-447.6,0,186,0,88,0, 
0.1067,279.6,-1133.1,995.1,136.2,269.7,331.5,191.1,621.9,-592.8,813.9,2414.4,3255.3,-663.0,627.0,1853.7,201.9,-7.2,-6.0,2773.5,622.2,-0.6,409.8,396.0,-440.4,0,192,0,89,0, 
0.1100,277.2,-1128.3,999.6,141.6,279.6,343.2,201.0,617.1,-5928.0,826.2,898.5,2032.8,-856.8,527.7,-3315.6,214.5,-6.9,-5.7,2769.0,625.2,-0.9,422.1,407.1,-417.3,0,198,0,90,0, 
0.1133,281.1,-1121.1,1000.8,145.5,280.8,341.4,201.0,608.1,-11856.0,831.9,-2248.5,-1300.8,-1029.0,238.5,-9370.5,217.5,-6.9,-5.4,2760.3,627.0,-0.3,438.3,397.5,-422.7,0,204,0,91,0, 
0.1167,293.4,-1108.5,1014.6,154.5,288.0,345.3,202.8,616.5,-10225.8,828.3,-2823.0,-2026.5,-912.9,137.4,-8165.7,221.1,-6.9,-6.0,2771.4,640.2,-0.6,444.0,398.1,-404.7,0,210,0,92,0, 
0.1200,298.2,-1110.0,1013.1,152.4,288.3,346.5,201.3,627.9,-3260.4,822.3,1.2,744.9,-734.1,385.2,-1112.4,217.2,-6.9,-5.7,2781.6,631.5,-0.3,428.7,394.5,-414.9,0,216,0,93,0, 
0.1233,290.1,-1114.8,1002.3,144.3,279.3,329.4,192.6,624.9,-592.8,819.0,2349.6,3329.7,-649.5,624.9,1889.4,217.8,-6.9,-6.0,2781.0,625.5,-0.9,429.0,392.4,-442.5,0,222,0,94,0, 
0.1267,282.9,-1125.6,992.4,140.7,274.5,337.2,198.3,615.3,-5853.9,808.5,885.0,2102.4,-903.3,528.0,-3292.2,214.2,-6.9,-6.0,2760.3,619.8,-1.2,427.2,402.3,-416.7,0,228,0,95,0, 
0.1300,271.5,-1120.2,993.0,141.6,279.0,345.6,197.7,598.2,-11856.0,805.5,-2442.9,-1223.7,-1128.0,207.6,-9384.9,229.2,-7.2,-6.0,2750.4,624.0,-0.9,427.2,411.0,-399.0,0,234,0,96,0, 
0.1333,277.2,-1122.0,990.3,143.1,273.9,343.5,198.9,601.2,-10077.6,799.2,-2929.2,-1989.3,-954.9,108.3,-8123.1,201.6,-6.6,-6.0,2748.6,617.7,-0.9,425.7,407.1,-389.4,0,240,0,97,0, 
0.1367,276.6,-1124.4,990.9,139.5,268.8,333.9,190.2,610.2,-3186.3,788.7,-48.6,819.0,-693.0,353.4,-1050.9,213.6,-6.6,-6.0,2762.1,611.7,-0.6,400.2,400.2,-430.5,0,246,0,98,0, 
0.1400,285.9,-1120.2,996.0,141.3,265.5,329.7,186.6,620.7,-444.6,807.3,2353.2,3374.7,-675.0,595.2,1920.0,192.6,-7.2,-6.0,2770.5,611.4,-0.9,404.4,379.8,-462.0,0,252,0,99,0, 
0.1433,280.2,-1122.9,990.6,139.8,266.1,329.4,187.8,615.9,-5853.9,807.3,813.6,1941.0,-916.5,519.3,-3245.7,199.5,-7.2,-6.3,2759.4,619.2,-0.9,423.6,381.9,-477.0,0,258,0,100,0, 
0.1467,281.1,-1130.7,992.4,140.1,269.7,330.9,189.6,607.2,-11781.9,820.2,-2370.6,-1305.6,-1066.8,252.3,-9329.4,206.1,-7.2,-6.0,2747.1,622.8,-0.9,427.8,374.1,-463.2,0,264,0,101,0, 
0.1500,279.3,-1136.7,998.4,141.9,271.5,334.8,192.9,603.6,-10077.6,822.3,-2946.0,-2097.0,-916.8,136.8,-8045.4,210.0,-7.2,-6.0,2762.7,626.4,-0.9,425.1,382.5,-445.8,0,270,0,102,0, 
0.1533,287.7,-1128.9,1002.3,147.9,280.2,345.9,194.7,620.4,-3112.2,832.8,126.9,855.3,-680.7,358.8,-992.1,198.6,-7.5,-5.7,2781.9,628.2,-0.6,425.1,391.5,-401.1,0,276,0,103,0, 
0.1567,283.2,-1128.6,996.3,147.3,276.9,349.8,197.4,624.3,-444.6,820.5,2529.6,3389.7,-667.8,608.4,1977.6,188.1,-6.9,-6.0,2786.4,628.5,-0.9,410.7,381.3,-377.1,0,282,0,104,0, 
0.1600,282.6,-1116.9,1004.4,148.2,277.5,339.6,195.6,618.3,-5853.9,837.3,936.9,2167.8,-916.5,524.1,-3198.9,202.2,-7.2,-6.0,2786.7,631.5,-1.5,424.5,380.7,-417.6,0,288,0,105,0, 
0.1633,285.3,-1114.2,996.3,140.1,261.6,323.7,191.4,602.1,-11707.8,822.3,-2318.1,-1199.7,-1035.3,214.5,-9320.7,200.1,-6.6,-5.7,2764.8,612.9,-0.6,418.5,396.9,-460.5,0,294,0,106,0, 
0.1667,291.3,-1109.4,996.6,138.9,269.4,329.7,191.1,607.5,-10077.6,809.7,-2992.8,-2058.9,-939.9,135.6,-8008.8,197.1,-6.6,-5.7,2760.6,618.3,-0.9,426.6,377.7,-465.3,0,300,0,107,0, 
0.1700,283.5,-1104.6,997.2,142.5,271.2,333.3,194.4,618.6,-3038.1,804.3,26.1,833.4,-753.3,353.4,-949.2,204.6,-7.2,-6.0,2775.0,619.2,-0.6,409.5,394.5,-462.0,0,306,0,108,0, 
0.1733,274.5,-1116.6,1000.8,146.1,276.0,342.6,199.8,628.2,-222.3,819.0,2367.0,3520.2,-771.3,600.9,2035.2,218.1,-6.9,-6.0,2790.9,626.7,-0.9,417.3,410.1,-450.3,0,312,0,109,0, 
0.1767,277.5,-1125.0,985.2,135.0,265.8,333.9,198.0,614.1,-5779.8,795.6,977.4,2285.1,-892.5,549.9,-3140.4,211.5,-6.9,-6.0,2764.8,620.1,-0.6,415.8,402.3,-459.0,0,318,0,110,0, 
0.1800,277.5,-1134.3,984.3,135.6,269.1,334.8,200.4,606.3,-11633.7,806.1,-2339.7,-1065.0,-1026.9,258.9,-9264.0,207.9,-6.9,-5.7,2748.9,618.3,-0.6,416.4,402.9,-452.1,0,324,0,111,0, 
0.1833,273.9,-1137.9,986.1,135.0,262.5,335.1,193.2,606.9,-9929.4,807.9,-2970.0,-1905.9,-905.7,143.1,-7929.9,203.4,-6.9,-5.7,2754.3,612.6,-0.6,415.8,391.8,-432.3,0,330,0,112,0, 
0.1867,270.3,-1148.1,974.7,126.0,255.0,339.3,199.8,616.5,-2889.9,799.2,-9.0,1032.9,-693.9,384.9,-841.2,206.4,-7.2,-6.3,2750.1,590.4,-1.2,392.4,396.3,-395.7,0,336,0,113,0, 
0.1900,271.5,-1144.2,972.9,117.6,241.2,323.1,191.4,618.0,-222.3,798.3,2363.1,3552.6,-663.3,644.4,2148.9,210.0,-7.2,-6.3,2752.2,577.2,-0.6,397.2,382.2,-432.3,0,342,0,114,0, 
0.1933,276.9,-1130.4,978.0,128.7,255.6,328.8,198.0,609.3,-5631.6,820.5,924.9,2336.4,-871.8,569.1,-3050.4,212.7,-7.2,-6.0,2763.0,621.9,-0.6,423.9,393.0,-446.1,0,348,0,115,0, 
0.1967,275.4,-1126.2,980.1,131.4,263.7,331.5,192.0,595.5,-11781.9,817.8,-2364.3,-987.6,-1058.4,256.2,-9231.9,213.9,-7.2,-5.7,2765.1,641.4,-1.2,416.1,394.2,-441.6,0,354,0,116,0, 
0.2000,281.7,-1116.3,981.9,134.1,266.1,333.9,196.2,602.1,-10003.5,809.4,-2871.9,-1622.1,-947.7,164.7,-7843.8,213.9,-6.9,-5.7,2764.5,631.8,-0.6,420.9,406.5,-442.2,0,360,0,117,0, 
0.2033,284.1,-1112.7,982.2,135.3,270.0,337.2,195.3,618.3,-2889.9,815.4,129.9,1191.6,-693.6,406.8,-723.9,196.8,-6.9,-6.0,2771.1,621.6,-1.2,424.2,387.0,-435.0,0,366,0,118,0, 
0.2067,282.9,-1111.2,967.5,129.0,256.8,326.4,192.3,619.8,-74.1,791.4,2556.9,3703.8,-680.4,669.6,2252.1,202.5,-6.6,-5.7,2764.5,612.6,-0.6,406.2,385.2,-468.6,0,372,0,119,0, 
0.2100,285.6,-1106.4,972.3,135.0,262.8,328.8,193.8,615.6,-5557.5,811.2,925.8,2417.7,-872.4,555.0,-2972.1,209.7,-6.9,-6.0,2764.2,623.7,-0.9,422.7,388.5,-459.0,0,378,0,120,0, 
0.2133,285.0,-1109.7,965.4,134.1,264.9,346.2,206.7,608.7,-11559.6,808.2,-2230.8,-850.2,-1077.3,253.2,-9186.9,207.9,-7.2,-5.7,2741.7,634.8,-0.6,424.8,409.5,-428.4,0,384,0,121,0, 
0.2167,290.7,-1100.4,970.5,133.8,268.8,349.2,202.5,609.9,-9855.3,807.3,-2829.6,-1633.8,-971.4,134.7,-7758.3,193.8,-6.9,-5.7,2736.9,638.4,-1.2,431.4,408.3,-398.1,0,390,0,122,0, 
0.2200,294.0,-1063.2,991.5,152.4,276.3,360.0,204.0,635.1,-2889.9,808.5,881.4,1744.8,-783.3,349.2,-719.1,188.4,-7.5,-5.7,2778.0,646.8,-0.3,425.4,386.4,-366.0,0,396,0,123,0, 
0.2233,286.2,-1091.7,978.3,137.1,262.8,340.8,198.6,626.4,-222.3,791.7,3209.1,4228.5,-725.1,607.8,2273.4,195.9,-6.9,-5.4,2775.3,631.5,-1.2,403.5,399.0,-390.6,0,402,0,124,0, 
0.2267,270.6,-1115.1,978.6,146.7,264.0,344.7,205.2,623.1,-5631.6,816.3,1607.4,2763.0,-906.0,544.2,-2961.6,210.9,-6.6,-5.4,2772.9,636.0,-0.6,425.7,423.0,-411.3,0,408,0,125,0, 
0.2300,279.9,-1119.6,972.6,138.0,258.6,338.7,200.1,608.1,-11485.5,820.5,-1812.6,-663.6,-1011.9,274.2,-9126.9,221.1,-6.6,-5.7,2751.6,625.2,-0.9,424.5,381.6,-432.0,0,414,0,126,0, 
0.2333,284.4,-1122.9,970.5,135.6,252.0,337.2,197.4,609.0,-9855.3,813.0,-2394.6,-1541.7,-874.8,160.2,-7694.1,218.1,-6.6,-5.7,2754.9,621.9,-0.6,420.3,378.3,-439.8,0,420,0,127,0, 
0.2367,281.1,-1125.0,980.1,145.5,270.0,345.9,202.5,629.7,-2667.6,822.6,630.9,1414.8,-667.2,384.9,-596.7,216.6,-7.2,-6.3,2785.8,643.8,-1.2,430.8,404.7,-419.7,0,426,0,128,0, 
0.2400,271.8,-1120.8,986.1,150.0,274.8,349.2,204.6,635.4,-148.2,840.6,2984.7,3949.8,-654.0,619.2,2347.2,213.0,-6.9,-6.0,2805.6,647.1,-0.6,436.8,397.8,-431.1,0,432,0,129,0, 
0.2433,269.1,-1134.6,967.5,132.0,257.7,333.0,196.2,618.6,-5557.5,803.1,1445.4,2586.9,-893.4,571.8,-2927.1,212.7,-6.9,-5.7,2768.1,626.1,-0.9,425.7,394.5,-453.0,0,438,0,130,0, 
0.2467,264.6,-1122.3,972.6,136.8,261.0,334.8,198.9,611.1,-11559.6,807.0,-1779.6,-811.5,-1078.2,237.0,-9140.1,228.0,-6.6,-5.7,2753.1,629.7,0.0,438.0,398.7,-446.1,0,444,0,131,0, 
0.2500,268.5,-1116.6,972.0,142.8,261.0,333.9,188.4,611.4,-9855.3,807.3,-2270.1,-1561.5,-942.9,141.3,-7684.5,203.4,-6.9,-5.7,2756.7,619.2,-0.9,429.9,380.1,-454.2,0,450,0,132,0, 
0.2533,275.1,-1109.1,978.9,138.3,262.2,339.3,192.3,621.0,-2741.7,809.1,738.3,1349.4,-695.7,399.0,-578.1,196.8,-6.3,-6.0,2783.1,620.4,-0.6,428.7,393.9,-450.6,0,456,0,133,0, 
0.2567,275.7,-1117.5,970.8,133.5,256.8,336.9,193.8,622.8,74.1,802.8,3111.6,3859.8,-714.0,662.4,2384.1,201.6,-6.9,-5.7,2775.3,614.1,-0.9,424.8,409.2,-452.7,0,462,0,134,0, 
0.2600,283.5,-1102.8,962.4,133.5,251.4,328.8,190.8,610.8,-5631.6,798.6,1554.3,2630.1,-995.1,567.3,-2937.3,206.7,-6.9,-6.0,2757.6,606.9,-0.9,410.7,390.0,-452.4,0,468,0,135,0, 
0.2633,280.5,-1098.0,974.4,147.6,267.6,342.3,196.8,604.5,-11485.5,815.4,-2140.2,-1095.3,-1082.1,238.8,-9119.4,201.6,-7.2,-6.0,2755.8,615.0,-0.9,426.3,394.8,-426.3,0,474,0,136,0, 
0.2667,286.5,-1108.2,978.9,152.1,273.6,339.9,194.1,613.8,-9781.2,815.7,-2853.6,-1965.9,-923.4,155.7,-7668.0,209.1,-6.9,-6.0,2765.4,620.4,-0.9,435.6,386.1,-439.2,0,480,0,137,0, 
0.2700,285.9,-1114.5,975.3,150.0,270.6,336.0,195.9,624.0,-2667.6,816.6,316.5,1154.4,-647.1,414.9,-586.8,206.7,-6.9,-6.3,2784.9,618.0,-0.6,425.4,392.4,-438.6,0,486,0,138,0, 
0.2733,282.9,-1110.6,975.9,144.9,271.2,342.0,199.2,630.6,-74.1,821.4,2671.8,3736.8,-606.9,640.8,2339.4,208.8,-6.9,-5.4,2796.0,620.7,-0.9,424.8,399.0,-414.0,0,492,0,139,0, 
0.2767,273.0,-1121.7,974.7,139.2,261.3,338.1,197.1,620.7,-5557.5,829.5,1228.5,2480.1,-875.4,552.0,-2971.8,202.2,-6.9,-6.0,2784.3,620.1,-0.9,429.6,407.7,-408.3,0,498,0,140,0, 
0.2800,279.6,-1110.3,971.4,140.4,258.6,335.7,198.0,607.5,-11559.6,825.0,-1857.3,-688.8,-1051.8,272.4,-9167.4,218.1,-7.2,-6.0,2768.4,623.1,-0.9,435.3,399.0,-420.3,0,504,0,141,0, 
0.2833,291.6,-1103.4,973.2,138.9,254.4,332.1,198.3,612.3,-9855.3,820.8,-2271.6,-1371.9,-916.5,180.9,-7686.3,220.2,-7.2,-5.7,2771.4,611.7,-0.9,438.6,395.4,-427.5,0,510,0,142,0, 
0.2867,289.8,-1114.2,963.3,133.5,251.7,325.8,198.0,617.1,-2815.8,813.9,651.9,1506.6,-666.3,418.5,-599.7,231.0,-6.9,-6.3,2779.8,610.8,-0.9,427.5,397.2,-439.8,0,516,0,143,0, 
0.2900,287.1,-1118.4,962.7,132.6,255.9,327.3,194.4,621.9,-222.3,813.6,3009.6,4035.9,-670.8,683.1,2318.4,222.0,-7.2,-5.7,2789.7,615.0,-0.9,435.6,396.6,-438.3,0,522,0,144,0, 
0.2933,282.0,-1114.2,954.9,127.5,252.6,330.9,197.4,609.6,-5483.4,812.1,1427.7,2706.3,-931.2,574.5,-2968.5,232.8,-7.5,-5.7,2775.6,614.4,-0.6,429.3,415.8,-448.2,0,528,0,145,0, 
0.2967,298.2,-1091.1,966.0,129.9,254.1,335.1,200.7,601.2,-11559.6,816.3,-1855.5,-661.5,-1100.4,272.4,-9105.9,223.5,-6.9,-6.0,2762.7,616.8,-0.9,426.6,406.5,-426.9,0,534,0,146,0, 
0.3000,288.0,-1088.4,960.9,128.1,251.1,335.4,202.2,596.4,-9707.1,802.5,-2294.4,-1321.8,-988.5,146.4,-7645.8,250.8,-6.9,-6.0,2759.4,608.4,-0.6,411.6,432.6,-409.8,0,540,0,147,0, 
0.3033,281.4,-1112.7,966.9,139.2,263.7,345.3,198.3,612.6,-2741.7,809.4,713.7,1616.4,-698.1,399.3,-585.3,209.4,-6.3,-5.7,2791.8,626.4,-0.3,442.2,406.2,-387.6,0,546,0,148,0, 
0.3067,269.4,-1115.1,966.9,145.8,265.8,346.2,200.1,621.6,-74.1,836.4,3009.9,4221.3,-649.5,653.7,2336.4,208.5,-6.9,-6.0,2809.2,628.8,-0.3,449.7,392.1,-405.6,0,552,0,149,0, 
0.3100,283.5,-1116.3,962.7,135.6,261.0,344.7,199.2,612.6,-5631.6,819.9,1529.1,2845.5,-867.6,578.7,-2956.2,204.6,-6.9,-6.0,2787.9,628.2,-0.9,438.0,402.0,-408.6,0,558,0,150,0, 
0.3133,283.2,-1120.8,953.4,128.7,253.8,331.5,198.6,602.4,-11485.5,815.4,-1755.0,-523.5,-1033.5,282.3,-9075.3,221.1,-6.9,-6.3,2764.8,616.5,-0.9,440.7,389.4,-450.9,0,564,0,151,0, 
0.3167,284.7,-1126.2,945.0,121.5,244.2,324.0,195.3,595.5,-9781.2,810.3,-2285.4,-1255.8,-920.7,179.1,-7608.0,219.3,-6.6,-6.0,2757.0,608.1,-0.6,425.7,410.4,-456.0,0,570,0,152,0, 
0.3200,287.4,-1123.8,950.4,124.8,249.3,322.5,197.1,610.8,-2815.8,810.0,682.2,1634.1,-693.9,425.1,-572.4,217.8,-7.2,-6.0,2782.2,613.2,-0.6,429.3,398.7,-461.1,0,576,0,153,0, 
0.3233,280.8,-1121.7,939.3,111.3,237.6,322.5,193.8,609.9,-148.2,807.3,3028.2,4137.3,-722.7,674.7,2332.5,213.9,-7.2,-5.7,2784.6,602.4,-0.3,428.4,405.9,-453.9,0,582,0,154,0, 
0.3267,281.4,-1119.3,932.4,109.5,229.8,308.1,189.6,597.9,-5483.4,803.1,1565.4,2838.9,-952.2,618.3,-2906.1,222.0,-6.9,-6.0,2763.3,595.2,-0.9,414.9,388.2,-456.9,0,588,0,155,0, 
0.3300,284.1,-1110.6,944.4,117.3,234.6,319.8,195.0,594.6,-11411.4,816.3,-1613.1,-441.9,-1060.5,284.7,-9039.3,211.5,-6.9,-6.0,2758.2,605.1,-0.9,416.7,393.9,-440.1,0,594,0,156,0, 
0.3333,280.8,-1104.9,955.2,130.5,250.5,327.3,201.6,603.6,-9707.1,830.1,-2120.1,-1217.1,-882.3,161.7,-7573.8,219.0,-7.2,-6.0,2775.9,613.5,-1.5,431.4,399.9,-431.7,0,600,0,157,0, 
0.3367,283.5,-1122.6,948.3,120.3,241.8,317.7,195.6,608.4,-2741.7,802.2,767.7,1763.4,-669.0,409.8,-563.1,228.6,-6.9,-6.0,2781.3,599.7,-0.3,428.7,399.9,-459.0,0,606,0,158,0, 
0.3400,282.0,-1117.2,949.2,120.3,242.4,315.0,199.2,614.7,-74.1,815.7,2984.1,4237.5,-650.1,640.5,2355.3,225.0,-7.2,-6.0,2797.2,604.5,-0.9,435.3,398.1,-461.4,0,612,0,159,0, 
0.3433,287.7,-1115.1,943.8,116.7,235.8,320.7,199.8,606.3,-5409.3,815.4,1528.2,2982.9,-877.2,553.2,-2910.6,215.1,-6.9,-6.0,2781.9,605.7,-0.3,425.1,411.3,-444.9,0,618,0,160,0, 
0.3467,276.9,-1129.8,929.4,106.8,226.5,318.0,202.5,590.1,-11559.6,798.9,-1672.2,-342.9,-1032.0,237.9,-8994.3,214.5,-6.9,-5.7,2752.5,593.4,-0.9,416.1,424.8,-435.9,0,624,0,161,0, 
0.3500,273.6,-1128.0,932.1,108.6,232.2,317.1,192.3,594.9,-9707.1,801.6,-2192.4,-964.2,-948.9,153.0,-7509.3,215.7,-6.9,-5.4,2751.9,593.1,-0.6,411.9,381.0,-421.2,0,630,0,162,0, 
0.3533,285.0,-1119.3,938.1,110.1,236.1,322.5,198.9,610.2,-2593.5,792.6,857.1,1993.8,-690.3,416.7,-475.5,215.1,-7.5,-5.4,2778.9,594.0,-0.9,415.2,401.1,-415.8,0,636,0,163,0, 
0.3567,286.2,-1120.8,931.8,107.7,234.9,322.2,193.8,615.0,-74.1,801.3,3111.3,4503.3,-710.7,652.5,2380.2,189.9,-6.9,-6.0,2782.8,591.0,-0.6,414.6,372.6,-425.4,0,642,0,164,0, 
0.3600,280.5,-1088.1,948.0,123.9,242.4,324.3,196.8,621.0,-5483.4,819.3,1549.2,3049.5,-981.6,540.0,-2882.1,207.9,-6.9,-6.3,2793.3,608.1,-0.6,425.1,383.4,-444.9,0,648,0,165,0, 
0.3633,278.7,-1083.3,953.1,127.5,248.1,326.4,202.8,611.1,-11263.2,813.9,-1548.9,-265.5,-1183.8,237.9,-8971.8,213.0,-6.9,-5.7,2781.0,607.8,-0.9,425.4,409.8,-444.9,0,654,0,166,0, 
0.3667,269.1,-1125.0,934.5,117.6,239.7,318.9,191.1,603.0,-9484.8,809.4,-1923.3,-935.1,-957.6,157.5,-7459.5,221.4,-7.2,-5.7,2776.8,604.8,-0.3,426.9,386.4,-457.8,0,660,0,167,0, 
0.3700,274.2,-1137.0,936.3,117.0,236.7,309.6,188.4,612.3,-2593.5,811.8,888.3,1938.3,-666.3,421.5,-408.0,211.8,-7.2,-6.3,2793.9,594.3,-0.6,426.3,377.4,-473.4,0,666,0,168,0, 
0.3733,278.7,-1135.8,933.9,115.2,233.7,313.8,198.0,624.0,-148.2,822.6,3455.1,4625.7,-656.4,676.8,2399.4,219.0,-7.2,-6.0,2809.2,585.0,-0.9,423.9,409.8,-469.5,0,672,0,169,0, 
0.3767,276.0,-1126.8,938.4,122.4,245.4,317.4,203.4,619.2,-5631.6,814.8,2499.0,3709.8,-871.8,586.5,-2869.5,221.1,-6.9,-6.0,2801.4,599.7,-0.6,445.5,396.0,-458.4,0,678,0,170,0, 
0.3800,270.9,-1134.6,937.2,121.8,244.2,317.4,196.5,606.9,-11263.2,819.0,-983.1,199.5,-1046.1,293.1,-8903.1,210.6,-6.9,-5.7,2784.3,605.4,-0.3,446.4,381.3,-438.6,0,684,0,171,0, 
0.3833,279.6,-1128.0,937.5,120.0,249.9,311.1,198.9,608.4,-9633.0,816.0,-1452.6,-534.6,-925.8,199.8,-7394.7,213.9,-7.2,-5.7,2782.8,600.3,-0.9,435.9,386.7,-449.1,0,690,0,172,0, 
0.3867,272.7,-1129.2,935.1,116.4,242.1,315.9,197.1,618.9,-2519.4,805.8,1353.9,2108.7,-693.3,433.8,-394.5,214.8,-7.2,-5.7,2796.3,594.6,-0.9,428.7,398.7,-473.1,0,696,0,173,0, 
0.3900,281.7,-1117.5,936.3,123.3,251.7,319.2,201.9,627.6,-74.1,813.0,3562.8,4617.3,-644.4,668.1,2434.2,209.7,-7.5,-6.0,2811.6,605.4,-0.6,432.3,396.9,-470.4,0,702,0,174,0, 
0.3933,285.0,-1107.6,938.7,121.2,250.2,323.1,207.3,618.9,-5557.5,811.2,2037.3,3216.9,-841.2,552.6,-2855.1,213.0,-7.2,-6.0,2794.8,603.9,-0.9,426.3,416.1,-458.1,0,708,0,175,0, 
0.3967,282.9,-1098.0,935.4,120.6,250.8,324.6,205.2,610.2,-11337.3,808.5,-1174.2,-93.0,-1053.9,237.9,-8921.7,203.4,-6.9,-5.1,2777.1,602.4,-0.6,419.4,401.1,-442.8,0,714,0,176,0, 
0.4000,280.2,-1096.2,939.0,120.9,250.2,330.9,203.1,609.6,-9484.8,801.6,-1699.2,-926.4,-1006.8,157.8,-7411.5,190.2,-6.9,-5.7,2781.9,603.3,-0.9,417.6,406.2,-393.3,0,720,0,177,0, 
0.4033,274.5,-1108.2,934.2,114.3,252.9,336.3,211.5,615.6,-2519.4,786.9,1364.7,2155.5,-721.2,392.1,-415.2,222.3,-6.9,-5.4,2795.1,603.9,-0.6,415.8,436.8,-382.5,0,726,0,178,0, 
0.4067,280.5,-1112.4,935.7,120.9,251.7,333.6,200.4,622.2,0.0,797.4,2969.4,4074.3,-665.1,672.9,2467.2,209.7,-6.9,-6.0,2803.8,608.4,-1.2,423.3,378.6,-402.9,0,732,0,179,0, 
0.4100,284.1,-1122.3,933.9,123.6,245.7,330.3,202.5,612.6,-5409.3,800.7,1344.0,2727.3,-888.3,600.6,-2841.3,207.6,-6.6,-5.7,2793.3,603.6,-0.9,423.6,397.5,-403.8,0,738,0,180,0, 
0.4133,283.5,-1108.2,939.9,126.9,249.0,321.3,196.8,608.1,-11263.2,810.6,-1769.1,-481.5,-1086.0,293.4,-8900.7,210.9,-6.6,-5.7,2786.7,612.6,-0.9,425.7,369.9,-459.6,0,744,0,181,0, 
0.4167,285.3,-1095.6,951.3,130.2,256.5,320.1,199.8,612.9,-9558.9,818.7,-2048.1,-1018.5,-966.3,184.2,-7397.7,202.2,-7.2,-6.0,2796.6,618.9,-0.9,443.4,394.5,-473.1,0,750,0,182,0, 
0.4200,290.7,-1090.8,951.9,126.0,251.1,310.8,192.0,621.9,-2667.6,814.2,831.0,1995.0,-666.6,440.1,-381.6,200.1,-7.2,-5.7,2807.7,606.9,-1.2,426.0,374.1,-484.2,0,756,0,183,0, 
0.4233,286.2,-1105.5,946.8,126.3,257.4,322.2,199.8,625.8,-74.1,822.3,3090.6,4511.4,-652.2,683.7,2390.4,202.2,-7.2,-5.7,2824.2,609.6,-0.9,415.2,385.5,-454.8,0,762,0,184,0, 
0.4267,285.0,-1109.1,943.5,123.0,254.1,324.6,202.2,618.0,-5557.5,817.2,1557.0,3221.4,-897.9,582.9,-2917.2,201.3,-6.9,-5.4,2807.7,609.6,-0.9,426.3,410.7,-451.8,0,768,0,185,0, 
0.4300,290.1,-1104.0,939.3,122.1,255.3,328.2,201.0,608.4,-11411.4,821.4,-1643.7,-105.6,-1056.6,269.4,-8956.8,207.3,-7.2,-5.7,2795.4,613.5,-0.9,433.8,394.5,-462.3,0,774,0,186,0, 
0.4333,294.3,-1101.0,938.7,118.5,249.6,321.6,199.8,606.3,-9558.9,825.0,-2184.9,-792.0,-926.7,168.3,-7398.6,203.7,-6.9,-5.7,2795.7,606.9,-0.6,416.1,402.0,-466.2,0,780,0,187,0, 
0.4367,294.3,-1102.8,936.0,116.7,245.1,310.5,193.5,615.9,-2593.5,818.4,805.8,2115.3,-735.0,407.7,-412.5,208.5,-6.6,-6.0,2808.9,602.4,-0.6,411.6,395.7,-491.4,0,786,0,188,0, 
0.4400,291.0,-1088.4,941.1,122.7,251.1,321.9,197.7,624.9,-74.1,819.0,3057.0,4593.6,-746.7,648.9,2367.6,223.5,-7.2,-5.7,2818.5,609.3,-0.9,408.6,391.8,-466.2,0,792,0,189,0, 
0.4433,288.6,-1095.6,927.3,120.0,251.4,327.0,205.5,612.6,-5557.5,805.5,1542.3,3228.0,-886.5,566.4,-2949.9,214.5,-6.3,-6.0,2802.9,607.2,-0.6,412.8,410.1,-443.7,0,798,0,190,0, 
0.4467,281.4,-1110.9,928.8,116.7,248.7,333.6,210.9,601.2,-11337.3,805.2,-1629.9,-188.4,-1022.7,265.5,-8983.2,212.4,-7.2,-6.0,2784.0,605.7,-0.9,415.5,420.0,-412.5,0,804,0,191,0, 
0.4500,276.6,-1098.0,934.2,117.9,248.4,336.6,202.8,603.3,-9633.0,815.7,-1956.3,-866.4,-987.6,175.5,-7416.6,219.9,-6.6,-6.0,2791.8,606.0,-0.9,427.8,386.4,-406.5,0,810,0,192,0, 
0.4533,286.5,-1081.8,944.4,116.1,245.4,329.4,207.3,618.3,-2445.3,825.9,1015.8,2037.6,-772.2,424.2,-409.5,230.1,-7.2,-6.0,2817.0,615.3,-0.6,419.4,404.1,-409.2,0,816,0,193,0, 
0.4567,281.4,-1088.4,931.8,113.1,240.6,318.3,195.6,615.6,-148.2,811.8,3206.1,4495.8,-695.4,672.9,2372.4,215.7,-6.9,-5.7,2817.3,608.4,-0.6,421.2,387.0,-449.1,0,822,0,194,0, 
0.4600,281.7,-1112.7,924.3,109.8,243.9,324.0,199.5,610.2,-5631.6,826.5,1716.0,3153.3,-881.4,578.7,-2944.8,212.4,-7.2,-5.7,2799.0,611.4,-0.6,440.4,399.9,-472.5,0,828,0,195,0, 
0.4633,277.8,-1125.0,918.6,111.6,247.2,329.1,200.7,597.3,-11411.4,821.4,-1566.3,-157.5,-1020.6,281.4,-8977.2,219.3,-6.9,-6.0,2792.7,614.4,-0.6,440.1,398.4,-457.2,0,834,0,196,0, 
0.4667,270.3,-1127.4,917.1,109.5,246.9,333.6,202.2,594.9,-9484.8,816.6,-1988.4,-901.5,-895.2,189.6,-7380.9,229.5,-6.9,-6.0,2791.5,610.8,-0.6,440.4,420.0,-452.1,0,840,0,197,0, 
0.4700,270.3,-1125.3,922.2,117.6,254.4,340.8,206.7,616.2,-2519.4,819.6,960.9,2072.4,-659.1,438.3,-372.3,213.0,-7.2,-6.0,2810.7,612.3,-0.9,441.6,424.5,-435.3,0,846,0,198,0, 
0.4733,267.6,-1121.1,926.1,119.7,253.8,345.6,200.7,620.1,-74.1,821.4,3288.3,4481.1,-627.0,677.7,2377.8,204.3,-6.9,-6.3,2825.1,613.8,-0.6,435.3,402.6,-414.9,0,852,0,199,0, 
0.4767,264.9,-1108.2,926.7,122.7,255.9,340.8,201.0,616.8,-5483.4,824.7,1573.8,3018.6,-875.7,567.0,-2967.3,197.1,-6.6,-6.0,2810.1,615.9,-0.9,439.5,407.7,-419.4,0,858,0,200,0, 
0.4800,274.2,-1099.8,924.6,119.1,247.8,336.3,199.2,603.3,-11263.2,805.2,-1621.5,-309.6,-1044.3,268.8,-9000.6,200.4,-6.9,-5.4,2784.9,606.0,-0.6,431.4,399.6,-453.0,0,864,0,201,0, 
0.4833,273.3,-1104.9,922.2,119.7,248.1,335.1,197.4,607.2,-9633.0,800.4,-2079.3,-991.5,-926.7,181.5,-7393.2,189.6,-7.2,-6.0,2792.1,607.8,-0.9,431.1,386.1,-463.8,0,870,0,202,0, 
0.4867,276.6,-1107.6,930.9,129.9,255.0,335.4,199.5,625.5,-2519.4,805.5,900.0,1937.1,-677.7,411.3,-390.9,199.2,-6.9,-6.0,2820.3,611.7,-0.6,428.1,386.1,-474.0,0,876,0,203,0, 
0.4900,271.2,-1111.8,922.8,123.0,250.8,340.5,202.2,625.8,-148.2,807.9,3136.5,4262.4,-682.8,660.0,2342.7,201.9,-6.9,-5.7,2826.0,615.6,-0.6,428.4,389.7,-481.5,0,882,0,204,0, 
0.4933,270.9,-1103.7,917.1,122.1,248.4,344.7,205.8,619.5,-5705.7,820.8,1597.2,2896.2,-906.9,562.2,-3021.9,207.9,-6.9,-6.0,2813.1,617.4,-0.6,432.9,391.8,-460.2,0,888,0,205,0, 
0.4967,273.9,-1100.4,918.0,113.4,244.2,344.7,206.4,606.0,-11337.3,804.6,-1702.2,-435.3,-1054.5,258.3,-9064.5,198.9,-6.9,-6.3,2789.4,612.3,-0.6,427.5,420.0,-452.1,0,894,0,206,0, 
0.5000,270.9,-1102.5,920.1,109.8,242.4,348.3,200.4,606.0,-9633.0,819.9,-2088.3,-1206.9,-927.9,153.3,-7443.9,202.5,-6.9,-5.4,2795.4,604.5,-1.2,421.2,389.1,-429.6,0,900,0,207,0, 
0.5033,273.9,-1113.0,915.0,109.2,240.6,340.5,197.7,615.3,-2519.4,792.9,855.3,1736.4,-706.2,396.6,-461.1,195.9,-7.5,-5.7,2810.1,608.7,-0.9,416.4,384.0,-438.6,0,906,0,208,0, 
0.5067,275.1,-1102.2,925.5,115.5,243.6,344.4,198.3,623.7,-148.2,812.7,3055.2,4138.5,-693.6,645.6,2266.8,195.6,-7.2,-6.3,2826.9,612.9,-0.9,423.3,387.3,-425.4,0,912,0,209,0, 
0.5100,279.3,-1094.7,922.8,117.9,243.9,339.6,197.7,619.8,-5705.7,816.3,1468.5,2706.6,-1014.3,553.8,-3078.6,202.2,-6.6,-6.0,2820.3,617.1,-1.2,430.5,367.5,-422.7,0,918,0,210,0, 
0.5133,282.6,-1076.1,929.4,120.9,244.8,339.9,198.9,609.0,-11559.6,816.6,-1793.4,-671.7,-1183.2,234.0,-9097.5,195.6,-6.9,-5.4,2798.4,614.7,-0.6,417.0,369.0,-441.9,0,924,0,211,0, 
0.5167,285.9,-1081.2,930.0,119.4,245.1,333.6,199.8,613.8,-9558.9,792.9,-2211.3,-1279.2,-928.8,152.7,-7439.1,209.7,-6.9,-6.0,2794.8,615.6,-0.9,409.2,401.1,-476.7,0,930,0,212,0, 
0.5200,284.7,-1103.7,931.5,121.8,254.7,341.4,204.3,626.1,-2519.4,806.4,762.3,1697.1,-650.1,410.4,-428.7,213.9,-6.9,-5.4,2818.5,624.6,-0.6,427.8,400.2,-450.3,0,936,0,213,0, 
0.5233,281.1,-1120.5,918.9,114.0,245.7,327.9,197.4,626.1,-74.1,805.8,2978.7,4142.7,-628.2,664.8,2280.9,199.8,-6.9,-5.7,2814.0,610.5,-0.3,413.4,390.9,-475.8,0,942,0,214,0, 
0.5267,268.8,-1129.8,908.7,105.9,234.9,319.2,197.4,612.6,-5705.7,795.6,1353.9,2727.9,-906.3,558.3,-3084.3,211.5,-7.2,-6.0,2795.1,595.5,-0.9,408.0,385.8,-479.1,0,948,0,215,0, 
0.5300,273.6,-1131.0,904.5,104.7,239.1,323.1,199.5,603.3,-11485.5,795.6,-1788.6,-667.5,-1050.3,252.6,-9095.1,195.6,-6.9,-6.0,2775.9,596.7,-1.2,412.2,373.8,-452.1,0,954,0,216,0, 
0.5333,278.7,-1117.8,910.8,111.3,247.5,333.3,204.6,615.3,-9558.9,786.9,-2184.0,-1292.7,-947.1,166.8,-7473.6,190.2,-6.9,-6.0,2784.3,607.5,-0.9,408.0,390.3,-450.9,0,960,0,217,0, 
0.5367,282.0,-1103.7,918.3,118.5,249.0,333.0,207.0,629.4,-2593.5,805.5,747.9,1553.7,-721.8,416.4,-469.8,198.6,-6.6,-5.7,2807.7,614.1,-0.9,416.4,397.5,-461.1,0,966,0,218,0, 
0.5400,282.9,-1115.1,907.8,108.6,232.8,323.7,209.7,627.6,-222.3,791.4,2908.8,3930.3,-660.3,668.7,2257.8,209.7,-6.9,-5.4,2806.2,591.6,-1.2,406.5,407.1,-475.8,0,972,0,219,0, 
0.5433,285.9,-1118.4,905.4,102.3,221.7,324.0,209.4,615.3,-5631.6,793.8,1272.6,2601.6,-869.4,556.8,-3111.0,206.7,-6.9,-6.0,2778.9,569.4,-0.6,399.9,413.4,-487.8,0,978,0,220,0, 
0.5467,273.0,-1109.7,919.5,117.0,231.3,334.2,212.7,612.0,-11559.6,820.5,-2001.6,-600.6,-1050.9,232.2,-9094.2,199.2,-6.9,-5.7,2777.1,587.7,-0.9,419.4,407.7,-463.5,0,984,0,221,0, 
0.5500,279.9,-1082.4,937.8,131.7,250.2,345.6,219.0,617.7,-9558.9,831.3,-2346.0,-1078.5,-896.4,135.6,-7444.2,204.9,-6.9,-5.7,2811.9,628.8,-1.2,443.4,410.1,-443.4,0,990,0,222,0, 
0.5533,285.3,-1083.3,944.1,141.0,260.1,343.2,212.7,629.7,-2519.4,819.9,577.8,1879.8,-664.2,392.7,-463.2,207.3,-7.2,-5.4,2838.0,642.6,-0.9,440.4,374.7,-442.8,0,996,0,223,0, 
0.5567,285.6,-1074.3,939.9,139.8,261.6,347.7,219.6,642.0,-296.4,819.6,2743.2,4177.5,-726.0,634.5,2214.9,217.8,-7.2,-5.7,2836.8,634.2,-0.6,446.4,413.4,-415.8,0,1002,0,224,0, 
0.5600,284.4,-1072.5,927.9,135.3,251.4,339.6,217.8,632.1,-5853.9,805.5,1071.6,2686.2,-988.2,524.4,-3168.0,222.6,-6.3,-5.7,2802.9,621.0,-0.6,432.3,406.5,-428.1,0,1008,0,225,0, 
0.5633,282.3,-1080.0,918.3,131.1,245.4,336.3,213.6,618.6,-11485.5,817.5,-2104.8,-625.8,-1065.6,232.8,-9122.7,215.4,-7.2,-6.0,2778.9,616.5,-0.9,437.1,400.2,-455.4,0,1014,0,226,0, 
0.5667,285.0,-1104.3,909.9,122.7,243.6,336.6,207.6,616.2,-9484.8,787.8,-2472.6,-1223.1,-880.5,194.7,-7432.2,205.8,-6.6,-5.7,2782.8,612.3,-0.9,419.4,375.9,-453.6,0,1020,0,227,0, 
0.5700,290.1,-1109.1,913.5,125.1,242.1,330.3,203.4,623.7,-2667.6,795.0,532.8,1749.0,-651.3,431.7,-448.2,214.5,-6.9,-5.7,2800.5,608.4,-0.9,408.0,394.5,-472.2,0,1026,0,228,0, 
0.5733,285.9,-1104.0,921.6,132.0,256.2,335.1,206.7,638.1,-222.3,805.8,2572.2,3948.3,-658.2,645.9,2219.7,204.9,-6.9,-5.7,2812.5,620.7,-0.9,427.2,394.5,-468.3,0,1032,0,229,0, 
0.5767,274.5,-1104.6,918.0,135.6,258.3,344.4,208.8,627.6,-5853.9,813.6,1447.2,2969.1,-897.6,541.5,-3202.5,203.4,-6.9,-6.0,2803.8,623.7,-0.6,424.2,390.6,-436.5,0,1038,0,230,0, 
0.5800,283.2,-1107.0,910.5,127.5,254.1,350.4,210.0,614.7,-11633.7,802.2,-1405.8,-89.1,-1050.6,261.3,-9115.8,219.9,-6.6,-5.7,2775.9,611.4,-1.2,421.5,393.6,-413.1,0,1044,0,231,0, 
0.5833,285.6,-1097.7,924.0,136.2,259.8,353.7,213.3,618.6,-9558.9,815.7,-1960.5,-944.4,-938.4,158.4,-7429.8,228.6,-6.9,-5.7,2796.9,623.1,-0.6,431.1,410.4,-425.7,0,1050,0,232,0, 
0.5867,289.8,-1088.7,930.9,142.8,261.6,342.9,210.9,630.9,-2593.5,843.6,871.8,1852.5,-732.9,392.7,-432.3,217.5,-7.2,-5.7,2822.4,634.2,-0.6,447.9,399.9,-451.2,0,1056,0,233,0, 
0.5900,295.8,-1074.9,933.6,142.2,256.8,341.7,212.7,636.0,-370.5,837.3,2899.8,4237.8,-674.4,647.1,2236.2,214.2,-7.2,-6.0,2839.2,631.8,-0.9,436.5,407.1,-461.7,0,1062,0,234,0, 
0.5933,288.0,-1096.2,915.0,130.5,239.4,332.4,207.3,618.9,-5631.6,826.5,1123.2,2712.6,-891.0,551.1,-3099.6,210.0,-7.2,-5.7,2815.5,621.0,-0.6,438.9,406.2,-476.1,0,1068,0,235,0, 
0.5967,294.9,-1080.3,914.7,129.0,238.5,342.0,210.0,611.7,-11633.7,824.4,-2135.1,-563.1,-1028.1,263.4,-9045.6,215.1,-6.9,-6.0,2795.4,615.9,-0.9,440.1,416.4,-458.1,0,1074,0,236,0, 
0.6000,292.2,-1080.3,921.3,134.7,254.7,354.9,221.1,618.0,-9410.7,836.1,-2515.5,-1239.3,-909.0,157.8,-7372.8,225.9,-6.9,-5.7,2805.9,631.2,-0.6,446.7,443.7,-409.8,0,1080,0,237,0, 
0.6033,303.0,-1057.2,932.4,144.6,263.1,351.9,217.5,638.1,-2593.5,839.4,513.6,1762.8,-795.0,425.1,-386.4,211.8,-7.2,-6.3,2829.0,635.4,-0.6,457.2,416.4,-421.8,0,1086,0,238,0, 
0.6067,293.1,-1069.2,925.5,139.2,252.3,348.6,215.1,633.9,-148.2,825.6,2383.2,3889.2,-732.6,654.9,2301.3,213.0,-6.9,-6.0,2831.4,632.7,-0.6,458.4,415.5,-430.8,0,1092,0,239,0, 
0.6100,287.1,-1078.2,922.2,135.6,249.6,341.7,210.3,622.5,-5631.6,837.0,271.8,2073.3,-876.3,561.3,-3028.5,222.9,-6.9,-5.7,2813.4,628.5,-0.9,456.3,414.0,-418.5,0,1098,0,240,0, 
0.6133,286.8,-1088.1,913.8,135.3,246.3,342.0,209.4,608.1,-11485.5,833.7,-2700.9,-999.3,-1036.2,276.3,-8991.6,227.7,-6.9,-5.4,2798.4,631.5,-0.6,450.3,422.7,-409.2,0,1104,0,241,0, 
0.6167,284.7,-1108.8,906.0,126.3,244.5,340.5,206.1,604.2,-9484.8,819.6,-3140.1,-1666.2,-886.8,203.1,-7299.9,213.6,-6.9,-5.7,2794.5,621.3,-0.9,451.2,415.8,-430.2,0,1110,0,242,0, 
0.6200,285.9,-1123.5,908.7,126.6,248.1,339.6,205.8,608.7,-2445.3,822.6,24.3,1354.8,-630.6,439.5,-304.5,215.4,-7.2,-5.7,2812.8,623.4,-1.2,450.3,407.4,-439.5,0,1116,0,243,0, 
0.6233,290.7,-1115.4,914.1,123.9,241.8,340.5,203.1,614.7,-148.2,827.7,2319.0,3921.0,-612.6,678.3,2352.6,221.7,-6.9,-5.4,2828.4,625.8,-0.6,433.2,392.1,-429.9,0,1122,0,244,0, 
0.6267,306.3,-1093.2,923.4,128.4,242.4,341.1,208.8,613.5,-5705.7,830.7,742.8,2480.4,-849.0,587.7,-3014.4,226.8,-7.2,-5.4,2820.6,622.2,-1.2,432.6,390.3,-441.3,0,1128,0,245,0, 
0.6300,291.0,-1102.5,925.2,126.3,237.3,331.5,206.1,600.9,-11411.4,836.7,-2438.7,-757.8,-1033.8,256.8,-8963.4,233.4,-7.2,-5.7,2802.3,614.7,-0.6,430.2,395.4,-460.2,0,1134,0,246,0, 
0.6333,291.9,-1096.5,935.1,133.2,245.4,338.7,207.9,609.9,-9410.7,843.9,-2766.3,-1365.9,-895.2,168.3,-7264.8,222.0,-6.9,-6.0,2815.5,621.9,-0.6,436.8,412.2,-441.6,0,1140,0,247,0, 
0.6367,288.9,-1105.2,933.3,126.6,235.8,325.2,203.4,615.3,-2445.3,832.8,264.9,1452.3,-692.1,416.1,-269.1,238.5,-7.2,-5.1,2824.5,611.1,-0.9,437.7,408.3,-460.2,0,1146,0,248,0, 
0.6400,286.8,-1098.9,937.5,129.0,241.8,327.3,203.7,618.9,-74.1,833.4,2400.3,3943.5,-675.0,660.6,2374.5,228.3,-7.2,-5.7,2829.0,621.6,-0.3,453.3,408.0,-452.7,0,1152,0,249,0, 
0.6433,284.1,-1099.2,932.7,125.7,232.5,327.9,202.5,608.1,-5557.5,819.0,785.1,2497.2,-875.7,553.2,-3007.2,217.5,-6.6,-5.4,2811.9,616.2,-0.9,442.5,414.6,-444.0,0,1158,0,250,0, 
0.6467,281.7,-1102.8,938.1,127.2,237.3,326.1,201.0,599.4,-11411.4,822.9,-2256.6,-693.9,-1052.7,258.9,-8963.1,228.6,-7.2,-5.7,2798.7,618.0,-0.9,441.3,409.5,-444.3,0,1164,0,251,0, 
0.6500,280.2,-1107.6,939.6,123.9,236.4,333.3,204.6,600.9,-9484.8,827.4,-2644.5,-1291.2,-968.7,180.9,-7251.6,227.4,-6.6,-5.7,2796.3,612.0,-0.9,430.5,410.7,-414.6,0,1170,0,252,0, 
0.6533,285.0,-1103.1,943.2,124.2,233.4,336.3,210.6,612.3,-2445.3,826.5,407.1,1647.6,-749.1,423.3,-282.3,224.7,-7.2,-5.7,2814.6,614.7,-0.9,439.8,440.4,-406.8,0,1176,0,253,0, 
0.6567,281.4,-1104.3,955.2,133.5,244.5,340.5,215.7,617.4,-148.2,837.3,2508.9,4003.8,-676.2,658.8,2354.1,230.1,-6.6,-5.7,2835.6,630.3,-1.2,445.5,418.8,-394.8,0,1182,0,254,0, 
0.6600,284.4,-1098.3,962.7,134.4,249.6,336.0,209.1,614.1,-5705.7,836.1,957.6,2570.1,-870.6,552.9,-3021.6,221.1,-7.5,-6.0,2830.5,636.3,-0.9,452.4,398.7,-385.8,0,1188,0,255,0, 
0.6633,282.6,-1107.9,952.8,122.7,234.6,323.7,201.9,594.3,-11559.6,828.6,-2298.0,-720.3,-1012.2,264.3,-8966.7,220.5,-6.6,-5.4,2797.5,618.3,-1.2,445.5,388.2,-415.8,0,1194,0,0,0, 
0.6667,278.4,-1119.0,947.4,114.3,225.9,307.8,198.6,589.8,-9410.7,816.0,-2563.5,-1397.1,-946.8,169.8,-7256.7,230.7,-6.9,-5.7,2794.8,604.2,-0.6,425.1,397.8,-475.2,0,1200,0,1,0, 
0.6700,278.4,-1120.8,950.7,112.8,226.5,305.4,192.6,602.4,-2371.2,822.6,466.8,1627.8,-713.7,408.6,-279.0,213.0,-6.6,-5.1,2810.4,611.4,-1.2,417.6,389.1,-454.2,0,1206,0,2,0, 
0.6733,279.9,-1117.8,958.8,114.3,231.3,321.9,200.7,611.7,-74.1,807.3,2618.1,3993.3,-666.6,668.4,2340.9,210.6,-6.9,-5.7,2817.9,618.6,-1.2,431.4,407.1,-406.2,0,1212,0,3,0, 
0.6767,278.4,-1128.6,954.3,111.0,228.0,317.1,198.0,600.3,-5779.8,806.1,1061.7,2571.0,-907.2,583.5,-3055.8,214.8,-7.2,-5.7,2801.1,613.8,-1.2,401.4,395.7,-403.5,0,1218,0,4,0, 
0.6800,271.8,-1128.6,956.1,115.2,233.1,315.6,196.2,591.9,-11411.4,824.1,-2169.9,-735.0,-1042.8,264.3,-9003.0,223.8,-6.6,-5.7,2789.7,611.7,-0.9,424.5,400.2,-437.1,0,1224,0,5,0, 
0.6833,275.1,-1124.1,955.2,113.1,232.8,324.6,205.2,593.4,-9558.9,816.9,-2639.4,-1319.4,-886.2,164.4,-7273.5,217.5,-6.6,-6.0,2789.7,607.5,-0.6,421.5,429.3,-419.7,0,1230,0,6,0, 
0.6867,283.2,-1110.0,974.1,119.1,240.0,323.7,194.1,607.2,-2445.3,826.8,277.8,1631.7,-672.0,408.6,-292.8,220.8,-7.2,-5.4,2823.9,613.2,-0.6,419.7,392.1,-416.1,0,1236,0,7,0, 
0.6900,286.5,-1117.8,970.5,115.2,235.5,314.1,189.0,608.7,-370.5,816.3,2475.3,4034.7,-660.3,648.9,2326.5,205.5,-6.6,-5.7,2827.8,611.7,-0.6,409.2,397.8,-449.7,0,1242,0,8,0, 
0.6933,273.3,-1113.9,975.3,120.9,239.4,311.1,190.2,600.0,-5631.6,822.3,825.3,2534.4,-894.3,548.7,-3073.2,211.8,-6.9,-6.0,2817.6,613.5,-0.6,431.7,400.8,-451.2,0,1248,0,9,0, 
0.6967,270.0,-1116.3,975.3,122.1,241.8,325.8,194.7,590.4,-11411.4,821.4,-2286.3,-686.7,-1067.4,262.2,-9003.3,206.4,-7.2,-5.7,2797.8,621.6,-0.6,437.1,394.5,-413.1,0,1254,0,10,0, 
0.7000,273.9,-1117.5,981.0,120.0,244.8,325.2,192.3,596.4,-9336.6,817.2,-2756.1,-1308.3,-911.1,186.9,-7249.5,211.5,-6.9,-6.0,2802.6,615.0,-0.6,424.8,372.3,-401.1,0,1260,0,11,0, 
0.7033,286.5,-1117.2,978.9,121.5,250.2,323.4,191.4,602.1,-2297.1,813.0,250.5,1599.3,-707.7,437.4,-243.3,210.3,-6.6,-5.7,2808.6,614.4,-0.9,420.9,393.0,-431.4,0,1266,0,12,0, 
0.7067,281.4,-1118.4,981.0,118.5,247.2,323.7,194.4,604.5,-148.2,819.9,2484.9,3972.6,-662.4,650.1,2355.9,218.4,-6.9,-5.4,2824.5,617.4,-0.6,421.5,406.5,-426.9,0,1272,0,13,0, 
0.7100,277.8,-1110.3,981.9,118.2,246.3,325.5,194.1,598.5,-5631.6,813.9,908.7,2500.5,-904.5,538.5,-3042.6,217.5,-7.2,-5.7,2815.8,615.6,-0.6,423.9,400.8,-401.1,0,1278,0,14,0, 
0.7133,281.4,-1097.1,989.7,121.2,250.8,331.5,198.3,592.5,-11485.5,820.5,-2352.6,-830.1,-1093.8,238.5,-8983.8,212.1,-6.9,-5.7,2799.9,619.2,-0.9,434.4,403.8,-382.2,0,1284,0,15,0, 
0.7167,284.1,-1078.8,997.2,119.1,248.1,323.1,187.8,595.5,-9484.8,816.6,-2762.1,-1413.0,-1026.3,141.0,-7243.8,209.1,-7.2,-5.4,2801.4,617.4,-1.2,421.2,377.4,-410.4,0,1290,0,16,0, 
0.7200,285.0,-1089.0,1004.1,122.1,253.2,327.9,193.5,608.1,-2445.3,821.7,206.4,1605.3,-711.6,379.2,-236.4,226.5,-6.6,-6.0,2824.2,625.2,-0.6,422.7,394.8,-405.3,0,1296,0,17,0, 
0.7233,270.6,-1132.2,984.0,106.8,243.3,316.5,189.6,603.6,-74.1,810.3,2335.2,4007.1,-693.0,651.9,2393.4,203.4,-6.6,-6.0,2817.3,614.1,-1.2,424.8,408.0,-408.3,0,1302,0,18,0, 
0.7267,268.2,-1125.6,991.8,112.2,248.4,327.9,201.0,597.6,-5631.6,816.6,767.7,2538.9,-941.1,560.7,-3007.5,206.7,-7.2,-6.3,2808.0,623.7,-0.6,438.0,403.5,-378.6,0,1308,0,19,0, 
0.7300,269.7,-1133.4,990.3,108.0,248.4,331.8,204.9,588.0,-11485.5,813.3,-2559.3,-762.0,-1030.5,277.5,-8901.6,218.4,-6.9,-5.4,2789.7,614.1,-0.9,424.2,436.5,-393.6,0,1314,0,20,0, 
0.7333,264.3,-1134.0,987.3,105.6,243.9,314.1,187.2,580.2,-9336.6,801.0,-2809.5,-1310.1,-854.1,180.3,-7140.9,200.4,-6.6,-6.0,2792.1,602.4,-0.9,401.4,392.7,-421.2,0,1320,0,21,0, 
0.7367,258.3,-1144.8,989.4,104.7,244.8,306.3,178.2,583.8,-2445.3,810.3,231.0,1740.9,-696.3,423.0,-147.3,223.5,-6.9,-5.7,2807.7,603.0,-1.2,406.2,381.9,-447.6,0,1326,0,22,0, 
0.7400,272.4,-1130.1,1003.5,111.3,251.1,308.7,179.1,597.3,0.0,815.7,2370.6,4128.9,-651.3,658.5,2468.1,206.4,-6.9,-5.7,2825.4,605.1,-1.2,427.8,369.3,-447.6,0,1332,0,23,0, 
0.7433,262.2,-1119.3,1002.0,111.0,247.8,309.0,177.6,592.5,-5631.6,814.8,705.9,2653.8,-916.5,554.4,-2949.6,203.1,-6.9,-5.4,2814.3,610.8,-1.2,430.5,380.1,-461.1,0,1338,0,24,0, 
0.7467,261.6,-1126.5,1000.5,110.1,249.6,315.0,183.3,586.2,-11337.3,811.2,-2559.0,-662.7,-1090.8,260.4,-8861.1,209.1,-6.9,-6.0,2796.0,616.8,-0.6,430.2,385.2,-434.4,0,1344,0,25,0, 
0.7500,263.1,-1132.2,998.7,110.7,246.3,318.6,181.8,588.0,-9262.5,811.5,-2873.4,-1293.3,-954.9,162.9,-7085.4,206.7,-6.9,-5.7,2789.7,606.3,-0.6,415.2,387.9,-429.3,0,1350,0,26,0, 
0.7533,272.7,-1128.6,1001.4,108.9,246.3,315.0,180.9,600.3,-2223.0,801.3,167.4,1727.7,-689.4,430.8,-70.2,203.7,-6.9,-6.3,2811.6,606.3,-0.6,414.3,369.9,-435.3,0,1356,0,27,0, 
0.7567,264.9,-1136.1,992.7,101.4,237.6,307.5,179.7,594.9,0.0,787.2,2405.7,4121.1,-643.8,662.1,2541.3,198.3,-6.9,-5.7,2814.0,596.7,-0.6,399.0,380.7,-442.8,0,1362,0,28,0, 
0.7600,263.4,-1138.5,993.0,102.9,231.6,303.6,176.7,587.4,-5557.5,795.3,654.6,2538.6,-856.5,549.0,-2898.6,190.5,-6.9,-5.4,2795.7,597.6,-0.9,408.9,382.2,-442.2,0,1368,0,29,0, 
0.7633,264.0,-1135.2,994.2,109.2,247.8,320.7,180.6,584.4,-11189.1,809.4,-2460.6,-756.0,-1051.8,250.8,-8821.8,196.8,-6.9,-5.7,2790.3,607.8,-0.6,423.9,378.6,-402.9,0,1374,0,30,0, 
0.7667,264.9,-1121.4,1010.1,117.3,256.2,333.3,187.2,597.6,-9188.4,813.9,-2785.5,-1342.5,-965.7,148.8,-7052.1,203.1,-7.2,-5.7,2798.4,615.0,-0.6,415.5,383.4,-379.8,0,1380,0,31,0, 
0.7700,262.8,-1119.0,1014.0,120.9,260.1,321.6,179.7,606.3,-2223.0,804.6,259.8,1662.3,-732.0,390.6,-62.7,196.5,-6.9,-6.0,2821.5,616.5,-0.6,420.3,378.3,-413.1,0,1386,0,32,0, 
0.7733,268.8,-1112.1,1012.5,119.4,254.4,320.4,186.3,610.2,0.0,805.5,2477.1,4102.2,-668.1,644.7,2529.0,206.4,-6.9,-5.7,2836.5,611.4,-0.9,423.9,381.0,-412.5,0,1392,0,33,0, 
0.7767,264.9,-1127.1,1009.8,120.9,261.0,326.4,195.6,606.0,-5557.5,813.0,773.1,2489.1,-923.1,547.2,-2889.9,214.5,-7.2,-6.0,2821.8,621.9,-0.6,422.1,395.1,-384.6,0,1398,0,34,0, 
0.7800,264.6,-1132.5,1013.4,127.5,262.2,332.1,197.7,599.7,-11337.3,821.7,-1903.8,-422.7,-1072.2,264.9,-8838.6,212.4,-7.2,-6.3,2813.7,623.7,-0.9,442.8,417.3,-405.9,0,1404,0,35,0, 
0.7833,259.5,-1135.5,1010.7,117.0,256.8,325.5,192.3,591.9,-9114.3,807.6,-1671.3,-600.3,-948.3,170.1,-7038.3,201.0,-6.6,-6.0,2812.8,606.3,-0.3,432.0,425.7,-432.0,0,1410,0,36,0, 
0.7867,268.8,-1116.6,1018.2,117.0,257.4,329.7,196.8,607.2,-2148.9,802.5,1080.3,2037.0,-750.3,410.7,-26.4,191.1,-7.2,-5.7,2827.8,606.6,-0.9,418.2,424.2,-411.6,0,1416,0,37,0, 
0.7900,264.3,-1120.2,1021.2,121.8,262.8,336.3,202.5,617.7,0.0,811.8,3161.7,4379.4,-705.0,649.5,2555.1,217.5,-6.9,-5.7,2835.6,612.9,-0.9,422.7,408.3,-381.0,0,1422,0,38,0, 
0.7933,274.8,-1121.1,1016.4,120.3,257.7,332.4,191.4,610.8,-5557.5,819.9,1327.2,2720.7,-877.5,565.2,-2857.8,207.3,-6.9,-6.0,2822.4,608.7,-1.2,415.2,382.8,-401.7,0,1428,0,39,0, 
0.7967,278.1,-1120.8,1014.3,122.4,255.0,323.7,190.2,601.2,-11115.0,827.7,-1913.7,-459.0,-1052.4,240.0,-8755.5,217.5,-6.9,-5.7,2808.9,612.9,-0.9,427.2,392.4,-419.1,0,1434,0,40,0, 
0.8000,271.2,-1120.8,1018.2,127.5,260.1,330.6,198.0,601.8,-9040.2,811.8,-2284.2,-1106.7,-933.9,170.1,-6934.5,210.9,-7.2,-6.0,2810.4,617.1,-1.2,433.5,399.3,-403.5,0,1440,0,41,0, 
0.8033,276.9,-1116.9,1017.9,121.8,262.2,325.8,189.3,612.9,-2297.1,818.1,720.3,1782.6,-765.6,435.6,54.3,192.3,-6.6,-6.0,2823.6,619.5,-0.9,443.4,387.3,-404.4,0,1446,0,42,0, 
0.8067,279.6,-1119.9,1011.0,119.7,263.7,337.5,200.1,619.5,74.1,789.0,2856.9,4134.6,-746.1,664.5,2623.5,213.0,-7.2,-6.3,2829.6,613.8,-0.9,429.3,423.9,-374.4,0,1452,0,43,0, 
0.8100,274.8,-1129.2,1012.5,124.5,267.9,327.6,192.0,608.4,-5557.5,812.1,1138.5,2711.4,-870.3,591.0,-2785.5,205.5,-6.9,-5.7,2826.0,619.5,-0.9,447.0,370.8,-391.2,0,1458,0,44,0, 
0.8133,270.6,-1141.5,1003.2,115.8,258.0,316.5,186.6,594.3,-10966.8,810.3,-2155.2,-587.1,-1018.5,291.9,-8649.3,204.9,-7.2,-6.0,2809.2,602.1,-0.3,425.4,383.1,-425.1,0,1464,0,45,0, 
0.8167,268.2,-1147.8,1001.4,112.8,257.1,318.9,188.1,594.0,-9040.2,802.8,-2464.5,-1113.0,-900.6,204.9,-6837.0,210.6,-7.5,-5.7,2811.3,601.5,-0.6,432.0,370.2,-422.7,0,1470,0,46,0, 
0.8200,272.7,-1138.2,1006.5,116.4,253.8,314.1,186.0,602.7,-2000.7,806.7,-58.5,1269.0,-658.8,450.6,199.5,196.5,-6.9,-6.0,2833.8,599.1,-0.9,428.7,372.9,-437.7,0,1476,0,47,0, 
0.8233,279.9,-1116.9,1017.9,119.4,261.9,318.0,198.0,617.4,222.3,818.7,2336.1,3836.7,-681.6,684.9,2730.3,213.9,-7.2,-5.4,2846.1,602.4,-0.9,428.7,390.0,-436.5,0,1482,0,48,0, 
0.8267,283.2,-1114.8,1015.8,119.4,259.2,324.9,200.7,607.5,-5261.1,809.1,586.8,2495.7,-869.1,596.1,-2681.4,220.8,-6.3,-5.7,2828.4,601.8,-0.6,419.7,407.1,-423.3,0,1488,0,49,0, 
0.8300,281.7,-1108.8,1014.3,114.0,255.0,329.7,201.6,600.3,-11115.0,825.9,-2337.9,-552.9,-976.2,269.4,-8566.5,186.9,-6.9,-5.7,2817.6,596.7,-0.6,407.7,419.4,-406.2,0,1494,0,50,0, 
0.8333,276.6,-1125.0,1005.9,116.1,259.2,334.8,197.1,602.4,-9040.2,812.1,-2575.8,-1072.2,-891.3,180.9,-6778.8,192.6,-6.9,-6.0,2813.7,601.8,-0.9,424.8,384.3,-393.0,0,1500,0,51,0, 
0.8367,272.7,-1137.0,1005.6,121.5,263.1,333.0,196.2,613.5,-1926.6,809.1,462.9,1893.6,-722.1,448.8,228.3,207.9,-6.6,-5.4,2834.1,605.1,-1.2,435.0,383.1,-387.6,0,1506,0,52,0, 
0.8400,281.7,-1120.8,1006.2,121.8,258.9,325.2,193.2,620.7,370.5,808.8,2619.3,4144.2,-661.8,706.2,2774.1,210.3,-6.6,-5.7,2841.6,610.5,-0.6,419.1,381.0,-420.6,0,1512,0,53,0, 
0.8433,281.1,-1107.9,1014.0,128.1,261.3,327.3,195.9,618.3,-5409.3,821.7,873.6,2693.7,-932.4,575.4,-2670.9,189.6,-7.2,-6.0,2837.4,619.8,-0.9,428.7,386.4,-414.3,0,1518,0,54,0, 
0.8467,284.1,-1105.2,1011.3,131.4,267.0,329.1,197.1,607.8,-11115.0,819.0,-2201.4,-459.0,-1106.7,283.8,-8538.0,206.1,-6.9,-6.0,2822.1,621.6,-0.3,447.6,388.8,-413.7,0,1524,0,55,0, 
0.8500,275.4,-1128.6,997.2,118.2,256.2,326.7,194.7,596.4,-8892.0,807.3,-2508.3,-1056.9,-949.2,202.8,-6721.2,200.7,-7.2,-5.7,2810.4,608.1,-0.6,413.4,418.2,-399.0,0,1530,0,56,0, 
0.8533,274.8,-1124.7,1000.5,120.9,258.9,325.5,187.2,608.7,-2000.7,798.6,528.0,1905.3,-705.9,440.7,288.9,194.1,-6.6,-5.4,2831.7,600.6,-0.6,400.2,378.3,-398.1,0,1536,0,57,0, 
0.8567,272.1,-1119.6,1012.5,126.6,269.4,335.1,192.9,622.5,296.4,832.5,2617.5,4270.8,-741.0,675.9,2805.6,195.0,-6.9,-5.7,2857.8,616.2,-0.6,432.0,379.8,-365.7,0,1542,0,58,0, 
0.8600,276.9,-1107.6,1016.7,130.8,275.1,333.3,192.0,615.3,-5409.3,837.0,1033.2,2900.7,-926.7,582.0,-2640.9,194.1,-7.2,-6.0,2847.0,628.2,-0.3,435.9,379.5,-388.2,0,1548,0,59,0, 
0.8633,275.4,-1113.0,1003.5,128.7,266.7,318.9,184.8,597.9,-10818.6,814.8,-2067.3,-377.4,-1016.1,289.2,-8486.7,203.7,-6.9,-6.0,2822.1,623.7,-0.6,445.5,376.5,-441.9,0,1554,0,60,0, 
0.8667,280.5,-1121.1,1004.1,127.2,266.7,319.5,186.9,598.5,-8817.9,815.1,-2303.1,-951.0,-861.3,222.9,-6650.7,192.9,-6.9,-5.7,2828.1,630.6,-0.9,445.2,377.7,-430.5,0,1560,0,61,0, 
0.8700,280.5,-1126.2,1000.5,124.5,264.9,314.7,188.7,606.6,-2000.7,814.2,687.0,1962.6,-666.0,449.7,341.4,198.0,-7.2,-6.3,2844.9,627.0,-0.3,435.0,407.7,-415.5,0,1566,0,62,0, 
0.8733,271.5,-1129.2,1000.8,121.8,262.5,319.5,191.4,612.6,296.4,820.8,2823.3,4263.9,-720.0,671.4,2849.4,206.7,-6.9,-6.3,2851.2,625.2,-0.6,433.2,415.5,-415.5,0,1572,0,63,0, 
0.8767,271.5,-1116.9,1002.6,120.0,261.6,310.2,187.8,603.9,-5112.9,810.3,1194.9,2852.1,-838.8,582.0,-2561.7,203.1,-6.9,-6.3,2836.2,614.1,-0.3,420.9,396.3,-431.1,0,1578,0,64,0, 
0.8800,279.3,-1129.5,993.3,115.2,258.0,312.9,185.4,591.9,-10892.7,792.6,-1836.6,-297.0,-995.1,322.5,-8385.6,210.9,-7.2,-6.3,2812.8,614.1,-0.6,425.4,372.0,-422.7,0,1584,0,65,0, 
0.8833,264.0,-1136.1,996.3,122.4,267.6,325.8,189.9,595.5,-8743.8,816.3,-2093.7,-736.2,-885.0,213.0,-6535.5,205.5,-6.9,-6.0,2823.3,627.9,-0.9,429.0,400.2,-392.7,0,1590,0,66,0, 
0.8867,268.8,-1135.8,996.3,120.3,262.8,319.5,184.5,604.2,-1778.4,813.0,833.4,2189.4,-729.3,468.9,420.0,209.4,-6.6,-6.0,2842.2,621.3,-0.9,424.8,365.7,-390.0,0,1596,0,67,0, 
0.8900,265.5,-1131.9,996.9,117.9,259.8,313.5,181.2,607.2,370.5,810.6,3024.3,4564.2,-683.7,687.3,2952.6,199.5,-7.2,-5.7,2849.1,621.3,-0.9,433.5,363.0,-414.6,0,1602,0,68,0, 
0.8933,265.5,-1130.1,990.3,115.2,259.2,315.3,186.0,603.0,-5112.9,816.0,1347.3,3051.6,-913.2,601.2,-2482.5,206.4,-6.9,-6.0,2838.3,618.3,-0.9,432.3,375.6,-402.9,0,1608,0,69,0, 
0.8967,255.6,-1127.1,987.6,113.1,259.8,314.1,189.3,590.1,-10892.7,810.0,-1863.6,-155.1,-1046.7,281.7,-8315.4,207.0,-6.9,-5.7,2817.3,619.5,-0.9,434.7,401.7,-406.5,0,1614,0,70,0, 
0.9000,264.3,-1125.9,996.0,121.5,261.6,314.4,191.1,591.3,-8595.6,815.4,-2154.0,-687.6,-953.4,226.8,-6453.6,218.4,-7.2,-5.7,2824.2,623.7,-0.6,437.4,396.0,-408.9,0,1620,0,71,0, 
0.9033,266.4,-1103.1,1006.8,126.6,269.7,319.5,187.8,602.7,-1778.4,824.7,966.6,2349.0,-752.4,448.5,499.5,192.3,-6.6,-6.0,2853.9,630.9,-0.3,434.1,395.7,-403.5,0,1626,0,72,0, 
0.9067,269.1,-1107.0,998.7,122.7,257.7,318.9,185.7,603.9,444.6,820.5,2996.1,4710.6,-717.3,696.0,3008.7,203.4,-6.9,-5.7,2857.8,619.2,-0.9,431.4,406.5,-405.0,0,1632,0,73,0, 
0.9100,263.4,-1114.5,989.1,118.5,250.5,320.1,190.2,593.4,-4964.7,805.8,1330.2,3279.3,-982.8,622.5,-2420.1,219.9,-7.2,-5.7,2823.9,618.6,-0.9,417.9,429.6,-413.4,0,1638,0,74,0, 
0.9133,269.4,-1086.6,998.1,126.6,252.3,315.6,183.6,588.9,-10818.6,807.9,-1849.2,-28.2,-1083.9,309.3,-8258.1,201.3,-6.9,-5.7,2823.0,626.7,-1.2,429.0,387.6,-435.3,0,1644,0,75,0, 
0.9167,270.6,-1103.1,998.7,131.4,260.7,326.1,183.3,594.6,-8521.5,813.9,-2085.3,-465.9,-894.0,218.4,-6392.4,198.0,-6.9,-6.3,2835.9,632.1,-0.3,442.5,365.7,-405.0,0,1650,0,76,0, 
0.9200,270.0,-1137.0,984.6,124.2,258.3,318.0,185.7,603.9,-1630.2,813.6,929.7,2399.7,-632.1,476.4,587.1,208.5,-7.2,-6.0,2843.7,636.3,-0.9,441.0,387.6,-404.7,0,1656,0,77,0, 
0.9233,274.5,-1133.7,986.1,125.1,254.1,309.6,185.7,610.5,518.7,817.5,3028.5,4731.0,-635.1,722.7,3072.3,208.8,-7.2,-6.0,2847.3,633.0,-0.9,443.4,387.0,-453.3,0,1662,0,78,0, 
0.9267,277.2,-1113.6,991.2,122.1,251.7,311.4,187.8,604.2,-5112.9,809.7,1535.7,3262.5,-878.7,597.0,-2370.9,210.3,-6.9,-5.7,2837.4,628.2,-0.6,431.1,377.1,-434.4,0,1668,0,79,0, 
0.9300,267.0,-1117.5,990.6,117.0,250.8,314.7,179.1,590.7,-10818.6,808.5,-1523.1,68.4,-1122.3,295.8,-8190.6,202.5,-6.9,-6.0,2825.1,623.4,-1.2,422.7,372.0,-396.9,0,1674,0,80,0, 
0.9333,270.6,-1130.7,978.6,108.9,244.2,322.8,188.4,587.7,-8521.5,785.1,-1818.3,-391.2,-922.8,227.7,-6307.8,220.2,-7.2,-6.3,2817.0,606.6,-0.9,410.1,391.8,-353.1,0,1680,0,81,0, 
0.9367,274.5,-1136.4,984.0,114.0,246.3,307.8,179.7,597.9,-1556.1,797.7,1167.0,2548.5,-643.5,487.2,666.9,216.3,-6.6,-6.0,2838.0,607.2,-0.6,404.4,363.3,-422.4,0,1686,0,82,0, 
0.9400,271.8,-1115.4,1004.7,126.9,255.0,323.4,183.9,612.0,518.7,824.1,3165.9,4790.7,-613.8,717.6,3126.3,180.3,-6.6,-6.0,2858.1,621.3,-0.9,413.4,362.7,-433.2,0,1692,0,83,0, 
0.9433,270.6,-1114.2,1013.1,135.0,265.2,318.9,186.3,608.7,-5038.8,828.9,1499.1,3183.0,-915.6,600.0,-2333.7,184.5,-6.9,-5.7,2856.0,631.8,-0.6,445.5,395.4,-438.9,0,1698,0,84,0, 
0.9467,265.2,-1111.8,1011.6,139.2,268.8,327.0,190.8,597.6,-10670.4,821.4,-1584.9,-36.3,-1084.5,287.7,-8155.2,204.0,-7.2,-5.7,2838.3,634.2,-0.9,447.0,397.2,-429.9,0,1704,0,85,0, 
0.9500,254.4,-1126.2,998.7,130.2,257.7,313.2,182.7,591.3,-8521.5,819.9,-1800.0,-381.0,-995.1,206.1,-6278.7,201.6,-6.9,-6.3,2832.6,619.8,-1.2,428.4,375.3,-439.5,0,1710,0,86,0, 
0.9533,265.5,-1130.7,988.8,118.8,250.8,313.2,177.6,602.1,-1630.2,794.7,1120.8,2529.3,-732.9,480.0,706.5,193.8,-6.9,-5.4,2832.9,615.0,-1.2,414.0,367.8,-414.6,0,1716,0,87,0, 
0.9567,263.7,-1118.7,986.7,111.9,242.4,302.7,174.9,600.3,518.7,777.9,3164.1,4896.6,-760.2,723.3,3181.8,193.2,-6.6,-5.7,2838.9,607.2,-0.6,409.8,378.0,-431.4,0,1722,0,88,0, 
0.9600,261.9,-1122.3,986.7,114.0,248.4,312.3,188.4,600.3,-5038.8,796.8,1437.0,3434.1,-987.9,604.2,-2248.5,203.1,-6.6,-5.4,2826.6,615.0,-0.9,423.0,409.5,-417.9,0,1728,0,89,0, 
0.9633,264.0,-1113.6,998.4,123.6,254.7,327.6,189.9,594.0,-10448.1,806.4,-1560.9,306.3,-1039.8,309.6,-8013.9,215.1,-6.6,-6.0,2823.0,618.0,-0.9,432.3,386.1,-388.8,0,1734,0,90,0, 
0.9667,271.5,-1122.0,992.7,121.5,252.6,323.4,185.7,596.7,-8299.2,804.3,-1907.7,-285.0,-885.0,243.6,-6133.2,199.5,-6.9,-5.7,2820.0,614.4,-0.3,425.7,383.1,-412.8,0,1740,0,91,0, 
0.9700,269.7,-1123.5,1001.1,135.9,264.0,320.1,184.5,613.8,-1556.1,823.8,1177.2,2707.8,-650.1,491.4,750.6,178.5,-6.9,-6.3,2856.6,627.3,-0.6,441.6,376.5,-430.8,0,1746,0,92,0, 
0.9733,272.7,-1108.8,1012.2,146.1,267.6,330.0,188.7,626.4,666.9,841.5,3123.9,4991.1,-640.8,726.3,3196.8,180.9,-6.6,-6.0,2876.7,634.2,-0.9,446.7,363.9,-421.8,0,1752,0,93,0, 
0.9767,263.4,-1115.7,997.2,133.2,255.3,324.3,187.5,608.4,-4964.7,826.8,1565.7,3516.6,-850.2,606.3,-2245.2,199.8,-6.9,-6.0,2845.8,614.7,-0.6,426.6,375.6,-410.1,0,1758,0,94,0, 
0.9800,264.9,-1121.1,985.8,126.3,249.6,327.3,191.1,591.6,-10448.1,808.5,-1577.7,233.1,-1012.5,308.4,-8008.8,195.9,-6.9,-6.0,2818.2,607.2,-0.9,415.8,394.5,-393.6,0,1764,0,95,0, 
0.9833,259.2,-1122.6,984.6,128.1,249.3,329.7,183.0,595.2,-8521.5,807.0,-1182.0,254.7,-924.3,222.3,-6191.1,177.9,-6.9,-6.3,2831.7,598.2,-0.6,408.6,375.9,-391.8,0,1770,0,96,0, 
0.9867,258.6,-1116.3,991.8,129.9,256.2,321.0,176.7,607.5,-1556.1,817.8,2011.2,3222.6,-704.4,476.1,777.9,187.5,-6.6,-5.7,2853.0,606.9,-0.9,426.6,354.0,-423.6,0,1776,0,97,0, 
0.9900,258.9,-1126.2,991.2,132.0,260.7,318.0,176.4,613.8,666.9,827.4,3870.0,5349.6,-692.7,715.8,3208.8,190.5,-6.9,-6.0,2866.2,609.0,-0.6,438.6,363.3,-420.9,0,1782,0,98,0, 
0.9933,260.4,-1122.6,987.3,133.5,259.2,320.4,179.4,605.4,-4964.7,824.1,2104.8,3690.0,-903.9,601.8,-2239.2,181.5,-7.2,-6.3,2850.0,610.5,-0.6,436.2,369.9,-415.8,0,1788,0,99,0, 
0.9967,254.1,-1116.3,985.2,131.4,257.7,315.6,174.9,593.1,-10596.3,822.0,-1072.2,480.9,-1017.0,321.9,-7991.7,175.8,-6.9,-5.7,2834.4,600.0,-0.9,432.0,367.8,-423.9,0,1794,0,100,0, 
1.0000,258.0,-1122.6,986.7,128.1,255.3,312.9,170.4,593.7,-8447.4,818.7,-1362.3,-32.4,-951.0,233.1,-6085.2,182.4,-6.9,-5.7,2835.6,596.4,-0.3,425.7,358.2,-441.9,0,1800,0,101,0, 
1.0033,269.7,-1106.7,993.0,128.7,254.7,311.7,171.0,607.5,-1556.1,803.7,1665.9,2915.4,-704.4,485.4,840.0,177.9,-6.6,-5.7,2854.5,597.9,-0.6,414.6,373.5,-442.8,0,1806,0,102,0, 
1.0067,268.2,-1106.4,987.3,121.8,250.5,314.7,175.5,608.1,666.9,786.9,3569.1,5116.8,-732.0,713.1,3235.2,181.8,-6.6,-6.0,2855.4,592.5,-0.3,413.4,385.5,-416.4,0,1812,0,103,0, 
1.0100,254.7,-1112.7,978.0,116.1,244.5,314.4,172.2,594.6,-4890.6,792.0,1869.3,3649.2,-1035.6,603.0,-2216.1,184.5,-7.2,-6.0,2831.1,595.8,-0.9,402.3,381.3,-426.9,0,1818,0,104,0, 
1.0133,248.7,-1126.8,969.9,116.4,246.3,308.7,175.5,584.4,-10374.0,782.4,-1146.0,557.1,-1070.1,323.4,-7982.1,197.7,-6.6,-5.7,2811.3,594.0,-0.6,417.9,405.3,-460.2,0,1824,0,105,0, 
1.0167,248.7,-1141.8,968.1,116.7,240.3,306.9,168.3,584.4,-8373.3,794.1,-1833.9,-183.6,-897.9,243.6,-6012.3,189.3,-6.6,-6.0,2815.8,587.7,-0.3,426.3,380.7,-454.5,0,1830,0,106,0, 
1.0200,246.9,-1141.8,982.2,125.1,258.0,319.8,174.3,604.8,-1482.0,808.5,861.3,2667.0,-693.0,489.6,874.2,183.9,-6.9,-6.0,2851.5,605.4,-0.9,428.4,364.8,-429.6,0,1836,0,107,0, 
1.0233,259.8,-1117.2,980.4,119.7,246.6,318.6,174.3,609.9,741.0,800.1,3207.3,5025.6,-610.8,736.5,3276.3,186.3,-6.6,-6.0,2850.6,594.3,-0.9,406.8,359.4,-403.2,0,1842,0,108,0, 
1.0267,260.4,-1131.3,965.4,111.3,239.4,318.3,181.8,600.6,-4964.7,781.8,1561.5,3671.1,-944.4,609.0,-2230.8,193.5,-6.6,-5.4,2821.2,578.7,-0.6,403.2,394.5,-401.7,0,1848,0,109,0, 
1.0300,247.8,-1129.2,963.6,111.9,242.1,315.9,174.6,591.6,-10596.3,775.5,-1501.8,418.5,-1092.9,283.2,-7977.9,206.4,-6.6,-6.0,2805.6,576.6,-0.9,406.5,363.0,-426.9,0,1854,0,110,0, 
1.0333,238.5,-1142.1,969.9,118.5,257.7,324.6,173.7,598.8,-8373.3,804.9,-1700.1,-21.0,-925.5,231.6,-5997.6,180.9,-6.9,-6.0,2817.9,586.8,-1.2,411.3,351.0,-396.9,0,1860,0,111,0, 
1.0367,239.7,-1142.4,965.1,114.3,246.6,325.8,175.5,605.4,-1407.9,793.2,1388.1,3007.5,-699.6,502.5,901.2,179.1,-6.9,-5.7,2823.9,596.1,-0.6,408.3,356.4,-375.9,0,1866,0,112,0, 
1.0400,238.8,-1133.1,970.5,114.0,246.6,318.9,174.9,612.6,666.9,804.0,3483.0,5323.5,-657.3,713.7,3261.3,176.4,-6.9,-6.0,2845.8,600.9,-0.9,404.7,362.1,-420.9,0,1872,0,113,0, 
1.0433,243.6,-1124.7,976.2,120.3,240.3,309.3,167.4,609.3,-4964.7,805.2,1846.5,3895.5,-889.2,610.2,-2210.7,170.7,-6.6,-5.7,2837.7,594.3,-0.3,416.7,351.9,-464.4,0,1878,0,114,0, 
1.0467,241.5,-1137.3,970.2,119.1,240.9,308.4,176.1,593.7,-10448.1,793.2,-1135.8,713.7,-1055.4,339.6,-7895.7,190.5,-7.2,-5.7,2819.1,587.7,-1.2,408.3,360.0,-472.2,0,1884,0,115,0, 
1.0500,243.9,-1130.1,973.2,118.2,235.8,301.5,167.7,597.3,-8299.2,798.0,-1355.4,315.9,-996.3,248.4,-5971.8,191.1,-7.5,-5.4,2828.4,587.1,-0.3,412.8,366.3,-483.6,0,1890,0,116,0, 
1.0533,245.1,-1123.8,972.0,119.4,232.8,302.1,171.9,609.0,-1333.8,792.6,1658.1,3301.2,-764.4,487.5,921.3,192.0,-6.3,-5.7,2834.1,581.7,-1.2,405.6,362.4,-452.7,0,1896,0,117,0, 
1.0567,244.8,-1123.8,972.9,112.8,228.9,300.6,170.4,611.7,741.0,798.0,3640.5,5464.8,-715.2,721.5,3266.7,182.1,-6.9,-6.3,2836.5,565.2,-0.9,400.5,366.6,-435.6,0,1902,0,118,0, 
1.0600,243.3,-1124.1,961.8,111.9,228.3,308.4,169.5,600.6,-4964.7,782.4,1926.9,3946.2,-913.5,594.0,-2197.2,176.4,-6.6,-6.0,2815.2,566.7,-0.9,407.4,374.4,-398.7,0,1908,0,119,0, 
1.0633,245.4,-1122.0,971.7,127.2,243.6,316.2,177.9,597.6,-10448.1,798.9,-1140.9,788.1,-1062.3,288.3,-7884.6,180.6,-7.2,-5.4,2818.8,593.7,-0.6,414.6,392.1,-388.8,0,1914,0,120,0, 
1.0667,245.1,-1110.0,987.0,138.0,252.6,313.2,179.1,606.9,-8076.9,812.1,-1253.7,303.9,-920.7,206.1,-5933.7,171.0,-6.9,-6.0,2844.3,597.9,-1.2,415.5,395.7,-429.6,0,1920,0,121,0, 
1.0700,245.1,-1100.1,990.3,132.6,242.7,309.0,175.2,615.9,-1482.0,798.3,1743.6,3288.6,-709.2,456.9,979.8,189.3,-7.5,-6.0,2862.0,594.6,-0.9,413.1,378.3,-426.9,0,1926,0,122,0, 
1.0733,254.1,-1099.2,980.4,123.3,229.5,296.7,165.9,612.0,741.0,779.4,3802.5,5687.7,-737.1,699.6,3315.0,188.1,-6.9,-5.7,2850.3,579.6,-0.6,393.3,360.3,-424.2,0,1932,0,123,0, 
1.0767,247.5,-1126.2,969.0,117.3,226.5,298.2,172.8,603.6,-4964.7,783.9,2140.2,4167.9,-950.7,616.2,-2146.5,171.6,-6.9,-6.0,2827.8,576.9,-0.6,407.4,381.0,-398.4,0,1938,0,124,0, 
1.0800,253.8,-1126.2,969.3,117.3,228.6,301.5,173.7,591.3,-10448.1,783.9,-915.3,916.8,-1016.4,318.3,-7807.8,175.5,-7.2,-5.7,2810.1,574.2,-0.9,400.2,365.7,-416.4,0,1944,0,125,0, 
1.0833,254.4,-1119.9,974.4,124.2,234.6,296.1,165.0,594.3,-8225.1,785.4,-1064.1,481.2,-907.5,237.0,-5860.5,164.1,-6.6,-5.4,2817.9,576.6,-0.9,410.4,338.7,-459.6,0,1950,0,126,0, 
1.0867,234.0,-1133.4,966.9,116.7,229.8,293.7,165.0,600.3,-1333.8,781.5,1835.4,3311.4,-715.5,467.7,1041.6,187.5,-6.9,-5.7,2828.4,573.0,-0.6,392.7,361.8,-465.3,0,1956,0,127,0, 
1.0900,239.7,-1137.0,962.1,114.0,223.8,291.3,162.6,607.5,666.9,780.3,3834.3,5526.0,-714.0,724.2,3344.7,183.0,-6.6,-5.7,2838.9,572.7,-1.2,402.3,351.6,-459.6,0,1962,0,128,0, 
1.0933,245.4,-1130.4,968.4,122.7,231.6,307.5,174.9,611.7,-4964.7,801.6,2158.8,4019.7,-898.2,600.9,-2153.1,184.5,-7.2,-6.0,2835.6,581.7,-0.9,425.4,353.1,-439.2,0,1968,0,129,0, 
1.0967,249.6,-1115.4,965.7,123.3,228.6,295.5,163.2,597.3,-10374.0,798.3,-852.3,887.1,-1096.2,330.3,-7821.6,186.3,-6.9,-5.4,2819.4,581.1,-0.9,420.6,342.0,-458.4,0,1974,0,130,0, 
1.1000,249.6,-1120.2,966.9,125.4,236.1,306.0,174.9,602.1,-8151.0,792.0,-1054.8,563.1,-934.2,233.4,-5836.8,183.3,-7.2,-5.7,2822.4,578.4,-0.6,423.0,387.0,-430.2,0,1980,0,131,0, 
1.1033,240.3,-1134.6,959.7,118.2,233.1,311.1,174.9,606.3,-1259.7,782.1,1878.0,3471.0,-689.7,490.2,1054.2,203.4,-6.6,-5.4,2834.4,575.1,-0.9,420.9,393.0,-414.3,0,1986,0,132,0, 
1.1067,249.9,-1114.5,971.1,118.5,230.4,307.8,178.5,612.6,741.0,787.8,3828.6,5566.2,-678.6,728.7,3325.8,199.5,-7.2,-5.7,2850.3,570.9,-0.9,399.6,394.8,-443.7,0,1992,0,133,0, 
1.1100,245.7,-1118.7,975.6,129.9,238.5,305.7,171.6,610.2,-4964.7,790.2,2093.1,4074.9,-883.8,627.0,-2174.1,177.3,-6.9,-5.7,2846.7,585.3,-0.3,417.0,368.4,-438.0,0,1998,0,134,0, 
1.1133,242.4,-1134.9,965.4,121.8,231.6,302.7,170.4,595.8,-10448.1,786.3,-891.6,921.6,-1040.1,346.2,-7823.7,203.7,-6.9,-5.7,2817.3,579.9,-0.9,395.4,382.5,-423.0,0,2004,0,135,0, 
1.1167,243.3,-1132.2,973.8,130.2,243.6,306.6,169.8,604.2,-8299.2,810.6,-1062.6,493.5,-929.1,266.1,-5833.8,198.0,-6.9,-5.7,2828.4,590.4,-0.6,409.2,358.8,-434.4,0,2010,0,136,0, 
1.1200,243.0,-1118.7,979.5,130.2,242.4,307.5,165.6,614.4,-1407.9,808.2,1909.5,3456.9,-731.7,508.5,1036.5,172.5,-6.6,-5.7,2845.8,584.7,-0.9,403.8,361.2,-427.5,0,2016,0,137,0, 
1.1233,249.6,-1096.2,981.6,134.7,245.1,306.6,172.2,622.8,592.8,813.0,3867.0,5514.6,-668.1,716.7,3271.5,164.4,-7.2,-5.7,2864.7,586.2,-0.9,412.5,368.1,-404.4,0,2022,0,138,0, 
1.1267,251.7,-1108.2,967.2,121.5,241.8,317.4,181.5,610.5,-4890.6,783.6,2141.7,3996.6,-968.4,616.5,-2208.9,195.0,-6.9,-6.0,2836.2,586.5,-0.6,401.7,388.8,-358.5,0,2028,0,139,0, 
1.1300,251.4,-1098.6,977.7,128.4,238.5,313.5,180.6,604.8,-10374.0,807.3,-814.2,740.4,-1101.3,322.5,-7817.4,189.3,-6.9,-6.0,2832.3,593.4,-0.6,427.8,372.6,-405.0,0,2034,0,140,0, 
1.1333,255.6,-1088.1,981.0,123.0,233.4,312.6,176.7,609.9,-8002.8,791.7,-911.7,339.9,-905.1,278.7,-5779.2,174.6,-6.9,-5.7,2835.3,583.2,-0.6,400.8,364.2,-434.7,0,2040,0,141,0, 
1.1367,268.5,-1084.2,977.7,125.4,231.0,289.8,159.6,618.9,-1333.8,788.7,2067.6,3168.3,-675.0,504.9,1053.9,161.4,-6.9,-5.7,2849.4,583.8,-0.9,405.9,356.7,-464.7,0,2046,0,142,0, 
1.1400,246.9,-1098.6,983.4,135.9,244.5,301.2,165.9,630.9,592.8,803.1,4053.0,5384.4,-679.2,672.9,3259.5,173.1,-6.9,-5.7,2868.0,602.1,-0.6,430.8,358.5,-445.2,0,2052,0,143,0, 
1.1433,246.6,-1116.0,974.4,138.3,248.1,302.7,175.2,624.9,-4890.6,810.0,2323.5,3883.5,-916.8,614.7,-2201.4,189.9,-6.6,-6.0,2853.3,610.8,-0.6,433.5,366.3,-422.7,0,2058,0,144,0, 
1.1467,245.4,-1113.0,960.6,124.5,234.3,300.6,171.6,609.0,-10448.1,804.6,-691.8,666.3,-1028.4,335.4,-7788.3,194.7,-6.9,-6.0,2829.0,591.3,-0.9,399.6,360.3,-412.2,0,2064,0,145,0, 
1.1500,246.9,-1117.2,957.6,120.6,229.8,292.5,167.4,608.7,-8076.9,800.7,-869.1,283.5,-938.1,258.3,-5745.3,186.6,-6.6,-6.0,2823.9,587.1,-0.9,390.0,362.7,-438.0,0,2070,0,146,0, 
1.1533,242.7,-1101.3,972.6,130.8,242.4,307.8,174.3,628.2,-1407.9,796.8,2217.6,3329.4,-756.9,469.2,1069.8,185.7,-6.9,-6.0,2850.9,601.5,-0.6,411.9,392.1,-419.7,0,2076,0,147,0, 
1.1567,241.2,-1122.6,951.0,117.9,230.1,298.2,171.9,618.6,592.8,776.7,4108.2,5407.2,-674.1,702.6,3308.1,216.9,-6.9,-6.0,2843.7,593.4,-0.6,405.6,388.8,-435.9,0,2082,0,148,0, 
1.1600,240.0,-1127.7,945.0,109.8,220.5,291.3,166.5,609.6,-4964.7,767.1,2766.6,4198.5,-887.7,599.4,-2186.7,201.3,-7.5,-6.3,2830.5,579.6,-0.6,383.7,368.7,-444.3,0,2088,0,149,0, 
1.1633,243.0,-1114.2,960.3,117.9,224.1,298.5,171.9,609.6,-10374.0,786.6,239.1,1527.3,-1034.7,333.0,-7766.7,180.6,-6.9,-5.7,2826.9,586.8,-0.3,405.0,363.9,-451.5,0,2094,0,150,0, 
1.1667,242.7,-1098.3,976.5,135.9,243.3,320.4,181.2,624.9,-8151.0,807.3,-208.5,813.3,-920.7,253.8,-5704.5,175.2,-6.9,-6.0,2856.6,611.4,-0.6,420.3,357.9,-420.3,0,2100,0,151,0, 
1.1700,240.0,-1106.1,959.1,124.5,225.9,311.1,175.5,624.3,-1333.8,792.0,2779.2,3715.2,-752.4,495.9,1138.8,186.6,-7.5,-5.4,2858.7,596.1,-0.6,402.6,368.1,-422.1,0,2106,0,152,0, 
1.1733,243.0,-1093.8,968.1,131.1,229.8,315.9,180.9,634.8,666.9,806.4,4602.0,5769.3,-701.1,710.7,3325.8,191.1,-7.2,-6.3,2874.0,604.2,-0.3,417.9,386.1,-410.1,0,2112,0,153,0, 
1.1767,245.1,-1098.6,972.6,131.7,229.5,312.0,179.1,632.7,-4890.6,819.3,2795.4,4220.7,-953.7,610.8,-2184.3,187.5,-6.9,-6.0,2867.4,607.5,-0.6,435.0,378.0,-434.1,0,2118,0,154,0, 
1.1800,256.2,-1095.6,983.4,142.5,244.2,322.8,184.5,628.5,-10448.1,836.7,-162.3,1061.4,-1069.8,333.9,-7757.7,156.0,-7.2,-5.7,2869.2,619.8,-0.6,451.5,367.2,-422.4,0,2124,0,155,0, 
1.1833,258.0,-1085.7,976.5,135.9,236.4,312.6,178.8,622.5,-8076.9,822.6,-497.4,604.8,-1030.5,240.0,-5699.1,168.0,-7.2,-6.0,2862.9,604.8,-0.9,446.7,374.4,-429.0,0,2130,0,156,0, 
1.1867,250.8,-1087.5,977.4,134.7,238.2,309.9,175.5,633.3,-1259.7,816.9,2617.8,3544.5,-655.2,493.5,1154.1,184.2,-6.9,-5.7,2880.9,614.7,-0.6,430.2,367.2,-426.0,0,2136,0,157,0, 
1.1900,238.5,-1108.5,975.6,134.7,234.9,312.3,176.1,636.0,741.0,818.4,4516.5,5738.7,-623.7,714.3,3332.4,197.1,-7.2,-5.7,2884.5,613.8,-0.3,431.1,367.2,-423.9,0,2142,0,158,0, 
1.1933,238.2,-1113.0,961.8,126.6,220.2,306.3,175.8,623.4,-5112.9,811.5,2839.2,4050.3,-846.3,613.8,-2186.1,190.5,-6.6,-5.7,2864.7,606.3,-0.3,430.8,377.7,-438.6,0,2148,0,159,0, 
1.1967,239.1,-1116.9,956.1,125.1,224.1,317.7,178.2,616.2,-10522.2,809.4,-132.9,1014.6,-1017.0,309.9,-7804.8,186.0,-6.9,-6.3,2841.0,607.8,-1.2,436.5,369.0,-412.8,0,2154,0,160,0, 
1.2000,242.4,-1115.1,950.7,122.1,222.3,318.9,183.0,615.9,-8151.0,806.4,-326.4,550.8,-916.2,226.2,-5781.6,192.0,-6.3,-5.7,2842.5,599.7,-0.9,418.5,387.3,-398.1,0,2160,0,161,0, 
1.2033,245.1,-1117.8,952.8,123.0,219.0,304.8,168.9,622.8,-1482.0,806.1,2646.3,3565.2,-691.8,481.5,1022.1,197.1,-6.6,-6.0,2872.2,597.6,-0.9,411.0,356.1,-410.1,0,2166,0,162,0, 
1.2067,241.8,-1116.6,946.8,117.9,214.8,303.0,172.5,627.9,444.6,788.1,4653.0,5715.6,-759.0,715.2,3168.3,203.7,-6.9,-5.7,2869.2,591.9,-0.9,382.8,378.6,-419.4,0,2172,0,163,0, 
1.2100,243.6,-1099.2,951.0,120.0,216.9,307.5,172.2,622.2,-5187.0,789.0,2890.5,4006.5,-975.9,581.4,-2357.1,180.0,-6.3,-5.7,2866.2,596.7,-0.9,419.4,378.6,-441.0,0,2178,0,164,0, 
1.2133,243.9,-1107.9,938.1,113.4,210.9,299.1,176.4,618.0,-10596.3,781.5,123.9,776.1,-1050.9,280.5,-7941.6,189.3,-6.9,-6.0,2841.3,583.2,-0.6,403.2,411.9,-441.6,0,2184,0,165,0, 
1.2167,247.5,-1113.9,944.7,115.8,215.7,302.1,170.7,615.6,-8151.0,788.4,-313.5,217.5,-895.5,213.0,-5858.1,177.0,-6.6,-5.7,2841.3,585.9,-1.2,397.8,358.8,-420.0,0,2190,0,166,0, 
1.2200,258.0,-1097.4,950.7,120.6,213.0,289.8,168.3,633.0,-1407.9,786.6,2253.0,2829.9,-677.1,450.3,931.5,181.5,-6.9,-5.7,2871.9,586.5,-1.2,387.9,347.1,-446.7,0,2196,0,167,0, 
1.2233,243.9,-1111.2,946.2,118.8,211.8,300.6,174.6,633.6,296.4,780.9,4319.7,5160.3,-713.7,666.9,3037.5,195.9,-6.9,-5.7,2868.6,594.3,-0.6,399.0,359.1,-432.6,0,2202,0,168,0, 
1.2267,243.9,-1107.9,950.4,129.9,217.8,312.0,178.8,634.5,-5261.1,797.7,2475.9,3544.2,-958.2,564.0,-2474.7,174.0,-6.9,-6.0,2864.4,608.4,-0.9,420.3,371.4,-406.5,0,2208,0,169,0, 
1.2300,248.1,-1091.4,959.4,135.3,222.3,316.2,178.2,625.8,-10744.5,803.4,-334.8,460.5,-1092.9,248.1,-8034.0,175.8,-6.9,-6.3,2858.4,617.4,-0.3,430.8,377.4,-403.8,0,2214,0,170,0, 
1.2333,253.5,-1098.0,949.5,128.7,213.6,302.4,175.5,624.9,-8225.1,799.5,-388.5,-127.2,-951.0,186.6,-5949.0,197.1,-6.6,-5.4,2866.5,603.0,-0.9,400.5,381.0,-429.3,0,2220,0,171,0, 
1.2367,253.8,-1110.3,952.8,132.0,213.3,297.9,173.7,632.7,-1704.3,796.2,2592.0,2745.9,-685.5,451.8,789.6,171.6,-6.9,-6.0,2888.7,602.7,-0.6,393.0,370.5,-430.2,0,2226,0,172,0, 
1.2400,243.6,-1119.0,950.7,138.3,219.0,295.5,171.0,645.0,148.2,808.8,4465.2,5077.2,-635.7,683.1,2893.2,181.8,-6.6,-5.7,2898.0,613.2,-1.2,412.2,349.2,-430.5,0,2232,0,173,0, 
1.2433,240.0,-1120.5,952.5,144.9,228.3,301.8,178.5,640.5,-5483.4,820.5,2554.2,3577.8,-907.2,519.3,-2634.3,172.2,-7.2,-5.7,2885.4,624.3,-0.9,410.7,375.9,-429.3,0,2238,0,174,0, 
1.2467,240.6,-1118.7,942.3,138.3,226.8,297.0,177.9,632.4,-10744.5,808.8,-347.4,489.3,-1089.6,270.0,-8146.2,185.1,-6.6,-5.7,2863.2,614.1,-0.9,411.6,382.8,-446.7,0,2244,0,175,0, 
1.2500,239.7,-1113.0,952.8,139.8,229.2,297.3,174.0,633.9,-8447.4,828.3,-260.1,273.3,-955.2,187.8,-6090.3,183.0,-6.9,-6.0,2876.1,613.5,-0.6,409.2,375.0,-465.0,0,2250,0,176,0, 
1.2533,240.3,-1114.5,943.5,137.7,222.6,303.6,175.2,642.3,-1704.3,807.3,2536.5,3717.0,-725.7,441.0,609.6,199.5,-6.9,-5.7,2888.7,617.7,-0.9,409.5,385.2,-455.4,0,2256,0,177,0, 
1.2567,237.9,-1110.0,939.0,132.3,215.4,308.1,179.1,644.7,-74.1,807.6,4498.8,5631.6,-729.9,642.3,2666.1,193.5,-6.9,-5.7,2891.7,618.3,-0.9,409.2,395.4,-426.6,0,2262,0,178,0, 
1.2600,241.2,-1101.0,927.9,123.0,208.2,306.0,180.3,636.9,-5631.6,790.5,2764.5,4088.7,-945.6,537.3,-2778.9,190.2,-6.9,-5.7,2872.8,610.8,-1.2,400.5,389.1,-428.4,0,2268,0,179,0, 
1.2633,250.8,-1094.7,931.2,133.2,214.2,305.1,174.9,628.8,-10818.6,807.0,-167.4,937.2,-1030.8,258.0,-8193.0,183.3,-6.9,-5.7,2869.2,619.2,-0.6,403.2,382.2,-439.8,0,2274,0,180,0, 
1.2667,249.0,-1106.1,935.1,137.1,222.9,305.1,177.6,638.1,-8373.3,806.7,-326.1,498.3,-890.1,192.6,-6116.1,177.3,-7.2,-5.4,2869.8,619.5,-0.9,415.8,366.3,-446.4,0,2280,0,181,0, 
1.2700,249.0,-1100.4,942.0,137.7,228.9,302.1,178.8,650.7,-2000.7,809.1,2596.8,3355.2,-682.2,432.6,519.0,180.0,-6.9,-6.0,2892.6,623.1,-0.9,417.3,370.8,-449.1,0,2286,0,182,0, 
1.2733,248.1,-1105.5,936.6,135.3,227.7,309.9,181.5,647.7,-148.2,798.6,4438.2,5343.9,-708.6,628.5,2547.6,188.7,-6.9,-5.7,2892.3,621.0,-1.2,412.2,394.8,-435.0,0,2292,0,183,0, 
1.2767,253.8,-1088.7,937.2,135.6,222.0,309.0,179.4,642.3,-5779.8,792.9,2619.6,3679.2,-927.6,509.7,-2894.7,183.9,-6.9,-5.7,2874.9,617.4,-0.6,399.9,356.1,-397.5,0,2298,0,184,0, 
1.2800,249.0,-1097.7,929.1,135.6,223.8,315.9,179.7,634.5,-10892.7,794.1,-353.1,491.4,-1017.0,204.3,-8270.4,167.4,-6.9,-5.7,2860.5,623.4,-0.9,396.9,360.6,-364.2,0,2304,0,185,0, 
1.2833,242.1,-1117.2,915.6,125.1,210.0,294.9,172.2,627.0,-8595.6,793.2,-519.0,-57.6,-909.3,138.9,-6168.0,192.3,-6.9,-6.0,2851.2,612.9,-0.6,389.1,360.6,-421.5,0,2310,0,186,0, 
1.2867,251.7,-1127.7,911.7,118.8,203.4,285.6,164.1,636.0,-1926.6,767.1,2306.4,2755.5,-736.5,435.0,441.6,192.3,-6.9,-6.0,2853.0,613.2,-1.2,380.4,346.2,-473.7,0,2316,0,187,0, 
1.2900,242.7,-1125.6,912.6,119.4,201.0,288.3,166.5,642.0,-222.3,781.5,4131.0,4893.6,-766.2,629.1,2483.7,192.9,-7.2,-6.6,2861.7,610.5,-0.9,395.4,361.8,-476.7,0,2322,0,188,0, 
1.2933,241.8,-1118.7,919.5,125.1,207.0,300.6,165.6,638.7,-5853.9,793.2,2455.8,3373.5,-940.5,514.2,-2936.7,173.7,-7.2,-5.7,2861.1,626.7,-0.9,403.5,350.4,-462.9,0,2328,0,189,0, 
1.2967,238.5,-1112.4,929.4,131.1,220.2,306.9,173.4,635.7,-11040.9,798.3,-471.6,237.6,-1033.8,210.3,-8385.0,176.7,-6.6,-6.0,2858.1,628.8,-1.2,423.9,366.6,-440.7,0,2334,0,190,0, 
1.3000,237.9,-1109.1,935.1,136.2,226.8,316.2,179.4,641.7,-8669.7,813.6,-741.9,-363.6,-875.1,132.3,-6381.6,168.9,-6.9,-6.0,2871.3,627.0,-0.6,427.5,387.9,-414.3,0,2340,0,191,0, 
1.3033,237.0,-1109.1,935.7,135.6,228.0,313.8,180.9,651.3,-2148.9,812.7,2123.1,2429.1,-674.1,358.2,297.9,176.1,-6.9,-6.0,2889.0,631.5,-0.6,417.0,381.6,-424.5,0,2346,0,192,0, 
1.3067,236.7,-1113.6,927.6,135.6,223.2,317.1,181.5,654.3,-370.5,809.4,3958.2,4537.5,-692.1,578.1,2421.6,174.0,-6.9,-5.7,2886.9,630.0,-0.6,420.0,379.2,-420.0,0,2352,0,193,0, 
1.3100,232.5,-1095.9,919.5,125.7,205.2,306.6,180.0,639.3,-5928.0,801.6,2141.4,3018.9,-928.8,458.1,-3028.5,176.7,-6.6,-5.7,2867.7,610.2,-0.9,398.7,394.2,-404.1,0,2358,0,194,0, 
1.3133,249.6,-1071.9,920.1,123.0,202.5,303.3,173.4,633.0,-11263.2,782.4,-840.0,-194.7,-1140.6,174.9,-8565.0,174.9,-6.9,-6.0,2850.9,601.5,-0.6,388.2,358.8,-425.1,0,2364,0,195,0, 
1.3167,237.6,-1092.6,918.3,121.5,200.1,294.0,172.8,633.6,-8966.1,766.8,-947.7,-577.5,-1022.4,93.3,-6560.4,171.3,-7.5,-5.7,2845.5,605.4,-0.3,393.9,370.8,-468.9,0,2370,0,196,0, 
1.3200,229.2,-1107.9,920.7,133.2,213.9,299.7,173.1,651.6,-2148.9,793.5,1911.6,2347.5,-760.2,320.1,197.7,178.8,-6.9,-6.0,2871.9,619.8,-0.9,407.1,354.0,-480.3,0,2376,0,197,0, 
1.3233,224.1,-1124.1,922.2,131.1,208.2,295.5,167.7,652.2,-370.5,808.2,3840.9,4336.8,-716.4,547.5,2346.0,170.1,-6.6,-6.0,2885.1,616.8,-1.2,416.4,344.1,-471.6,0,2382,0,198,0, 
1.3267,228.6,-1128.3,914.7,140.4,215.1,303.9,174.0,646.5,-6002.1,810.3,2053.2,2639.1,-918.3,453.9,-3184.8,173.4,-6.9,-5.7,2883.0,627.0,-0.9,435.0,361.5,-448.8,0,2388,0,199,0, 
1.3300,217.5,-1148.4,895.2,128.4,204.9,301.8,173.1,630.6,-11337.3,802.8,-1037.4,-616.8,-1024.2,162.0,-8752.8,180.9,-6.3,-6.0,2845.5,613.5,-0.9,416.1,363.6,-436.5,0,2394,0,200,0, 
1.3333,229.8,-1142.1,900.9,125.1,206.4,306.9,171.3,631.8,-9114.3,802.5,-1280.7,-1085.4,-910.8,97.8,-6717.3,190.2,-6.6,-5.7,2848.5,609.9,-0.9,420.0,347.7,-435.6,0,2400,0,201,0, 
1.3367,233.7,-1128.3,904.8,132.6,213.6,318.9,176.1,647.4,-2297.1,807.6,1710.9,1853.7,-708.6,334.2,104.4,160.2,-6.9,-6.0,2875.2,620.7,-0.9,405.3,364.2,-401.1,0,2406,0,202,0, 
1.3400,244.2,-1119.0,898.2,125.1,205.8,306.9,178.8,647.4,-444.6,789.0,3703.2,4281.0,-667.5,568.2,2242.5,201.0,-6.9,-5.7,2868.0,614.1,-0.9,398.1,386.4,-426.3,0,2412,0,203,0, 
1.3433,239.1,-1107.6,896.4,120.9,201.3,299.4,167.4,639.3,-6150.3,793.5,1911.0,2627.4,-943.5,410.4,-3347.1,170.1,-7.2,-5.4,2847.9,621.0,-1.2,409.5,369.9,-435.3,0,2418,0,204,0, 
1.3467,232.8,-1101.9,901.5,121.8,200.7,315.9,182.4,629.7,-11633.7,780.9,-1105.2,-514.8,-1144.8,106.5,-8961.0,176.7,-6.9,-5.7,2834.4,618.6,-1.2,399.0,396.0,-392.7,0,2424,0,205,0, 
1.3500,227.7,-1111.5,905.4,127.5,208.2,311.1,173.1,638.7,-9188.4,793.2,-1258.2,-969.6,-1073.7,47.1,-6864.3,170.1,-6.6,-5.7,2837.1,623.4,-0.3,420.9,349.5,-398.7,0,2430,0,206,0, 
1.3533,226.8,-1115.4,904.5,126.9,208.8,312.9,171.0,645.6,-2519.4,801.6,1653.6,1943.7,-765.6,306.9,-43.8,174.3,-6.9,-5.7,2862.9,622.2,-0.9,408.9,348.6,-415.5,0,2436,0,207,0, 
1.3567,233.1,-1133.7,907.8,123.0,201.6,292.2,163.8,645.9,-741.0,806.1,3557.7,4172.7,-657.9,543.9,2082.9,176.7,-6.9,-5.7,2873.4,622.2,-0.6,402.0,344.4,-461.1,0,2442,0,208,0, 
1.3600,235.5,-1126.2,909.6,121.8,194.1,288.9,163.8,639.9,-6446.7,803.7,1727.1,2503.8,-819.9,432.0,-3482.4,174.6,-7.5,-6.3,2861.7,612.0,-0.9,418.2,343.8,-487.2,0,2448,0,209,0, 
1.3633,239.1,-1124.4,907.5,118.5,190.8,292.8,175.5,631.5,-11633.7,804.9,-1400.1,-795.6,-1011.9,127.2,-9078.3,188.1,-7.2,-6.0,2830.8,610.8,-0.6,419.4,380.1,-463.5,0,2454,0,210,0, 
1.3667,239.7,-1107.3,916.2,123.3,195.3,295.2,170.7,633.9,-9336.6,796.5,-1458.6,-1143.9,-933.9,43.2,-6992.1,183.0,-6.9,-5.7,2837.1,623.7,-0.9,414.9,366.0,-457.8,0,2460,0,211,0, 
1.3700,234.9,-1109.4,915.3,120.3,192.3,289.5,165.0,634.8,-2519.4,789.9,1454.7,1723.2,-777.0,295.2,-165.0,187.2,-6.0,-5.7,2849.4,616.8,-0.6,405.9,360.3,-474.9,0,2466,0,212,0, 
1.3733,234.9,-1112.4,913.5,120.3,193.5,295.5,166.2,643.5,-741.0,785.1,3376.5,4002.0,-735.9,522.9,1946.4,180.3,-6.6,-5.7,2857.8,619.2,-0.9,412.2,369.9,-459.0,0,2472,0,213,0, 
1.3767,231.9,-1123.2,905.7,123.9,191.4,296.7,175.2,636.3,-6446.7,788.4,1460.1,2200.8,-951.3,402.3,-3637.2,181.5,-7.2,-6.0,2835.6,618.0,-0.9,402.0,374.1,-454.8,0,2478,0,214,0, 
1.3800,240.3,-1127.4,902.7,125.7,194.4,295.8,172.2,630.0,-11781.9,800.4,-1511.4,-1058.7,-1065.0,125.7,-9217.2,177.6,-6.6,-5.7,2825.1,615.3,-0.9,408.9,338.4,-465.9,0,2484,0,215,0, 
1.3833,237.0,-1134.6,897.9,119.4,193.5,300.3,176.1,626.1,-9558.9,788.1,-1689.0,-1408.5,-925.5,53.7,-7099.8,181.2,-7.2,-5.7,2820.6,614.7,-0.6,399.9,350.1,-458.4,0,2490,0,216,0, 
1.3867,237.6,-1134.9,890.7,108.0,189.3,292.5,171.0,635.4,-2667.6,783.3,1025.1,1492.8,-722.4,318.3,-278.7,189.9,-7.2,-5.7,2827.5,612.0,-0.9,396.6,354.6,-445.2,0,2496,0,217,0, 
1.3900,231.3,-1133.1,891.0,107.7,185.4,289.8,169.5,636.9,-889.2,787.5,3734.7,4344.6,-770.7,530.4,1773.3,184.2,-7.2,-5.7,2832.3,608.1,-0.9,382.8,351.0,-422.1,0,2502,0,218,0, 
1.3933,238.5,-1116.3,902.1,119.4,192.9,299.1,179.4,637.2,-6520.8,806.1,1817.7,2612.7,-937.8,423.6,-3774.9,164.1,-6.9,-6.0,2832.6,620.4,-0.6,408.9,369.9,-424.2,0,2508,0,219,0, 
1.3967,238.2,-1128.0,894.6,121.2,187.8,299.4,179.1,625.5,-11856.0,799.8,-1547.7,-891.3,-1042.8,117.9,-9318.9,197.7,-6.9,-5.7,2812.2,616.8,-0.9,401.7,374.7,-445.2,0,2514,0,220,0, 
1.4000,245.7,-1124.1,895.8,112.2,183.3,284.4,173.4,626.4,-9484.8,791.1,-1842.6,-1360.2,-923.4,72.0,-7158.9,192.3,-7.2,-5.7,2812.2,610.8,-0.9,405.6,356.7,-474.0,0,2520,0,221,0, 
1.4033,245.1,-1124.7,897.6,114.3,184.8,295.5,175.2,639.3,-2741.7,792.6,1065.6,1611.3,-687.9,312.9,-309.3,192.9,-7.5,-5.4,2826.9,616.2,-0.9,393.3,348.6,-456.0,0,2526,0,222,0, 
1.4067,238.2,-1129.2,891.6,108.9,173.1,284.7,173.1,630.9,-963.3,790.2,2848.2,3592.8,-720.3,511.2,1772.1,203.7,-6.9,-5.7,2828.7,603.9,-0.3,384.6,369.3,-450.9,0,2532,0,223,0, 
1.4100,254.1,-1104.6,897.0,117.9,184.5,289.8,177.0,627.9,-6743.1,801.3,995.4,1942.8,-922.5,394.5,-3831.9,165.6,-7.5,-5.7,2823.6,615.0,-0.3,407.4,367.8,-434.1,0,2538,0,224,0, 
1.4133,270.3,-1082.4,901.2,122.4,188.1,292.8,176.1,623.1,-12004.2,790.5,-2338.5,-1411.5,-1089.3,85.2,-9420.6,143.1,-6.9,-5.7,2813.7,621.9,-0.9,405.0,370.5,-438.6,0,2544,0,225,0, 
1.4167,252.0,-1084.8,910.2,126.0,189.9,298.5,175.2,627.9,-9558.9,803.1,-2659.8,-1935.9,-1013.7,-28.8,-7275.9,159.6,-6.9,-5.7,2824.8,623.4,-0.9,410.7,346.5,-439.8,0,2550,0,226,0, 
1.4200,240.3,-1092.9,917.4,141.0,204.6,316.5,184.2,641.7,-2815.8,819.9,-275.7,564.0,-771.9,230.7,-426.9,167.7,-6.9,-6.3,2846.4,652.8,-0.6,439.8,363.3,-410.4,0,2556,0,227,0, 
1.4233,243.0,-1112.4,922.2,141.6,207.0,318.0,185.4,643.8,-1037.4,825.6,1843.5,2921.4,-703.2,485.7,1657.8,175.2,-6.6,-6.0,2858.1,654.9,-0.6,433.2,356.1,-392.1,0,2562,0,228,0, 
1.4267,242.4,-1113.9,919.2,142.8,204.0,304.5,181.5,633.3,-6669.0,821.1,52.8,1431.9,-921.9,365.1,-3907.8,187.5,-7.2,-5.7,2849.7,649.8,-0.9,443.4,366.0,-430.8,0,2568,0,229,0, 
1.4300,248.4,-1122.3,916.5,141.3,199.8,300.9,186.9,623.7,-11930.1,829.5,-3091.5,-1815.3,-1049.1,87.6,-9415.8,181.8,-6.9,-6.3,2823.9,642.6,-0.3,441.6,381.6,-432.3,0,2574,0,230,0, 
1.4333,245.7,-1130.4,909.3,133.5,199.8,304.5,188.4,621.9,-9707.1,820.8,-3247.5,-2272.2,-906.9,36.0,-7304.4,188.7,-6.9,-6.0,2816.4,633.6,-0.6,434.7,372.9,-429.6,0,2580,0,231,0, 
1.4367,254.1,-1112.1,924.9,137.1,198.0,304.8,192.3,640.2,-2889.9,818.7,-189.9,651.3,-680.4,256.5,-507.3,184.5,-6.6,-5.7,2842.2,628.2,-0.9,416.4,391.2,-412.8,0,2586,0,232,0, 
1.4400,246.6,-1118.4,919.2,132.6,190.8,290.4,179.1,635.1,-1037.4,812.7,1760.7,2909.7,-700.5,474.0,1600.5,176.1,-6.9,-5.4,2841.0,627.9,-0.6,424.5,378.9,-435.9,0,2592,0,233,0, 
1.4433,248.1,-1115.7,920.7,132.0,185.4,292.8,180.0,628.8,-6743.1,810.3,-3.6,1383.3,-934.8,395.7,-3895.5,176.7,-7.2,-6.0,2824.5,623.4,-0.6,429.9,364.8,-440.4,0,2598,0,234,0, 
1.4467,250.5,-1124.1,919.2,127.5,181.8,294.0,176.1,618.9,-11930.1,819.3,-3087.0,-1914.9,-1046.4,106.8,-9374.1,186.3,-6.9,-5.7,2807.7,613.8,-0.6,423.3,357.9,-427.2,0,2604,0,235,0, 
1.4500,260.1,-1115.7,926.4,129.9,186.9,295.5,171.3,622.2,-9633.0,815.4,-3239.7,-2277.0,-862.2,44.4,-7277.1,168.0,-7.2,-5.7,2817.9,616.2,-1.2,406.2,335.1,-424.5,0,2610,0,236,0, 
1.4533,266.4,-1097.4,948.0,140.4,193.8,285.9,173.7,635.4,-2815.8,833.4,-334.5,595.5,-648.3,274.8,-491.4,177.0,-6.9,-6.0,2845.8,624.3,-0.3,422.7,357.3,-436.2,0,2616,0,237,0, 
1.4567,264.0,-1098.9,945.6,139.5,199.2,294.0,179.1,642.6,-1037.4,815.4,1606.5,2754.0,-690.9,494.1,1649.4,177.0,-6.9,-6.0,2844.0,623.7,-0.9,416.7,371.7,-401.1,0,2622,0,238,0, 
1.4600,270.0,-1098.3,942.0,135.3,195.0,293.4,182.4,630.3,-6520.8,814.5,-134.1,1142.4,-887.1,385.8,-3809.4,188.1,-6.9,-5.7,2824.8,622.8,-1.2,420.9,372.0,-380.4,0,2628,0,239,0, 
1.4633,258.6,-1107.3,930.3,127.2,189.3,295.5,185.1,613.8,-11930.1,802.5,-3219.0,-2089.5,-1091.4,58.2,-9324.3,198.6,-7.2,-6.3,2795.4,615.9,-0.9,415.5,397.2,-381.6,0,2634,0,240,0, 
1.4667,259.5,-1088.1,942.9,132.6,190.5,289.2,179.7,614.7,-9558.9,798.6,-3477.0,-2583.6,-1046.1,-9.0,-7327.2,187.2,-7.2,-6.0,2803.2,613.8,-0.9,413.1,377.4,-420.0,0,2640,0,241,0, 
1.4700,243.6,-1098.9,949.5,133.8,195.3,288.9,176.1,627.9,-2964.0,810.9,-638.4,218.7,-831.9,245.4,-602.4,178.8,-6.9,-6.0,2823.9,622.8,-0.6,422.4,363.6,-440.4,0,2646,0,242,0, 
1.4733,250.5,-1107.3,948.6,142.8,203.7,284.1,174.6,635.7,-1037.4,810.0,1222.8,2487.9,-710.7,487.5,1592.1,184.5,-6.9,-6.0,2833.2,626.1,-0.9,413.1,356.1,-435.6,0,2652,0,243,0, 
1.4767,255.0,-1113.9,957.6,152.7,213.3,294.3,181.8,637.5,-6520.8,826.8,-393.0,992.4,-869.1,393.6,-3740.1,184.8,-7.2,-5.7,2829.3,641.7,-0.9,432.0,360.3,-417.3,0,2658,0,244,0, 
1.4800,253.2,-1122.6,956.1,144.3,206.4,288.6,179.1,621.6,-11781.9,830.7,-3377.1,-2165.1,-1009.2,112.2,-9214.5,178.5,-6.6,-5.7,2808.0,628.2,-0.6,437.1,358.2,-424.8,0,2664,0,245,0, 
1.4833,254.7,-1132.2,950.4,132.3,200.1,291.9,174.0,618.0,-9781.2,819.6,-3579.3,-2603.7,-884.4,45.6,-7280.4,179.4,-7.2,-6.0,2794.5,609.3,-0.6,417.6,354.9,-394.8,0,2670,0,246,0, 
1.4867,263.4,-1122.6,957.3,135.3,201.3,280.8,178.8,628.5,-2889.9,813.0,-796.2,226.2,-702.0,272.4,-613.5,202.5,-6.9,-5.7,2818.8,611.1,-1.5,416.7,380.4,-402.9,0,2676,0,247,0, 
1.4900,260.7,-1110.9,970.8,142.5,215.7,302.4,191.7,642.6,-963.3,834.9,1154.1,2440.2,-674.4,478.5,1603.2,182.4,-6.9,-5.7,2839.5,626.1,-1.2,430.8,405.0,-367.2,0,2682,0,248,0, 
1.4933,261.6,-1107.6,976.2,145.2,210.9,293.7,186.3,632.7,-6446.7,850.5,-454.2,1064.1,-903.0,397.5,-3641.4,183.6,-6.6,-5.7,2827.5,621.9,-0.9,438.9,385.2,-374.7,0,2688,0,249,0, 
1.4967,264.3,-1107.6,972.3,132.6,205.2,289.5,184.8,619.5,-11707.8,828.3,-3434.1,-1940.7,-1033.5,145.5,-9145.8,192.9,-6.6,-6.3,2804.7,614.4,-0.3,435.3,381.3,-397.5,0,2694,0,250,0, 
1.5000,262.5,-1100.7,984.6,135.3,201.0,290.1,187.5,622.8,-9707.1,818.1,-3732.3,-2541.0,-873.9,66.6,-7256.7,201.6,-6.9,-6.3,2809.2,619.5,-0.6,430.8,402.9,-399.0,0,2700,0,251,0, 
1.5033,255.6,-1114.2,984.3,135.3,204.0,292.8,186.9,629.4,-2964.0,832.8,-942.0,224.4,-667.2,289.5,-685.8,213.0,-6.9,-6.0,2825.1,626.1,-0.3,444.0,384.9,-399.3,0,2706,0,252,0, 
1.5067,273.6,-1099.8,991.8,146.7,210.6,301.5,187.8,638.7,-1111.5,851.1,858.6,2319.9,-662.7,519.3,1586.1,197.1,-6.6,-6.0,2843.1,636.9,-0.9,445.8,369.6,-371.1,0,2712,0,253,0, 
1.5100,271.8,-1097.7,985.2,140.1,205.8,302.4,191.1,632.1,-6372.6,838.2,-607.5,833.1,-867.6,394.5,-3583.2,188.1,-7.2,-6.0,2827.5,630.3,-0.6,437.1,390.3,-360.3,0,2718,0,254,0, 
1.5133,271.2,-1089.6,991.8,146.4,207.9,303.0,196.5,629.1,-11485.5,836.7,-3468.0,-2171.4,-961.2,107.7,-9002.1,212.7,-6.3,-5.7,2815.2,627.0,-0.6,448.2,393.9,-361.2,0,2724,0,255,0, 
1.5167,273.6,-1093.2,987.9,143.1,209.7,302.7,189.0,627.9,-9558.9,824.4,-3734.4,-2730.6,-944.4,29.7,-7302.6,186.0,-6.9,-6.0,2811.9,623.4,-0.6,420.0,373.8,-324.9,0,2730,0,0,0, 
1.5200,271.2,-1083.6,993.6,147.9,213.6,299.4,184.8,636.6,-3112.2,824.7,-1078.2,-54.0,-759.9,260.4,-800.7,193.5,-6.9,-5.7,2825.4,621.9,-0.3,421.2,367.8,-362.4,0,2736,0,1,0, 
1.5233,257.7,-1094.1,998.4,150.9,208.2,285.6,181.8,642.0,-1111.5,837.3,875.1,2128.8,-684.9,459.0,1540.8,211.8,-6.9,-5.7,2836.2,627.3,-0.9,442.5,372.0,-436.5,0,2742,0,2,0, 
1.5267,260.4,-1084.8,1010.1,158.4,214.8,294.9,186.0,639.0,-6224.4,853.8,-629.7,855.9,-932.4,383.4,-3505.8,192.6,-6.9,-6.0,2834.1,634.8,-0.6,452.7,370.8,-420.3,0,2748,0,3,0, 
1.5300,258.6,-1087.2,999.0,151.5,209.7,288.6,182.7,624.6,-11485.5,828.3,-3446.4,-2210.7,-1123.8,112.5,-8955.6,184.5,-7.2,-5.7,2812.5,626.1,-0.6,449.7,373.8,-423.0,0,2754,0,4,0, 
1.5333,260.1,-1092.3,999.6,155.7,212.7,298.8,187.2,626.7,-9484.8,822.0,-3819.3,-2820.9,-941.7,33.3,-7274.7,194.1,-6.9,-6.0,2812.5,632.1,-0.6,449.7,363.0,-411.3,0,2760,0,5,0, 
1.5367,256.2,-1107.9,993.9,147.0,213.0,295.5,186.9,631.5,-3260.4,831.9,-1209.9,-128.4,-703.2,260.4,-809.4,203.4,-6.9,-5.7,2826.3,636.0,-0.9,444.6,376.5,-393.3,0,2766,0,6,0, 
1.5400,261.9,-1109.1,999.0,153.3,216.3,305.1,190.8,639.0,-1111.5,848.4,864.6,2108.1,-624.0,501.6,1572.9,195.9,-6.6,-6.0,2838.9,641.7,-0.3,456.6,377.4,-360.0,0,2772,0,7,0, 
1.5433,260.4,-1118.7,995.1,147.0,216.6,307.5,189.3,632.4,-6298.5,840.6,-551.1,948.9,-858.9,405.6,-3427.2,188.7,-6.6,-5.7,2826.6,639.0,-0.6,446.7,373.8,-351.0,0,2778,0,8,0, 
1.5467,258.6,-1105.5,999.3,149.1,217.2,303.6,191.4,627.6,-11485.5,843.3,-3363.9,-2231.1,-1037.7,116.1,-8872.2,192.9,-7.2,-5.7,2811.9,635.7,-0.6,449.1,398.4,-369.6,0,2784,0,9,0, 
1.5500,260.7,-1100.1,1002.0,151.8,221.7,305.4,192.6,631.5,-9410.7,835.2,-3711.0,-2769.0,-900.6,41.7,-7194.9,198.3,-7.2,-6.0,2811.9,638.7,-0.3,445.5,396.3,-369.6,0,2790,0,10,0, 
1.5533,258.3,-1106.7,998.4,152.4,215.4,299.4,185.4,637.8,-3112.2,835.8,-1077.9,-231.0,-726.3,277.8,-729.0,190.8,-6.9,-6.0,2831.1,636.6,-0.6,444.9,387.6,-392.4,0,2796,0,11,0, 
1.5567,257.4,-1107.3,996.3,149.4,216.3,312.0,192.6,639.6,-1037.4,822.9,909.3,2008.8,-704.4,501.3,1661.7,184.5,-6.6,-5.7,2832.3,630.9,-0.9,439.5,405.6,-359.7,0,2802,0,12,0, 
1.5600,270.6,-1095.3,992.7,144.3,213.9,310.8,192.3,634.5,-6224.4,818.1,-548.1,663.3,-870.9,401.7,-3376.2,194.7,-6.6,-5.7,2817.3,627.3,-0.9,436.2,380.1,-353.7,0,2808,0,13,0, 
1.5633,267.6,-1086.9,999.0,147.3,211.2,298.5,184.5,629.7,-11411.4,831.0,-3416.1,-2367.9,-992.7,107.1,-8834.4,194.4,-6.9,-5.7,2811.0,625.8,-0.6,434.1,362.4,-384.6,0,2814,0,14,0, 
1.5667,279.9,-1092.0,991.8,143.4,208.5,289.5,177.9,627.3,-9484.8,831.3,-3786.3,-2886.3,-860.4,55.2,-7177.5,186.0,-6.9,-6.3,2808.6,614.1,-0.6,438.3,353.1,-390.3,0,2820,0,15,0, 
1.5700,277.8,-1094.7,992.1,141.0,211.2,298.2,185.1,634.2,-3038.1,805.5,-1076.1,-162.0,-722.7,273.9,-671.4,189.3,-6.9,-6.0,2815.8,618.3,-0.6,422.7,374.7,-368.1,0,2826,0,16,0, 
1.5733,262.5,-1101.6,992.4,143.7,212.7,309.6,191.4,638.1,-963.3,814.2,805.8,2152.2,-718.5,477.6,1684.5,194.7,-6.6,-6.0,2826.0,627.0,-0.6,438.0,386.1,-363.0,0,2832,0,17,0, 
1.5767,250.5,-1107.9,977.1,135.3,208.2,294.9,185.7,620.7,-6298.5,820.5,-557.7,1057.5,-902.7,398.1,-3408.3,206.7,-7.2,-6.0,2808.0,615.3,-0.6,438.0,391.8,-413.1,0,2838,0,18,0, 
1.5800,251.7,-1114.2,975.6,142.8,210.0,296.1,178.8,613.8,-11485.5,822.9,-3604.5,-2021.7,-1027.5,122.4,-8940.0,214.5,-6.6,-5.7,2801.1,621.9,-0.6,434.1,371.4,-402.0,0,2844,0,19,0, 
1.5833,261.3,-1104.0,987.6,147.0,219.3,308.4,183.0,619.5,-9558.9,835.8,-3921.0,-2697.0,-900.0,53.7,-7170.0,183.6,-6.9,-5.4,2816.4,624.0,-0.6,435.6,367.2,-373.5,0,2850,0,20,0, 
1.5867,255.0,-1098.3,985.8,149.4,221.4,314.4,186.9,630.3,-2889.9,827.7,-1259.4,51.0,-722.7,258.6,-581.4,203.4,-7.2,-6.0,2826.9,628.8,-0.9,447.9,379.8,-377.7,0,2856,0,21,0, 
1.5900,261.0,-1083.3,995.4,155.7,220.8,312.6,184.2,639.3,-815.1,837.6,771.0,2288.1,-759.6,501.9,1765.5,196.5,-6.6,-5.7,2845.2,638.1,-0.9,447.9,375.3,-380.4,0,2862,0,22,0, 
1.5933,259.8,-1075.5,995.4,151.2,217.2,305.4,188.7,629.4,-6224.4,831.0,-721.5,867.6,-987.3,382.2,-3431.7,197.4,-7.2,-6.0,2831.4,633.0,-0.6,449.1,390.6,-377.4,0,2868,0,23,0, 
1.5967,260.1,-1087.5,988.8,147.3,214.2,301.8,189.3,618.3,-11263.2,825.3,-3723.0,-2309.7,-1063.2,121.2,-8916.3,198.9,-6.9,-5.7,2800.8,628.2,-0.9,440.1,372.0,-395.1,0,2874,0,24,0, 
1.6000,251.7,-1116.9,981.6,141.9,213.0,301.2,185.1,613.8,-9336.6,827.4,-3918.6,-2772.0,-876.3,57.0,-7160.4,199.5,-6.9,-6.0,2800.5,630.6,-0.6,444.0,381.6,-403.2,0,2880,0,25,0, 
1.6033,252.3,-1133.1,978.3,131.7,204.9,291.9,181.5,619.2,-2889.9,821.1,-1189.5,-37.2,-660.9,316.2,-458.7,202.8,-6.9,-5.7,2814.0,615.3,-0.6,432.9,396.3,-420.3,0,2886,0,26,0, 
1.6067,257.7,-1122.9,984.6,137.7,210.3,305.4,193.2,626.7,-815.1,822.9,807.9,2211.6,-667.2,546.0,1841.4,204.0,-6.9,-5.7,2823.0,629.4,-0.6,439.8,384.3,-397.5,0,2892,0,27,0, 
1.6100,264.6,-1100.7,996.0,139.2,204.3,305.4,189.3,618.6,-6150.3,833.1,-785.4,657.6,-841.8,418.8,-3435.0,200.7,-6.9,-5.7,2823.9,631.2,-0.9,435.6,381.0,-396.3,0,2898,0,28,0, 
1.6133,271.2,-1096.2,1001.1,145.5,209.7,306.9,192.3,614.4,-11485.5,841.5,-3726.0,-2469.9,-990.6,131.1,-9004.5,201.6,-6.6,-5.7,2811.0,631.5,-1.2,444.3,381.6,-379.5,0,2904,0,29,0, 
1.6167,272.4,-1094.4,1004.4,148.5,209.7,299.1,188.4,618.6,-9484.8,836.1,-3893.4,-2901.3,-938.4,71.4,-7138.5,198.9,-6.6,-5.4,2817.0,634.5,-0.9,439.8,367.8,-401.1,0,2910,0,30,0, 
1.6200,255.0,-1107.9,1005.9,146.7,208.8,294.6,187.5,620.4,-2815.8,836.7,-1249.5,-214.8,-682.5,306.0,-459.9,205.2,-7.2,-6.0,2829.9,630.6,-1.5,442.2,382.8,-417.0,0,2916,0,31,0, 
1.6233,252.9,-1100.7,1007.4,145.8,206.4,289.8,179.1,624.3,-889.2,840.0,1043.1,2272.2,-728.4,528.0,1796.4,191.1,-7.2,-6.3,2838.6,626.1,-0.3,453.0,370.5,-414.6,0,2922,0,32,0, 
1.6267,258.0,-1098.9,1002.0,152.4,216.9,312.9,187.8,620.7,-6298.5,836.1,83.4,1360.8,-918.3,432.3,-3503.1,195.0,-7.2,-6.3,2826.9,631.5,-1.2,444.6,385.2,-369.6,0,2928,0,33,0, 
1.6300,261.3,-1095.6,993.3,143.1,209.4,303.9,185.1,608.7,-11707.8,817.2,-3204.9,-1994.7,-1029.0,133.5,-9077.4,207.3,-7.2,-6.3,2792.1,621.6,-0.9,431.1,399.3,-392.4,0,2934,0,34,0, 
1.6333,260.7,-1098.0,993.0,147.9,216.6,306.6,184.2,615.6,-9410.7,822.9,-3450.3,-2499.9,-900.6,53.4,-7106.1,194.4,-7.2,-6.0,2788.5,620.1,-1.2,430.2,376.5,-359.7,0,2940,0,35,0, 
1.6367,260.7,-1094.1,1001.7,160.8,224.7,319.8,189.9,633.3,-2889.9,829.5,-866.4,197.1,-693.0,291.0,-400.5,188.4,-6.3,-5.7,2818.2,627.3,-0.9,438.6,392.1,-330.9,0,2946,0,36,0, 
1.6400,264.9,-1088.1,1011.9,165.3,231.9,316.8,188.4,636.0,-666.9,817.8,1036.5,2303.1,-652.5,520.2,1893.3,203.4,-6.9,-5.7,2856.6,636.6,-0.9,441.0,373.8,-348.6,0,2952,0,37,0, 
1.6433,267.6,-1080.0,1014.9,161.1,231.9,310.8,188.7,623.7,-6224.4,829.8,-587.1,777.0,-870.3,405.0,-3440.4,205.2,-6.9,-6.0,2847.6,636.6,-0.6,429.6,380.7,-370.5,0,2958,0,38,0, 
1.6467,268.5,-1086.3,1001.1,149.7,222.3,306.9,191.1,611.4,-11485.5,820.2,-3588.6,-2453.1,-1036.8,129.0,-8960.1,182.4,-7.2,-5.7,2810.1,626.4,-0.6,428.1,406.2,-396.3,0,2964,0,39,0, 
1.6500,262.2,-1086.0,1003.2,151.2,223.2,302.7,182.4,609.9,-9410.7,820.5,-3806.1,-2951.7,-1037.1,33.3,-7017.3,194.1,-6.9,-6.3,2803.5,621.0,-0.3,431.1,371.7,-411.9,0,2970,0,40,0, 
1.6533,266.4,-1077.0,1000.2,141.6,214.2,295.5,180.6,613.2,-2593.5,811.2,-1110.3,-177.0,-677.4,252.9,-365.4,201.9,-7.2,-6.0,2819.4,606.9,-0.3,422.1,387.6,-406.5,0,2976,0,41,0, 
1.6567,260.1,-1107.6,993.3,143.7,215.4,300.3,189.3,616.8,-741.0,818.1,870.3,2092.5,-669.3,498.6,1890.3,211.2,-6.9,-6.3,2823.9,616.2,-0.6,432.0,396.6,-410.7,0,2982,0,42,0, 
1.6600,259.8,-1113.0,994.8,142.8,218.7,306.9,186.6,607.8,-6224.4,827.4,-712.8,498.6,-925.2,430.5,-3438.3,193.8,-6.9,-5.7,2816.7,632.1,-0.6,441.3,386.1,-415.2,0,2988,0,43,0, 
1.6633,245.1,-1135.2,985.5,131.7,208.5,302.7,185.4,588.9,-11559.6,824.1,-3634.2,-2550.0,-1069.2,147.9,-8934.0,219.6,-7.2,-6.0,2792.4,623.4,-1.2,441.0,382.8,-420.9,0,2994,0,44,0, 
1.6667,252.9,-1120.2,987.6,132.3,208.8,300.3,178.5,593.1,-9262.5,816.3,-3927.6,-3033.0,-921.9,99.6,-6942.6,200.1,-7.2,-5.4,2803.5,618.6,-0.6,428.7,360.3,-390.0,0,3000,0,45,0, 
1.6700,246.3,-1130.4,985.8,130.8,206.7,296.4,181.2,598.8,-2741.7,803.7,-1095.0,-93.6,-698.7,307.8,-285.9,184.5,-6.9,-6.0,2812.5,614.7,-0.6,425.1,399.9,-401.4,0,3006,0,46,0, 
1.6733,245.4,-1116.3,994.5,138.9,210.3,300.6,180.6,608.1,-592.8,818.4,282.3,1651.5,-713.4,540.0,1944.3,204.0,-6.9,-5.7,2823.0,615.9,-0.9,427.8,357.3,-388.5,0,3012,0,47,0, 
1.6767,254.7,-1117.8,988.8,134.1,204.0,292.2,176.1,600.0,-6076.2,822.9,-1279.2,318.0,-897.3,458.4,-3392.7,198.9,-6.9,-6.0,2799.6,612.9,-0.6,432.9,356.7,-403.8,0,3018,0,48,0, 
1.6800,261.6,-1110.0,986.1,135.3,198.9,281.4,172.5,585.9,-11411.4,816.0,-4169.1,-2763.0,-1007.4,156.0,-8840.7,193.5,-6.9,-5.7,2783.4,607.8,-0.9,419.1,354.3,-438.6,0,3024,0,49,0, 
1.6833,258.9,-1120.5,978.0,134.1,197.1,279.9,173.7,586.5,-9114.3,811.5,-4325.7,-3178.5,-894.3,87.6,-6858.6,201.0,-6.9,-6.3,2785.8,593.1,-0.6,431.7,360.0,-444.9,0,3030,0,50,0, 
1.6867,258.6,-1108.5,991.5,143.4,207.6,294.9,186.3,606.6,-2519.4,826.2,-1403.1,-320.1,-682.5,317.7,-165.0,207.9,-6.9,-5.7,2813.4,601.5,-1.2,441.3,378.9,-412.8,0,3036,0,51,0, 
1.6900,269.4,-1095.6,997.8,146.4,214.8,305.4,186.3,614.7,-741.0,829.8,603.9,1993.5,-734.1,561.0,1959.3,209.7,-6.9,-5.7,2825.7,609.6,-0.6,441.9,371.7,-381.6,0,3042,0,52,0, 
1.6933,273.0,-1070.1,1008.6,156.0,223.5,310.2,193.5,615.9,-6150.3,843.0,-976.2,543.0,-937.8,445.5,-3380.4,194.1,-6.6,-5.7,2823.6,618.6,-0.9,444.6,377.7,-360.0,0,3048,0,53,0, 
1.6967,262.8,-1094.7,994.2,147.0,219.9,310.8,194.4,602.7,-11337.3,829.8,-3784.2,-2422.8,-997.2,165.6,-8758.5,211.8,-7.2,-6.0,2796.0,617.7,-0.6,432.6,380.1,-386.1,0,3054,0,54,0, 
1.7000,252.9,-1104.6,993.6,153.9,225.3,314.7,202.8,605.7,-8892.0,834.6,-3891.3,-2861.1,-897.6,76.2,-6723.3,212.4,-6.9,-6.3,2805.3,623.4,-0.6,449.4,419.4,-393.9,0,3060,0,55,0, 
1.7033,249.9,-1128.0,980.4,144.0,217.5,305.4,193.8,608.7,-2445.3,819.6,-1040.4,20.4,-696.3,345.3,-118.2,200.4,-7.2,-6.0,2803.8,613.8,-0.6,424.8,400.5,-396.6,0,3066,0,56,0, 
1.7067,252.0,-1116.0,987.6,146.1,220.8,312.0,194.1,618.9,-666.9,825.9,794.1,2156.7,-751.5,567.3,1968.0,203.7,-7.2,-5.7,2810.7,620.1,-0.9,428.4,381.9,-380.7,0,3072,0,57,0, 
1.7100,240.3,-1112.7,984.6,147.0,211.5,302.4,189.9,608.7,-6076.2,823.2,-851.1,717.6,-960.6,452.4,-3381.0,201.6,-6.9,-6.0,2799.6,609.0,-0.6,424.2,378.9,-398.4,0,3078,0,58,0, 
1.7133,250.8,-1103.7,987.6,150.0,212.7,287.4,178.5,598.2,-11263.2,821.7,-3780.6,-2418.6,-1047.9,182.7,-8710.8,196.5,-7.2,-5.7,2793.9,610.2,-0.9,433.5,370.5,-455.1,0,3084,0,59,0, 
1.7167,256.5,-1107.6,984.0,142.5,213.6,287.1,179.7,600.0,-9040.2,815.4,-3821.7,-2809.2,-872.4,118.5,-6674.7,213.3,-7.2,-5.7,2794.8,605.1,-0.6,423.6,365.7,-455.7,0,3090,0,60,0, 
1.7200,258.6,-1107.6,987.0,149.7,217.8,294.3,182.7,614.7,-2519.4,817.2,-993.0,-18.0,-682.2,348.3,-86.7,200.7,-7.2,-5.7,2811.9,611.7,-0.6,422.4,376.2,-434.4,0,3096,0,61,0, 
1.7233,253.8,-1110.3,983.4,147.9,217.8,298.8,183.0,614.7,-815.1,805.2,992.7,2200.2,-675.0,538.8,1938.0,174.0,-6.9,-5.4,2812.8,611.4,-0.9,430.2,372.3,-428.4,0,3102,0,62,0, 
1.7267,250.2,-1107.9,980.7,147.6,216.3,303.9,191.4,612.9,-6076.2,798.0,-772.2,583.5,-928.2,436.8,-3369.0,194.7,-6.6,-6.0,2795.1,610.8,-0.6,409.5,382.8,-428.4,0,3108,0,63,0, 
1.7300,258.3,-1091.7,987.6,151.5,222.3,315.9,190.8,607.8,-11337.3,827.1,-3547.2,-2354.1,-981.3,131.7,-8681.4,195.0,-6.9,-5.7,2795.1,614.4,-0.6,426.3,354.0,-373.2,0,3114,0,64,0, 
1.7333,267.9,-1085.4,992.1,156.0,226.8,333.6,195.9,612.6,-8892.0,801.0,-3603.9,-2692.8,-804.9,49.8,-6641.1,188.4,-7.2,-5.7,2793.6,623.7,-0.6,427.2,358.5,-345.9,0,3120,0,65,0, 
1.7367,260.1,-1102.2,989.4,154.2,230.1,321.9,192.9,617.4,-2445.3,800.1,-808.8,82.2,-735.3,306.9,-90.0,192.3,-7.2,-6.6,2810.1,628.8,-1.2,427.8,370.5,-392.4,0,3126,0,66,0, 
1.7400,246.6,-1110.3,980.7,146.7,215.4,303.6,183.6,609.3,-815.1,807.3,1051.8,2064.3,-841.5,537.6,1949.4,199.2,-6.9,-6.0,2809.5,618.6,-0.6,414.0,363.9,-437.1,0,3132,0,67,0, 
1.7433,246.6,-1109.1,977.7,144.0,213.3,297.3,183.0,600.6,-6150.3,818.7,-649.2,593.4,-960.6,444.6,-3354.6,213.3,-6.6,-6.3,2798.7,615.3,-0.9,436.8,377.7,-453.0,0,3138,0,68,0, 
1.7467,249.9,-1112.4,982.8,152.4,219.0,316.2,194.1,600.6,-11189.1,825.9,-3465.9,-2435.1,-1004.4,158.7,-8648.4,210.3,-6.6,-5.4,2790.9,623.4,-0.6,432.0,384.9,-412.2,0,3144,0,69,0, 
1.7500,250.2,-1117.5,980.4,149.1,214.2,304.5,180.0,599.4,-9040.2,814.5,-3543.9,-2785.5,-855.6,116.7,-6595.5,187.2,-6.9,-6.0,2795.7,614.4,-0.9,429.0,349.8,-395.1,0,3150,0,70,0, 
1.7533,251.4,-1121.1,979.8,151.8,220.5,310.2,186.9,609.3,-2297.1,817.5,-700.8,104.1,-690.9,369.9,-24.3,193.5,-7.2,-5.7,2808.6,622.5,-0.9,420.6,357.3,-402.0,0,3156,0,71,0, 
1.7567,252.6,-1117.2,987.6,157.2,223.5,310.5,192.9,619.8,-592.8,827.7,1094.1,2274.3,-677.4,594.9,2005.8,204.0,-6.9,-6.0,2823.6,628.5,-0.3,434.1,386.4,-441.3,0,3162,0,72,0, 
1.7600,262.8,-1107.6,994.5,163.5,225.3,314.7,197.1,617.1,-6002.1,836.1,-468.6,765.9,-877.2,489.3,-3309.3,202.5,-6.6,-5.4,2822.1,633.3,-0.3,433.5,386.4,-429.6,0,3168,0,73,0, 
1.7633,263.1,-1100.1,993.6,161.1,224.7,318.0,190.8,603.9,-11263.2,836.7,-3461.4,-2408.7,-1024.8,190.2,-8613.6,204.9,-6.9,-6.0,2803.5,636.3,-0.9,431.7,381.6,-435.6,0,3174,0,74,0, 
1.7667,274.5,-1083.3,1000.2,168.9,238.2,327.0,196.2,613.5,-8892.0,835.8,-3597.9,-2741.1,-948.0,134.7,-6572.7,203.7,-6.6,-5.4,2806.8,645.6,-0.6,441.0,385.2,-428.4,0,3180,0,75,0, 
1.7700,274.8,-1079.7,996.6,163.8,228.9,325.2,193.2,620.1,-2445.3,813.6,-758.1,177.6,-711.9,374.4,-2.4,177.0,-6.9,-5.7,2815.8,637.2,-0.9,433.5,387.0,-411.6,0,3186,0,76,0, 
1.7733,264.9,-1092.9,988.2,155.4,219.9,321.0,187.5,618.0,-666.9,811.5,1140.6,2356.5,-699.3,561.6,2033.7,179.7,-6.9,-5.7,2812.8,631.2,-0.6,413.7,366.9,-402.0,0,3192,0,77,0, 
1.7767,260.4,-1097.7,997.2,167.1,228.3,330.0,193.5,613.8,-6150.3,828.0,-515.7,861.6,-895.8,438.0,-3270.9,195.3,-6.6,-5.7,2818.8,639.3,-1.2,433.2,353.4,-388.8,0,3198,0,78,0, 
1.7800,258.6,-1091.7,987.9,161.1,224.1,326.1,194.7,602.7,-11115.0,819.3,-3334.2,-2233.5,-1081.8,176.4,-8561.4,208.5,-6.9,-5.7,2793.3,629.7,-0.6,424.2,378.6,-399.6,0,3204,0,79,0, 
1.7833,255.6,-1113.3,975.0,154.8,219.0,323.7,187.8,595.5,-8892.0,802.2,-3465.3,-2506.5,-906.3,119.1,-6481.8,191.1,-6.9,-5.7,2786.1,627.6,-0.9,422.1,369.0,-403.2,0,3210,0,80,0, 
1.7867,259.5,-1121.1,978.9,156.9,224.1,327.9,189.9,612.0,-2371.2,817.5,-546.0,342.0,-645.3,376.5,99.3,200.7,-6.9,-6.3,2816.7,629.1,-1.2,420.9,363.3,-390.3,0,3216,0,81,0, 
1.7900,263.7,-1125.9,975.0,153.0,218.1,330.3,195.0,612.0,-518.7,815.1,1266.6,2364.9,-687.9,587.7,2100.6,203.4,-6.9,-5.7,2815.5,628.5,-0.9,434.7,369.6,-379.8,0,3222,0,82,0, 
1.7933,257.4,-1117.8,976.2,155.1,225.6,338.1,202.5,608.7,-6076.2,819.3,-417.3,851.7,-897.3,458.1,-3207.9,208.8,-6.6,-5.7,2810.4,642.0,-0.6,445.2,397.5,-383.4,0,3228,0,83,0, 
1.7967,261.3,-1106.1,984.3,162.3,224.7,325.8,197.1,600.0,-11040.9,829.8,-3199.5,-2042.1,-1089.0,205.5,-8483.7,198.3,-6.9,-6.0,2802.6,643.8,-0.6,452.1,404.4,-414.0,0,3234,0,84,0, 
1.8000,267.6,-1088.4,992.1,165.6,228.3,319.8,190.8,606.3,-8743.8,825.6,-3233.4,-2375.1,-962.7,136.5,-6437.7,195.9,-6.9,-6.0,2814.3,637.8,-0.6,448.2,374.7,-428.4,0,3240,0,85,0, 
1.8033,261.9,-1101.3,991.2,162.6,228.0,316.8,192.9,612.6,-2223.0,830.7,-353.1,397.2,-711.9,387.6,129.6,212.7,-7.2,-6.0,2820.3,641.1,-0.6,440.1,382.8,-446.4,0,3246,0,86,0, 
1.8067,260.4,-1101.6,993.0,166.2,235.5,316.5,197.1,619.2,-518.7,843.6,1489.5,2526.3,-687.9,601.8,2166.6,235.5,-6.9,-5.7,2838.3,648.3,-0.6,445.2,389.4,-438.6,0,3252,0,87,0, 
1.8100,266.4,-1084.8,1003.8,174.0,239.4,316.8,194.7,614.7,-5928.0,847.8,-239.1,955.5,-917.4,511.5,-3122.1,199.8,-6.9,-6.0,2833.8,654.0,-1.2,455.4,362.1,-428.4,0,3258,0,88,0, 
1.8133,271.5,-1082.1,999.3,170.1,233.7,328.5,199.5,600.9,-11040.9,838.5,-3022.8,-2100.6,-996.0,226.8,-8399.1,201.6,-6.6,-5.7,2811.9,648.3,-0.9,452.4,383.4,-382.5,0,3264,0,89,0, 
1.8167,262.8,-1098.0,992.7,165.0,230.7,325.2,199.2,598.5,-8669.7,819.0,-3177.9,-2418.3,-839.4,142.2,-6368.1,200.7,-6.6,-6.0,2810.4,637.2,-0.6,441.6,397.5,-374.1,0,3270,0,90,0, 
1.8200,264.9,-1102.5,1001.1,163.5,231.6,321.9,191.4,611.1,-2223.0,837.6,-363.9,447.9,-598.2,381.9,183.3,203.4,-7.2,-5.7,2832.9,641.7,-0.3,438.9,384.3,-401.1,0,3276,0,91,0, 
1.8233,262.8,-1111.8,991.2,156.6,226.5,323.1,191.1,611.1,-518.7,825.6,1393.8,2521.5,-672.0,592.5,2212.8,200.1,-7.2,-6.0,2830.5,635.1,-0.6,429.0,392.1,-392.1,0,3282,0,92,0, 
1.8267,261.6,-1102.5,985.8,153.0,215.4,322.2,191.1,600.9,-5928.0,828.0,-270.6,1065.3,-957.0,477.3,-3098.7,210.6,-7.2,-5.4,2816.4,627.0,-1.2,428.7,387.3,-393.9,0,3288,0,93,0, 
1.8300,268.8,-1077.6,994.5,152.1,211.2,314.1,186.6,595.2,-11040.9,831.6,-3087.0,-1990.2,-1008.6,206.7,-8409.0,198.0,-7.2,-6.0,2806.8,618.6,-0.6,432.3,354.6,-427.5,0,3294,0,94,0, 
1.8333,258.9,-1097.1,996.0,148.2,219.6,318.6,189.6,595.2,-8817.9,826.2,-3347.4,-2413.2,-945.0,119.4,-6405.3,201.6,-7.2,-6.0,2802.9,624.6,-1.2,430.5,361.2,-433.2,0,3300,0,95,0, 
1.8367,254.1,-1100.1,1002.9,155.7,231.9,327.6,195.9,612.3,-2148.9,838.2,106.5,953.1,-711.9,373.8,167.4,214.2,-6.6,-5.7,2832.3,633.9,-0.9,445.2,377.7,-417.3,0,3306,0,96,0, 
1.8400,248.4,-1118.1,993.3,152.7,228.3,322.8,192.9,613.5,-518.7,828.9,2342.7,3406.5,-661.5,603.3,2255.1,197.4,-7.5,-6.0,2832.3,625.2,-0.3,444.9,380.1,-405.3,0,3312,0,97,0, 
1.8433,256.8,-1109.1,999.3,168.9,243.0,341.4,204.3,618.3,-5853.9,853.5,291.0,1656.3,-868.5,480.9,-3118.2,209.4,-7.2,-5.7,2830.8,641.4,-0.6,463.5,381.0,-353.4,0,3318,0,98,0, 
1.8467,261.9,-1101.0,996.0,162.0,238.5,349.5,207.3,607.8,-11189.1,830.7,-2697.0,-1447.5,-1028.4,205.8,-8497.5,203.1,-7.2,-5.7,2803.8,625.5,-0.6,454.2,383.4,-347.7,0,3324,0,99,0, 
1.8500,260.4,-1093.8,993.9,161.7,232.5,336.0,198.9,603.3,-8743.8,832.8,-2925.3,-1882.8,-921.0,139.5,-6379.8,203.7,-7.2,-6.0,2805.9,627.0,-0.6,434.4,379.5,-407.1,0,3330,0,100,0, 
1.8533,265.8,-1092.9,994.5,162.0,229.5,328.2,194.4,613.8,-1926.6,819.0,-121.2,918.6,-707.1,403.8,344.1,215.7,-6.9,-6.3,2825.4,619.8,-1.2,438.9,363.9,-435.6,0,3336,0,101,0, 
1.8567,260.4,-1101.6,989.1,158.1,225.3,328.5,198.3,615.9,-296.4,813.9,1766.7,3083.4,-691.8,618.0,2398.5,226.8,-6.9,-5.7,2830.2,615.3,-0.6,429.0,377.4,-432.3,0,3342,0,102,0, 
1.8600,266.7,-1095.6,991.2,167.4,234.3,335.4,200.7,615.6,-6002.1,827.4,-50.4,1514.1,-905.1,527.1,-3099.3,201.3,-7.2,-5.7,2825.4,630.6,-0.9,447.0,372.3,-416.1,0,3348,0,103,0, 
1.8633,264.6,-1098.6,992.4,165.0,234.0,334.5,201.3,603.6,-11189.1,837.9,-3045.3,-1711.2,-1080.3,222.6,-8518.8,201.9,-6.6,-6.0,2811.3,630.9,-0.9,447.0,392.1,-403.2,0,3354,0,104,0, 
1.8667,271.2,-1088.4,991.8,159.3,228.0,325.2,194.1,601.5,-8743.8,830.1,-3055.2,-2077.8,-913.5,152.4,-6382.2,189.6,-7.2,-5.4,2808.9,619.8,-0.6,434.4,383.7,-435.9,0,3360,0,105,0, 
1.8700,267.6,-1092.9,983.4,151.8,221.1,321.6,188.4,605.7,-2000.7,813.3,-208.2,847.5,-718.2,385.5,408.9,180.6,-6.6,-5.7,2822.1,615.6,-0.6,431.1,373.8,-432.6,0,3366,0,106,0, 
1.8733,256.8,-1095.6,983.1,150.9,221.7,329.4,193.8,608.7,-222.3,825.6,1685.4,3032.1,-682.5,579.9,2443.5,201.6,-6.9,-5.7,2834.7,615.9,-0.9,419.4,386.4,-411.9,0,3372,0,107,0, 
1.8767,252.0,-1101.9,979.5,148.2,217.5,329.1,190.5,599.7,-5928.0,825.9,-117.3,1434.0,-937.2,472.8,-3114.6,195.6,-7.2,-6.3,2821.5,618.9,-0.6,419.1,361.5,-419.4,0,3378,0,108,0, 
1.8800,253.5,-1103.4,976.5,147.9,217.5,322.5,187.5,592.2,-11189.1,829.2,-3173.4,-1744.2,-1071.6,210.9,-8599.8,199.8,-6.9,-6.0,2804.4,620.4,-0.9,433.2,366.0,-429.0,0,3384,0,109,0, 
1.8833,264.0,-1095.6,979.5,155.1,227.4,330.9,189.6,602.1,-8595.6,830.7,-3846.3,-2554.5,-927.9,164.1,-6304.2,201.9,-6.6,-6.0,2806.5,626.7,-0.6,441.0,353.4,-428.4,0,3390,0,110,0, 
1.8867,251.1,-1104.9,978.3,155.1,231.0,338.4,195.9,607.5,-1926.6,828.9,-716.4,590.4,-678.0,391.5,559.5,218.1,-6.3,-6.3,2831.4,628.8,-0.9,448.8,376.8,-409.5,0,3396,0,111,0, 
1.8900,257.1,-1109.4,969.6,146.7,221.7,325.8,190.8,607.2,-74.1,829.2,1272.0,2881.5,-659.7,625.8,2546.1,192.3,-7.5,-6.0,2834.1,623.4,-0.6,425.1,354.6,-424.8,0,3402,0,112,0, 
1.8933,256.5,-1104.9,968.7,151.2,228.3,327.9,192.9,599.7,-5853.9,820.2,-390.9,1409.7,-890.1,497.4,-3082.8,199.8,-6.6,-5.7,2824.8,630.6,-0.9,426.3,358.5,-417.0,0,3408,0,113,0, 
1.8967,249.9,-1110.3,962.7,143.7,221.4,333.6,188.1,586.8,-11263.2,818.1,-3458.7,-1813.2,-1071.3,211.8,-8607.9,190.8,-6.9,-5.4,2794.5,626.4,-0.6,420.9,354.0,-414.0,0,3414,0,114,0, 
1.9000,254.4,-1100.4,965.1,143.1,223.5,330.6,191.4,591.3,-8669.7,811.2,-3416.4,-1943.7,-891.6,149.4,-6309.9,192.6,-6.9,-6.0,2799.3,618.3,-0.6,426.3,384.6,-438.9,0,3420,0,115,0, 
1.9033,253.8,-1093.5,966.3,144.3,220.2,321.9,187.2,600.3,-1778.4,800.7,-366.3,1133.4,-678.3,391.8,605.4,197.1,-6.9,-5.7,2816.1,622.5,-0.9,422.7,368.4,-445.8,0,3426,0,116,0, 
1.9067,258.3,-1102.8,962.4,137.7,214.5,321.3,185.7,606.6,-74.1,792.3,1632.3,3334.2,-653.1,603.3,2600.1,201.0,-6.6,-6.0,2809.8,616.5,-0.9,417.9,354.6,-420.6,0,3432,0,117,0, 
1.9100,248.1,-1119.3,950.4,129.6,213.0,326.1,195.3,597.9,-5928.0,790.2,-272.7,1608.9,-935.4,477.9,-3083.4,203.7,-6.9,-6.0,2785.5,610.5,-0.9,410.1,381.9,-406.5,0,3438,0,118,0, 
1.9133,251.1,-1116.6,951.0,138.0,215.4,330.3,189.3,588.6,-11263.2,806.7,-3247.8,-1537.2,-1092.0,165.3,-8616.0,186.0,-7.2,-6.0,2776.5,611.4,-0.9,420.3,379.2,-420.6,0,3444,0,119,0, 
1.9167,248.1,-1116.9,957.6,141.9,217.8,340.8,190.5,597.6,-8521.5,804.0,-3255.0,-1871.1,-906.6,130.8,-6263.4,197.7,-6.9,-5.7,2786.4,617.4,-1.2,417.6,355.5,-392.4,0,3450,0,120,0, 
1.9200,247.5,-1125.6,953.7,142.2,220.8,335.7,184.5,603.0,-1704.3,805.2,-159.3,1152.3,-732.0,400.2,663.0,204.0,-6.9,-6.0,2807.1,616.8,-0.9,415.5,347.7,-381.6,0,3456,0,121,0, 
1.9233,246.3,-1126.2,943.2,128.7,209.4,325.8,182.7,597.9,0.0,786.9,1651.5,3327.9,-757.2,629.1,2657.7,204.0,-6.9,-5.7,2802.9,607.5,-1.2,392.1,365.4,-427.2,0,3462,0,122,0, 
1.9267,254.4,-1115.1,943.2,125.1,201.3,314.7,181.2,589.8,-5779.8,787.5,-167.7,1641.3,-911.7,522.0,-3027.9,212.7,-7.5,-5.4,2788.2,606.3,-0.9,402.0,379.8,-480.0,0,3468,0,123,0, 
1.9300,254.7,-1109.7,961.2,140.7,216.3,333.3,187.8,590.1,-11189.1,811.8,-3201.0,-1529.1,-1050.6,207.0,-8565.6,189.0,-7.2,-6.0,2790.9,619.5,-0.6,420.9,345.9,-429.3,0,3474,0,124,0, 
1.9333,260.4,-1103.1,962.4,140.1,218.4,342.3,187.5,595.5,-8595.6,805.2,-3167.4,-1788.3,-1035.6,161.7,-6213.3,187.2,-6.9,-5.7,2791.5,618.6,-0.6,418.8,345.0,-416.7,0,3480,0,125,0, 
1.9367,261.3,-1099.5,959.4,132.3,204.3,329.7,180.3,597.3,-1704.3,779.7,-183.9,1341.9,-704.7,428.7,731.4,193.5,-7.2,-5.7,2805.9,609.3,-0.6,407.7,359.7,-443.7,0,3486,0,126,0, 
1.9400,256.8,-1113.9,959.7,132.6,206.4,324.6,183.6,600.6,-74.1,796.8,1822.2,3518.4,-669.0,633.6,2700.3,187.8,-6.6,-5.7,2821.5,608.1,-0.6,412.2,365.7,-459.0,0,3492,0,127,0, 
1.9433,253.5,-1108.8,962.1,136.8,205.5,330.0,188.7,594.3,-5928.0,815.4,40.8,1882.2,-954.6,500.4,-3060.0,182.4,-7.2,-6.0,2805.0,617.4,-0.6,414.0,372.3,-445.5,0,3498,0,128,0, 
1.9467,254.1,-1099.8,963.9,139.8,208.5,328.5,183.9,588.6,-11115.0,792.3,-2991.3,-1299.9,-1081.2,222.6,-8535.6,169.5,-6.9,-6.0,2790.9,618.9,0.0,419.4,360.0,-429.0,0,3504,0,129,0, 
1.9500,264.3,-1102.2,959.7,132.0,202.8,314.7,179.1,588.6,-8447.4,791.4,-3030.6,-1557.9,-851.4,167.7,-6139.2,182.7,-7.2,-5.7,2797.2,610.2,-0.9,414.0,352.2,-461.4,0,3510,0,130,0, 
1.9533,258.9,-1112.7,945.6,123.6,198.6,315.6,173.7,591.6,-1556.1,794.7,71.7,1409.1,-702.9,408.6,724.8,168.3,-6.9,-6.3,2803.8,607.8,-0.6,411.0,346.8,-462.6,0,3516,0,131,0, 
1.9567,246.0,-1113.0,950.7,132.6,206.7,327.3,182.7,601.5,-74.1,821.4,2036.1,3600.0,-792.6,621.3,2665.8,184.5,-7.2,-5.4,2823.0,620.7,-0.6,413.1,349.5,-443.4,0,3522,0,132,0, 
1.9600,249.3,-1101.9,951.9,131.4,208.2,340.2,193.8,594.0,-5928.0,799.5,161.4,1904.1,-932.1,528.3,-3031.5,188.4,-6.6,-5.7,2804.7,622.2,-0.6,417.6,395.1,-410.1,0,3528,0,133,0, 
1.9633,247.5,-1109.1,946.2,126.9,202.2,340.8,190.8,581.4,-10966.8,796.5,-2877.9,-1360.2,-1005.9,240.6,-8455.2,220.8,-7.2,-6.0,2789.4,609.0,-0.9,405.0,376.2,-403.5,0,3534,0,134,0, 
1.9667,257.7,-1119.0,952.5,137.7,208.5,336.9,187.5,588.9,-8373.3,800.1,-2959.5,-1625.7,-861.6,204.0,-6090.9,198.0,-6.9,-6.0,2801.1,621.0,-0.6,425.7,363.6,-402.0,0,3540,0,135,0, 
1.9700,262.5,-1110.3,962.7,144.6,211.5,339.3,193.5,606.0,-1556.1,820.5,53.7,1367.4,-648.6,443.4,739.2,186.6,-6.9,-5.7,2822.7,626.4,-0.9,429.9,374.1,-409.5,0,3546,0,136,0, 
1.9733,258.6,-1113.3,957.3,142.5,200.4,327.0,186.6,604.5,74.1,809.7,1954.5,3591.3,-678.9,654.3,2682.9,200.4,-6.6,-5.7,2828.4,614.7,-0.9,416.7,369.9,-449.4,0,3552,0,137,0, 
1.9767,246.9,-1110.0,947.4,135.3,199.5,330.6,195.0,593.7,-5779.8,796.5,162.0,1874.7,-919.8,517.5,-3001.5,190.2,-7.2,-5.4,2807.4,616.8,-0.9,418.2,394.5,-448.2,0,3558,0,138,0, 
1.9800,266.7,-1083.0,953.1,141.9,199.5,327.0,183.6,590.7,-11040.9,801.3,-2892.0,-1368.6,-1045.8,236.4,-8394.6,165.6,-6.9,-6.0,2791.5,613.2,-0.6,412.2,347.1,-436.5,0,3564,0,139,0, 
1.9833,258.6,-1088.7,946.5,135.3,193.2,328.2,183.0,594.6,-8447.4,791.7,-2996.7,-1593.0,-891.3,132.6,-6093.9,170.4,-6.9,-5.4,2790.9,602.4,-0.9,407.7,354.0,-421.5,0,3570,0,140,0, 
1.9867,255.3,-1090.2,953.1,144.6,203.4,331.2,184.8,609.0,-1704.3,787.8,-102.3,1324.8,-736.5,403.5,677.4,179.1,-6.9,-6.3,2822.1,616.8,-0.6,414.6,333.3,-429.0,0,3576,0,141,0, 
1.9900,251.4,-1101.6,950.7,141.9,203.4,330.0,189.6,610.8,-74.1,802.8,1697.7,3455.4,-708.6,633.0,2611.2,185.7,-6.9,-5.7,2824.5,620.4,-0.9,414.6,356.7,-440.1,0,3582,0,142,0, 
1.9933,255.6,-1109.7,941.4,133.2,194.1,328.2,185.7,599.7,-5928.0,792.6,-93.9,1756.5,-916.5,524.7,-3017.4,181.5,-7.2,-6.3,2804.7,608.4,-0.9,411.9,360.3,-423.6,0,3588,0,143,0, 
1.9967,251.7,-1101.9,945.3,136.5,193.2,326.7,186.3,588.9,-10892.7,817.8,-2971.8,-1249.2,-1011.0,226.5,-8364.3,187.8,-6.9,-5.7,2802.3,606.6,-0.6,410.7,365.4,-423.9,0,3594,0,144,0, 
2.0000,267.3,-1088.7,954.6,141.6,194.7,319.5,179.4,591.9,-8373.3,802.2,-3099.9,-1669.2,-854.7,175.8,-6071.7,185.1,-6.6,-6.0,2811.0,607.8,-1.2,393.0,354.3,-445.2,0,3600,0,145,0, 
2.0033,260.4,-1098.0,955.5,154.5,208.5,330.3,187.5,606.0,-1852.5,809.4,-99.9,1334.1,-747.0,427.2,658.5,182.1,-6.6,-5.7,2835.0,618.9,-0.6,416.4,339.9,-422.7,0,3606,0,146,0, 
2.0067,258.3,-1084.8,956.1,157.5,213.0,332.4,193.5,612.9,-222.3,818.4,1792.5,3409.5,-750.0,639.3,2535.6,186.3,-7.2,-6.0,2848.2,625.8,-0.9,427.5,366.6,-413.4,0,3612,0,147,0, 
2.0100,249.9,-1092.3,952.5,159.6,211.5,339.3,196.2,606.3,-5928.0,823.5,-15.0,1707.0,-918.3,514.2,-3084.9,186.9,-6.6,-5.7,2831.1,626.7,-0.6,431.7,372.6,-422.7,0,3618,0,148,0, 
2.0133,257.1,-1103.4,945.9,150.6,201.6,336.9,194.1,595.2,-10966.8,820.5,-2883.0,-1404.3,-1066.8,240.9,-8395.5,200.7,-7.2,-6.0,2811.9,619.2,-0.9,430.2,360.9,-437.7,0,3624,0,149,0, 
2.0167,254.7,-1097.1,950.7,154.5,202.8,332.4,191.4,596.4,-8373.3,821.4,-2875.2,-1621.5,-963.3,171.6,-6085.8,190.2,-6.6,-6.0,2817.3,615.6,-0.9,423.6,356.7,-444.6,0,3630,0,150,0, 
2.0200,264.9,-1089.6,955.8,156.9,202.8,332.7,191.7,609.0,-1778.4,819.9,-49.5,1264.5,-717.0,415.8,606.9,188.1,-6.9,-6.3,2841.0,617.4,-0.6,430.2,360.3,-435.6,0,3636,0,151,0, 
2.0233,266.4,-1083.3,951.6,152.4,201.0,335.7,190.2,609.0,-148.2,811.5,1852.8,3411.3,-679.2,651.9,2470.2,179.1,-6.9,-6.0,2843.7,615.6,-0.9,424.5,365.7,-443.4,0,3642,0,152,0, 
2.0267,268.8,-1069.2,954.3,150.3,202.5,337.5,196.8,601.2,-6076.2,816.9,21.9,1696.8,-891.9,494.1,-3145.8,202.2,-6.6,-5.7,2835.6,615.0,-0.9,428.1,405.6,-434.1,0,3648,0,153,0, 
2.0300,270.6,-1078.2,944.4,143.7,194.7,336.9,190.8,591.6,-10966.8,806.4,-2820.3,-1332.0,-997.8,202.8,-8386.8,176.4,-6.6,-6.0,2816.1,612.0,-0.9,413.7,378.9,-417.6,0,3654,0,154,0, 
2.0333,262.2,-1101.6,946.2,143.7,198.0,337.8,192.3,594.6,-8373.3,809.1,-2890.8,-1662.6,-875.4,144.6,-6129.9,193.5,-7.2,-5.7,2816.7,608.4,-0.9,419.1,372.0,-428.7,0,3660,0,155,0, 
2.0367,258.9,-1104.9,944.7,145.8,201.0,337.2,190.5,609.0,-1852.5,810.9,-51.9,1213.8,-693.6,405.0,515.4,190.2,-6.9,-6.0,2842.5,609.3,-0.6,426.3,346.2,-434.7,0,3666,0,156,0, 
2.0400,255.6,-1106.4,936.6,141.6,191.7,325.5,187.5,607.5,-370.5,804.6,1830.6,3274.8,-712.5,623.4,2320.8,194.4,-6.9,-6.0,2841.9,596.1,-1.2,416.1,357.0,-448.2,0,3672,0,157,0, 
2.0433,254.4,-1107.3,931.5,136.2,185.1,319.8,187.2,591.6,-6150.3,807.9,-19.8,1652.1,-915.6,484.8,-3272.4,201.0,-6.6,-6.0,2822.4,589.8,-0.9,416.1,362.7,-462.9,0,3678,0,158,0, 
2.0467,256.5,-1104.6,934.5,136.5,183.9,320.4,186.3,581.4,-11040.9,816.6,-2976.6,-1403.7,-999.3,223.5,-8512.8,200.7,-6.6,-6.0,2811.9,592.8,-0.9,418.8,360.3,-464.1,0,3684,0,159,0, 
2.0500,255.9,-1102.2,934.5,138.0,186.0,324.3,186.0,585.3,-8521.5,810.3,-2914.8,-1678.5,-914.4,177.6,-6241.8,195.9,-6.9,-6.0,2823.9,593.4,-0.3,420.9,361.5,-459.6,0,3690,0,160,0, 
2.0533,265.8,-1092.0,946.2,146.7,197.1,330.3,185.4,598.5,-2074.8,830.7,-25.2,1195.2,-690.3,426.0,414.0,193.5,-6.6,-6.0,2849.7,600.3,-0.9,426.6,357.3,-440.7,0,3696,0,161,0, 
2.0567,266.1,-1093.8,947.1,147.9,204.0,339.0,191.1,606.6,-444.6,821.1,1736.1,3153.9,-678.3,641.4,2214.3,189.6,-6.6,-5.4,2856.3,605.7,-0.6,431.7,348.0,-402.6,0,3702,0,162,0, 
2.0600,269.1,-1094.1,945.6,141.9,200.1,347.1,197.4,600.0,-6150.3,820.2,-144.9,1466.7,-879.6,522.3,-3342.3,198.3,-6.9,-6.0,2842.2,601.5,-0.6,425.7,357.9,-406.5,0,3708,0,163,0, 
2.0633,265.2,-1082.4,946.8,146.1,199.5,345.9,196.2,593.7,-11263.2,822.9,-3052.2,-1589.4,-1023.6,214.8,-8619.6,197.4,-7.2,-5.7,2832.9,603.6,-0.9,423.3,371.4,-428.7,0,3714,0,164,0, 
2.0667,274.8,-1068.9,954.9,156.0,209.7,359.7,204.0,606.9,-8743.8,825.0,-2974.5,-1793.4,-961.5,160.5,-6393.6,197.4,-6.9,-5.4,2847.6,611.7,-0.6,425.7,395.4,-400.5,0,3720,0,165,0, 
2.0700,270.0,-1071.0,950.7,154.5,213.9,360.6,207.0,620.1,-2000.7,829.2,590.1,1646.4,-696.3,387.0,302.7,198.3,-7.5,-6.0,2864.7,615.3,-0.6,441.6,390.0,-396.3,0,3726,0,166,0, 
2.0733,267.9,-1084.8,946.2,152.4,213.3,348.0,201.6,621.3,-666.9,834.6,2156.1,3446.1,-667.5,606.6,2161.2,195.0,-7.2,-5.7,2863.8,621.0,-1.2,445.5,384.6,-434.1,0,3732,0,167,0, 
2.0767,263.7,-1098.3,927.9,146.4,207.3,345.9,197.4,605.4,-6150.3,828.3,229.8,1715.4,-894.3,503.1,-3388.5,193.8,-7.2,-5.4,2842.8,614.7,-0.9,444.6,376.2,-430.2,0,3738,0,168,0, 
2.0800,261.3,-1088.4,923.4,132.3,193.8,341.7,195.9,592.2,-11189.1,825.3,-2803.2,-1517.1,-1066.5,213.3,-8668.5,198.3,-6.9,-6.0,2819.1,601.2,-0.6,427.8,371.4,-422.7,0,3744,0,169,0, 
2.0833,266.1,-1081.8,927.3,135.6,200.7,343.8,192.3,599.7,-8669.7,833.1,-2934.3,-1850.1,-893.1,151.2,-6381.0,192.3,-6.9,-5.7,2831.1,611.4,-0.9,428.1,367.5,-426.6,0,3750,0,170,0, 
2.0867,274.2,-1067.4,936.6,146.4,204.0,346.5,195.3,607.8,-2000.7,828.0,-80.7,1003.2,-610.5,405.3,371.4,198.6,-6.9,-6.0,2856.3,614.7,-0.9,435.3,385.8,-427.2,0,3756,0,171,0, 
2.0900,265.8,-1086.0,934.5,143.4,205.2,343.8,194.1,606.9,-444.6,835.2,1580.1,2901.0,-660.0,606.0,2234.7,198.0,-6.9,-5.7,2859.6,618.0,-0.9,442.5,368.4,-433.5,0,3762,0,172,0, 
2.0933,260.1,-1096.8,923.7,138.6,196.2,343.2,194.7,588.0,-6224.4,828.0,-667.2,832.2,-903.6,492.0,-3376.2,217.2,-6.6,-5.7,2836.5,611.1,-0.6,442.2,363.9,-430.2,0,3768,0,173,0, 
2.0967,256.5,-1098.0,932.7,144.6,201.6,350.1,199.8,584.1,-11337.3,843.9,-3498.3,-2168.1,-1045.2,224.7,-8765.1,204.9,-6.6,-6.3,2833.5,620.7,-0.6,445.5,366.6,-430.2,0,3774,0,174,0, 
2.1000,251.7,-1090.5,939.3,144.9,207.3,356.1,197.1,586.5,-8743.8,837.3,-3442.5,-2357.4,-903.9,164.1,-6457.2,190.8,-6.6,-6.3,2841.9,623.7,-0.9,453.9,372.3,-413.7,0,3780,0,175,0, 
2.1033,255.9,-1084.5,942.3,155.1,213.6,363.3,200.4,604.8,-2000.7,840.6,-326.4,716.4,-683.1,404.4,391.2,191.1,-6.9,-5.7,2864.4,631.8,-0.6,457.2,359.4,-402.0,0,3786,0,176,0, 
2.1067,257.7,-1079.7,940.5,151.2,205.5,350.7,199.2,608.4,-370.5,842.4,1590.0,2830.8,-677.1,626.1,2276.1,203.4,-6.6,-6.0,2861.1,624.0,-0.6,453.9,374.7,-443.4,0,3792,0,177,0, 
2.1100,268.8,-1074.6,933.9,148.5,198.3,346.8,202.2,599.7,-6298.5,837.9,-310.8,1205.7,-847.8,487.8,-3410.7,207.6,-7.2,-5.7,2843.1,624.9,-0.6,438.3,388.2,-448.5,0,3798,0,178,0, 
2.1133,265.8,-1084.5,921.6,137.4,194.4,344.1,197.1,586.5,-11411.4,819.9,-3220.5,-1929.0,-1047.3,185.4,-8889.6,218.1,-6.9,-5.7,2812.5,616.5,-0.6,424.5,373.8,-429.6,0,3804,0,179,0, 
2.1167,264.9,-1071.9,925.8,142.2,201.0,352.5,196.2,594.6,-8892.0,820.5,-3307.5,-2252.4,-926.1,140.7,-6503.4,192.6,-6.9,-6.0,2821.8,615.9,-0.9,428.4,368.1,-379.2,0,3810,0,180,0, 
2.1200,262.5,-1073.7,938.1,156.0,212.7,354.9,202.5,615.9,-2074.8,829.8,-227.4,694.2,-631.8,375.0,457.5,195.0,-7.5,-5.7,2850.6,624.3,-1.2,438.6,375.3,-408.3,0,3816,0,181,0, 
2.1233,249.3,-1092.3,926.7,147.0,200.7,339.6,194.1,610.2,-370.5,827.1,1717.5,2867.1,-712.2,603.9,2358.6,186.9,-6.9,-6.3,2850.3,622.2,-0.6,443.1,374.1,-462.3,0,3822,0,182,0, 
2.1267,249.9,-1083.6,922.5,145.5,193.8,333.6,190.8,602.7,-6224.4,817.2,4.5,1249.8,-1011.6,482.1,-3426.3,188.1,-7.2,-6.0,2831.4,625.5,-1.2,440.4,357.0,-471.9,0,3828,0,183,0, 
2.1300,251.7,-1091.1,911.4,140.1,189.9,334.8,192.3,590.7,-11485.5,800.1,-3119.1,-1928.1,-1084.8,183.0,-8927.1,195.9,-7.2,-6.3,2810.1,622.5,-1.2,431.4,362.1,-455.4,0,3834,0,184,0, 
2.1333,254.1,-1094.7,915.9,142.5,194.1,338.1,192.9,591.9,-8817.9,819.6,-3092.7,-2196.6,-951.3,125.7,-6465.9,196.2,-7.2,-6.0,2817.6,623.1,-0.6,444.0,379.5,-437.7,0,3840,0,185,0, 
2.1367,254.7,-1092.9,914.7,137.7,188.7,332.7,186.3,594.0,-1852.5,817.5,118.8,955.5,-748.8,394.2,542.1,187.5,-6.9,-5.7,2835.9,612.9,-0.6,428.1,353.7,-451.2,0,3846,0,186,0, 
2.1400,262.2,-1083.6,924.9,139.2,188.7,333.9,189.0,598.8,-148.2,819.0,1955.4,3160.8,-651.6,606.6,2481.0,192.0,-6.9,-6.0,2849.7,614.1,-0.9,436.2,354.0,-453.3,0,3852,0,187,0, 
2.1433,257.1,-1091.4,918.6,131.4,183.9,339.0,193.5,585.9,-6150.3,815.7,128.7,1492.5,-840.6,480.3,-3391.8,189.6,-6.9,-5.7,2822.1,608.7,-0.6,428.1,374.1,-427.8,0,3858,0,188,0, 
2.1467,257.1,-1082.4,917.1,130.5,186.6,336.9,192.3,576.6,-11633.7,823.8,-3032.1,-1857.9,-1047.0,165.9,-8931.0,186.0,-6.9,-5.7,2810.1,610.2,-0.9,431.4,363.9,-417.6,0,3864,0,189,0, 
2.1500,253.5,-1077.3,922.8,129.6,186.3,339.9,191.4,579.0,-8669.7,809.7,-2992.8,-1974.9,-911.1,96.6,-6429.9,187.8,-6.9,-5.7,2808.3,607.2,-0.6,430.5,364.5,-416.7,0,3870,0,190,0, 
2.1533,257.4,-1081.8,922.8,136.5,189.9,346.2,197.4,596.7,-1704.3,801.0,141.9,1088.7,-727.8,358.8,597.0,198.9,-6.9,-5.7,2834.4,609.3,-0.9,407.7,363.0,-376.5,0,3876,0,191,0, 
2.1567,253.8,-1098.0,917.1,141.9,195.9,351.9,202.5,603.9,-148.2,801.6,2084.1,3378.9,-729.6,605.1,2523.3,209.1,-6.9,-5.4,2838.0,625.2,-0.9,417.9,360.3,-358.2,0,3882,0,192,0, 
2.1600,257.1,-1106.7,913.8,140.7,185.7,336.9,198.3,594.6,-6076.2,814.2,105.0,1582.8,-909.0,513.3,-3314.7,199.8,-6.9,-5.7,2820.3,613.5,-0.9,439.5,353.1,-444.9,0,3888,0,193,0, 
2.1633,261.6,-1104.3,911.7,142.2,183.9,339.3,198.9,585.0,-11337.3,815.4,-3039.0,-1661.1,-1027.2,228.3,-8807.7,203.1,-7.2,-5.7,2811.0,607.2,-0.6,435.0,347.4,-467.7,0,3894,0,194,0, 
2.1667,269.4,-1087.8,921.0,150.3,191.7,324.9,190.8,591.0,-8595.6,819.6,-3047.1,-1924.5,-878.1,174.0,-6338.4,199.8,-7.2,-5.7,2823.9,614.1,-0.9,440.4,361.2,-488.4,0,3900,0,195,0, 
2.1700,268.5,-1088.1,920.7,150.6,195.0,328.2,195.0,608.7,-1778.4,820.2,138.9,1179.0,-651.0,425.4,696.6,194.1,-6.9,-5.7,2843.7,615.0,-0.6,433.2,365.1,-489.9,0,3906,0,196,0, 
2.1733,276.6,-1092.9,916.8,148.8,191.4,333.3,195.0,612.9,-148.2,827.1,2193.3,3531.9,-658.8,648.6,2617.8,182.7,-6.6,-5.7,2852.4,615.3,-1.2,430.8,350.1,-484.5,0,3912,0,197,0, 
2.1767,274.2,-1091.1,918.6,147.0,191.1,343.5,200.4,604.2,-6076.2,827.7,231.6,1693.8,-885.3,525.0,-3264.3,191.4,-6.9,-6.0,2839.2,611.1,-0.3,431.4,356.7,-459.6,0,3918,0,198,0, 
2.1800,277.2,-1076.4,925.2,149.1,187.8,341.1,201.0,594.0,-11337.3,817.8,-2806.5,-1514.1,-1050.0,210.9,-8825.7,200.4,-6.9,-5.7,2819.4,610.2,-1.2,426.0,361.2,-456.3,0,3924,0,199,0, 
2.1833,276.9,-1066.2,935.4,146.1,187.2,336.0,200.1,593.7,-8817.9,818.1,-2813.7,-1738.8,-941.7,135.0,-6343.2,209.1,-7.2,-6.0,2830.2,609.0,-0.6,423.3,372.0,-473.4,0,3930,0,200,0, 
2.1867,280.5,-1058.4,934.8,148.5,191.4,330.6,195.9,605.7,-1630.2,813.3,291.9,1409.4,-717.3,408.9,712.2,193.2,-6.6,-5.4,2846.4,607.2,-0.9,413.4,346.2,-480.6,0,3936,0,201,0, 
2.1900,266.1,-1069.5,934.8,153.9,191.7,336.9,198.6,613.5,0.0,828.3,2311.5,3623.1,-682.5,633.6,2610.3,201.0,-7.2,-6.0,2857.2,615.9,-0.6,429.3,356.4,-452.4,0,3942,0,202,0, 
2.1933,271.5,-1067.4,923.7,150.3,187.8,345.3,206.4,604.2,-6150.3,816.6,344.1,1915.5,-914.7,524.1,-3306.6,199.5,-6.9,-5.7,2829.6,612.9,-0.6,418.5,354.3,-404.1,0,3948,0,203,0, 
2.1967,271.5,-1066.2,922.2,150.0,189.9,345.0,209.1,596.7,-11337.3,823.5,-2775.0,-1363.2,-1005.9,191.1,-8857.2,192.3,-6.9,-6.0,2817.6,612.9,-0.3,415.5,380.1,-398.7,0,3954,0,204,0, 
2.2000,265.5,-1084.2,922.8,143.4,186.6,339.0,194.7,591.6,-8743.8,820.8,-2847.3,-1570.5,-883.2,136.8,-6343.8,179.4,-6.9,-5.7,2818.5,614.7,-1.5,411.3,348.9,-419.7,0,3960,0,205,0, 
2.2033,260.7,-1083.3,924.9,147.0,188.4,337.5,192.0,604.5,-1630.2,817.5,339.6,1611.6,-684.6,421.2,726.6,190.8,-7.2,-6.0,2846.1,615.9,-1.2,427.5,347.4,-431.4,0,3966,0,206,0, 
2.2067,267.3,-1090.5,924.3,148.5,186.3,340.2,199.8,612.9,-74.1,820.8,2412.9,3929.4,-671.1,643.2,2562.0,198.9,-6.9,-5.7,2847.6,616.5,-0.9,430.2,350.1,-438.9,0,3972,0,207,0, 
2.2100,258.3,-1094.4,920.4,149.1,183.3,337.5,198.6,602.7,-6150.3,821.1,1141.5,2727.3,-909.6,502.2,-3392.1,190.2,-6.9,-5.4,2834.7,617.1,-0.3,429.9,360.6,-443.1,0,3978,0,208,0, 
2.2133,262.2,-1099.8,908.1,136.5,174.9,323.1,192.3,585.9,-11485.5,822.9,-2228.1,-799.2,-1065.0,204.6,-8879.4,184.2,-6.9,-6.0,2816.7,611.4,-0.9,427.5,361.2,-483.0,0,3984,0,209,0, 
2.2167,259.8,-1107.6,896.4,129.3,168.9,321.0,196.2,584.4,-8669.7,810.9,-2284.2,-1060.5,-921.3,175.8,-6316.8,207.6,-6.9,-5.4,2808.3,606.0,-0.6,424.5,372.9,-470.4,0,3990,0,210,0, 
2.2200,267.3,-1088.7,902.4,132.6,171.0,326.7,197.1,599.1,-1630.2,803.1,666.3,2081.1,-680.4,443.1,767.1,204.9,-6.6,-6.0,2836.8,605.1,-0.6,412.8,359.1,-438.3,0,3996,0,211,0, 
2.2233,272.1,-1078.2,910.5,136.5,174.0,326.4,197.4,605.1,-74.1,806.7,2553.3,4107.0,-663.6,662.7,2632.2,195.0,-6.9,-5.7,2849.7,608.7,-1.2,421.2,339.9,-453.3,0,4002,0,212,0, 
2.2267,277.5,-1061.1,914.4,136.5,171.9,330.6,203.1,597.0,-6076.2,810.3,533.1,2212.5,-841.8,480.3,-3343.2,208.5,-7.2,-5.7,2838.9,602.4,-0.6,429.0,369.3,-453.6,0,4008,0,213,0, 
2.2300,272.1,-1071.3,913.2,145.5,183.3,348.3,213.0,592.8,-11337.3,822.9,-2601.9,-1043.4,-998.7,200.4,-8815.8,197.7,-6.9,-5.7,2826.9,615.0,-0.6,431.4,366.9,-407.1,0,4014,0,214,0, 
2.2333,259.2,-1083.6,913.2,150.6,190.8,346.8,206.1,595.2,-8595.6,825.6,-2656.8,-1410.9,-901.5,167.1,-6207.9,209.7,-7.2,-5.7,2836.2,620.7,-0.6,444.0,360.3,-418.8,0,4020,0,215,0, 
2.2367,255.6,-1096.8,907.8,141.6,180.0,333.3,200.4,597.3,-1407.9,824.1,-96.3,1262.7,-682.2,438.0,875.7,215.4,-6.9,-5.4,2847.3,610.5,-0.6,435.3,370.8,-459.0,0,4026,0,216,0, 
2.2400,260.7,-1092.6,916.2,152.4,188.1,347.4,208.5,610.5,74.1,840.0,1920.0,3610.8,-673.8,675.3,2687.4,210.0,-6.9,-5.7,2865.3,624.0,-0.6,452.7,372.0,-445.5,0,4032,0,217,0, 
2.2433,260.1,-1084.8,912.6,154.2,192.6,349.5,208.5,605.4,-6002.1,842.4,39.9,1839.6,-894.0,542.1,-3248.7,207.3,-6.9,-6.0,2856.9,628.2,-0.6,441.0,375.6,-431.4,0,4038,0,218,0, 
2.2467,266.7,-1068.3,915.6,155.4,192.3,359.4,212.1,602.1,-11411.4,843.3,-3094.5,-1329.9,-1065.9,231.9,-8736.3,215.1,-6.9,-5.7,2836.8,627.3,-0.6,447.0,391.2,-423.0,0,4044,0,219,0, 
2.2500,276.3,-1064.1,913.8,150.9,193.2,354.6,204.3,604.8,-8521.5,822.9,-3055.8,-1584.3,-943.5,176.7,-6166.2,199.8,-6.3,-5.7,2833.8,622.5,-0.6,438.3,365.4,-438.6,0,4050,0,220,0, 
2.2533,275.4,-1050.3,918.0,152.1,193.8,351.0,203.7,614.7,-1482.0,812.7,174.3,1584.0,-687.6,408.9,918.0,205.5,-6.9,-6.0,2840.1,614.7,-0.6,428.7,387.9,-435.0,0,4056,0,221,0, 
2.2567,261.3,-1065.9,912.3,149.4,195.0,357.0,219.6,617.4,148.2,804.9,2179.5,3796.2,-666.3,625.8,2733.0,218.4,-6.9,-6.0,2850.0,615.6,-1.2,429.6,418.8,-412.8,0,4062,0,222,0, 
2.2600,261.0,-1075.5,908.1,146.4,191.4,343.2,202.5,606.0,-6076.2,817.2,239.7,1992.3,-946.5,520.5,-3205.8,218.1,-6.9,-5.4,2834.7,610.2,-1.5,440.4,372.0,-465.3,0,4068,0,223,0, 
2.2633,266.1,-1080.9,902.1,141.6,184.5,338.7,200.4,592.2,-11189.1,807.9,-2878.5,-1117.2,-1032.0,232.2,-8697.3,208.2,-7.2,-5.4,2814.9,606.6,-0.9,435.3,367.8,-459.3,0,4074,0,224,0, 
2.2667,281.1,-1066.5,912.9,143.7,186.6,335.7,191.7,595.2,-8521.5,816.6,-2872.8,-1331.1,-919.8,182.4,-6123.3,200.7,-6.9,-6.0,2827.5,605.4,-0.3,429.9,331.5,-458.4,0,4080,0,225,0, 
2.2700,271.2,-1068.0,911.1,141.3,192.0,337.2,201.9,606.0,-1407.9,810.3,273.3,1827.9,-688.2,388.8,890.7,218.1,-6.9,-5.7,2842.8,608.1,-0.9,427.2,373.8,-447.3,0,4086,0,226,0, 
2.2733,256.2,-1083.0,915.9,150.3,203.7,345.6,207.6,616.8,-74.1,825.0,2205.9,3918.9,-686.4,612.6,2691.9,216.6,-7.2,-5.7,2856.0,629.1,-0.3,443.1,368.1,-421.2,0,4092,0,227,0, 
2.2767,251.7,-1084.8,915.0,153.9,203.7,348.0,210.0,609.3,-6002.1,839.1,287.1,2138.4,-909.6,519.9,-3256.2,216.3,-7.5,-6.0,2847.3,625.8,-1.2,452.7,366.9,-419.1,0,4098,0,228,0, 
