Time,P3,C3,F3,Fz,F4,C4,P4,Cz,CM,A1,Fp1,Fp2,T3,T5,O1,O2,X3,X2,F7,F8,X1,A2,T6,T4,Trigger,Time_Offset,ADC_Status,ADC_Sequence,Event,Comments
0.0033,-435.3,28.5,-30.9,447.9,508.5,-1418.7,1216.2,-302.7,16302.0,468.6,1824.9,1477.8,-1245.3,-8043.0,3960.9,57.9,-6.6,-6.0,-80.1,-216.3,-0.6,486.6,-1.5,-1605.3,0,6,268435456,208,0, 
0.0067,-437.1,24.6,-30.3,444.0,507.9,-1420.2,1207.8,-309.3,25786.8,467.7,1825.8,1472.4,-1270.2,-8067.6,9830.1,54.3,-6.9,-5.7,-87.3,-219.0,-1.2,480.9,8.1,-1610.7,0,12,268435456,209,0, 
0.0100,-439.2,37.5,-9.3,462.3,531.0,-1452.6,1208.7,-319.5,6076.2,493.5,1847.4,1492.5,-1268.4,-8305.5,9032.7,44.7,-6.6,-5.7,-65.1,-195.6,-0.9,502.8,-452.1,-1677.9,0,18,268435456,210,0, 
0.0133,-435.0,64.2,8.4,478.5,547.2,-1481.1,1210.8,-318.0,-15412.8,511.2,1857.6,1512.3,-1254.9,-8433.3,-2020.5,42.0,-6.9,-5.1,-52.8,-181.2,-0.9,526.8,-738.3,-1712.1,0,24,268435456,211,0, 
0.0167,-438.6,55.2,-4.8,466.2,528.9,-1453.2,1214.1,-309.6,-9188.4,486.0,1841.7,1494.0,-1244.7,-8291.4,-7613.1,51.3,-6.6,-6.0,-65.4,-200.1,-0.9,505.5,-469.5,-1671.6,0,30,268435456,212,0, 
0.0200,-435.6,28.8,-20.7,450.9,511.2,-1420.8,1207.5,-302.7,16079.7,469.5,1830.0,1475.1,-1252.8,-8056.5,3835.8,56.7,-6.9,-6.0,-80.7,-214.2,-0.6,486.9,8.4,-1607.1,0,36,268435456,213,0, 
0.0233,-436.5,25.2,-32.7,444.9,512.4,-1416.3,1204.5,-306.0,25564.5,476.4,1821.9,1471.5,-1271.1,-8075.4,9830.1,51.9,-6.9,-5.7,-81.9,-213.6,-0.3,477.9,21.6,-1601.1,0,42,268435456,214,0, 
0.0267,-437.1,50.4,1.5,468.3,539.4,-1456.2,1203.6,-312.6,5853.9,497.1,1852.2,1500.3,-1268.1,-8312.7,8961.0,43.8,-6.9,-5.4,-64.8,-189.3,-1.2,505.8,-439.5,-1671.6,0,48,268435456,215,0, 
0.0300,-435.6,77.7,23.1,493.8,559.5,-1472.4,1212.0,-307.2,-15561.0,522.0,1876.2,1522.8,-1243.8,-8445.0,-2142.9,40.2,-6.9,-5.7,-35.4,-173.7,-0.9,532.8,-741.9,-1709.4,0,54,268435456,216,0, 
0.0333,-432.9,54.0,12.6,487.2,552.9,-1440.0,1212.9,-297.9,-9188.4,513.3,1864.8,1515.0,-1228.5,-8288.4,-7620.6,44.1,-6.6,-6.0,-42.9,-169.8,-0.9,517.8,-474.9,-1660.2,0,60,268435456,217,0, 
0.0367,-434.4,32.4,-11.1,459.3,521.1,-1415.1,1204.8,-288.9,16302.0,486.3,1827.3,1480.5,-1253.7,-8073.3,3846.3,52.2,-7.2,-5.4,-71.4,-201.0,-0.9,483.6,-18.6,-1604.4,0,66,268435456,218,0, 
0.0400,-436.8,23.1,-23.1,450.0,507.3,-1420.8,1199.1,-297.3,25712.7,471.9,1827.6,1469.1,-1276.5,-8099.1,9830.1,46.2,-6.9,-5.7,-76.2,-224.7,-0.3,481.2,-8.4,-1609.2,0,72,268435456,219,0, 
0.0433,-436.2,54.6,4.5,474.3,541.8,-1459.5,1202.1,-309.0,5928.0,489.3,1851.9,1497.0,-1274.7,-8338.2,8965.8,36.0,-7.2,-5.7,-55.8,-196.2,-0.9,505.5,-451.8,-1681.5,0,78,268435456,220,0, 
0.0467,-433.5,66.9,24.3,495.0,558.9,-1476.6,1205.1,-311.7,-15561.0,519.6,1876.8,1528.8,-1244.7,-8472.3,-2184.9,33.3,-6.9,-6.3,-40.8,-169.2,-0.6,540.6,-763.2,-1707.3,0,84,268435456,221,0, 
0.0500,-435.3,54.0,8.1,484.8,548.4,-1443.3,1212.6,-298.8,-9484.8,497.4,1864.2,1505.1,-1230.9,-8299.2,-7841.1,45.0,-6.9,-6.0,-48.3,-176.7,-0.6,510.9,-453.6,-1659.6,0,90,268435456,222,0, 
0.0533,-436.2,33.6,-15.0,460.5,512.1,-1418.1,1205.1,-291.9,16079.7,477.9,1830.9,1473.0,-1257.3,-8070.0,3647.1,53.4,-7.2,-5.7,-70.5,-215.7,-0.3,493.2,12.9,-1602.3,0,96,268435456,223,0, 
0.0567,-433.5,32.1,-19.8,456.0,519.0,-1415.7,1204.8,-299.1,25490.4,480.9,1832.1,1473.3,-1262.4,-8098.2,9830.1,54.6,-6.9,-5.4,-74.1,-209.7,-0.6,485.7,8.1,-1607.4,0,102,268435456,224,0, 
0.0600,-433.5,52.5,8.7,478.2,546.3,-1447.5,1207.8,-307.2,5705.7,510.9,1848.0,1498.5,-1262.1,-8343.3,8905.2,42.6,-6.9,-6.0,-58.5,-187.2,-0.3,519.6,-454.8,-1665.6,0,108,268435456,225,0, 
0.0633,-423.9,77.4,27.9,497.1,564.9,-1467.0,1215.6,-300.3,-15635.1,526.5,1861.8,1518.3,-1238.1,-8461.5,-2249.4,41.7,-6.6,-5.7,-50.1,-178.5,-0.6,535.2,-755.4,-1701.6,0,114,268435456,226,0, 
0.0667,-428.7,59.7,15.3,481.5,543.9,-1448.1,1217.1,-291.9,-9410.7,505.8,1848.3,1501.2,-1240.2,-8315.4,-7786.8,50.1,-6.9,-5.7,-57.3,-183.9,-0.9,524.7,-477.9,-1653.6,0,120,268435456,227,0, 
0.0700,-429.0,36.6,-16.2,455.7,519.6,-1400.1,1217.7,-285.6,16153.8,478.5,1824.6,1469.4,-1254.6,-8086.8,3686.1,65.7,-6.9,-6.0,-86.7,-216.3,-0.6,489.6,-13.8,-1596.3,0,126,268435456,228,0, 
0.0733,-430.8,31.5,-23.4,447.0,511.2,-1429.5,1205.1,-299.1,25416.3,476.4,1818.9,1466.4,-1271.1,-8108.1,9830.1,63.3,-6.6,-5.7,-90.6,-209.4,-0.9,488.1,-3.3,-1606.8,0,132,268435456,229,0, 
0.0767,-428.4,51.3,5.1,475.2,542.7,-1445.4,1211.7,-301.8,5483.4,503.4,1845.9,1497.9,-1258.2,-8328.0,8820.6,54.0,-7.2,-5.7,-61.8,-184.8,-0.9,510.3,-442.2,-1665.3,0,138,268435456,230,0, 
0.0800,-429.9,65.7,12.0,485.4,549.3,-1462.5,1217.4,-306.3,-16079.7,520.2,1856.1,1509.0,-1247.7,-8463.0,-2554.5,52.2,-6.9,-5.7,-57.6,-177.6,-0.3,530.7,-728.4,-1696.5,0,144,268435456,231,0, 
0.0833,-425.7,59.4,8.1,478.5,540.0,-1444.2,1217.4,-291.9,-9484.8,506.1,1842.0,1490.7,-1233.3,-8307.9,-7943.1,58.5,-6.6,-5.7,-67.2,-194.1,-0.6,513.3,-477.6,-1663.8,0,150,268435456,232,0, 
0.0867,-427.2,32.7,-18.6,456.0,511.2,-1411.8,1216.2,-287.7,15783.3,483.3,1815.9,1468.5,-1240.5,-8081.7,3518.1,76.5,-6.9,-5.7,-85.2,-215.4,-0.6,488.1,-2.1,-1602.3,0,156,268435456,233,0, 
0.0900,-431.1,27.6,-13.8,455.4,511.8,-1424.1,1212.6,-290.7,25268.1,486.9,1821.6,1479.3,-1248.6,-8094.0,9830.1,70.5,-6.9,-6.0,-82.8,-205.2,-0.6,497.7,11.7,-1599.3,0,162,268435456,234,0, 
0.0933,-425.7,61.8,-2.7,468.3,530.7,-1449.3,1216.2,-301.8,5483.4,505.5,1832.7,1491.3,-1259.1,-8335.2,8803.5,60.6,-6.9,-6.0,-75.9,-201.6,-0.9,516.9,-456.0,-1665.6,0,168,268435456,235,0, 
0.0967,-430.2,57.3,14.4,490.5,559.5,-1461.9,1221.0,-301.5,-16376.1,525.3,1854.9,1512.6,-1230.6,-8469.0,-2640.3,60.0,-6.6,-6.0,-55.5,-171.0,-0.6,529.8,-746.4,-1705.2,0,174,268435456,236,0, 
0.1000,-427.5,57.6,2.7,480.6,538.2,-1435.5,1223.7,-288.6,-9707.1,511.5,1847.7,1503.0,-1224.9,-8321.4,-8137.2,71.4,-6.9,-6.0,-60.9,-177.3,-0.6,515.4,-468.6,-1655.7,0,180,268435456,237,0, 
0.1033,-433.2,31.2,-14.4,457.8,508.5,-1414.5,1211.1,-283.2,15561.0,487.2,1831.2,1480.2,-1243.2,-8106.9,3353.1,73.8,-7.5,-6.0,-79.8,-212.7,-0.3,503.4,-12.0,-1598.7,0,186,268435456,238,0, 
0.1067,-432.0,40.5,-27.6,453.0,508.2,-1416.9,1204.2,-286.8,25119.9,477.9,1819.8,1474.2,-1269.3,-8129.1,9830.1,69.6,-7.2,-6.3,-99.6,-204.9,-0.9,485.1,-10.2,-1605.0,0,192,268435456,239,0, 
0.1100,-438.3,36.0,-0.9,473.7,532.5,-1444.5,1201.8,-300.9,5038.8,514.2,1845.9,1500.0,-1243.5,-8371.8,8728.5,56.4,-6.9,-6.0,-68.7,-184.8,-0.6,522.6,-452.7,-1667.1,0,198,268435456,240,0, 
0.1133,-426.6,72.0,20.1,491.7,556.5,-1465.8,1209.9,-294.0,-16376.1,530.7,1861.5,1518.0,-1231.8,-8504.7,-2800.5,51.0,-6.9,-6.0,-56.1,-164.1,-0.6,530.1,-754.2,-1702.8,0,204,268435456,241,0, 
0.1167,-426.3,50.7,4.5,481.2,538.8,-1443.6,1211.7,-285.6,-10077.6,510.6,1851.9,1500.0,-1231.8,-8340.3,-8323.5,62.1,-6.6,-6.0,-64.5,-183.6,-0.6,521.1,-462.6,-1654.8,0,210,268435456,242,0, 
0.1200,-428.4,31.2,-15.9,460.8,517.5,-1403.4,1212.6,-271.8,15338.7,475.2,1828.8,1481.4,-1237.2,-8118.0,3150.9,64.8,-6.9,-5.7,-85.2,-198.0,-0.6,497.4,1.5,-1593.3,0,216,268435456,243,0, 
0.1233,-433.2,17.4,-24.0,454.5,515.1,-1412.7,1200.9,-283.8,25045.8,474.0,1820.1,1478.4,-1260.6,-8146.2,9830.1,56.7,-6.9,-5.4,-90.0,-199.2,-1.2,490.5,-10.5,-1611.3,0,222,268435456,244,0, 
0.1267,-426.6,46.2,1.8,480.3,539.7,-1440.3,1206.3,-289.5,5112.9,506.1,1845.9,1505.1,-1255.2,-8386.5,8700.6,44.7,-6.6,-6.0,-72.3,-175.8,-0.6,527.1,-476.1,-1669.8,0,228,268435456,245,0, 
0.1300,-423.0,69.3,20.7,496.2,554.4,-1463.1,1211.4,-288.3,-16302.0,520.8,1863.0,1519.8,-1242.9,-8511.3,-2854.2,43.8,-6.9,-6.0,-51.6,-164.1,-0.9,544.5,-757.2,-1702.5,0,234,268435456,246,0, 
0.1333,-421.2,54.0,14.4,488.4,546.9,-1431.9,1215.6,-273.9,-10151.7,510.3,1855.5,1507.2,-1224.6,-8345.7,-8380.2,57.0,-6.6,-6.3,-55.2,-172.5,-0.6,525.9,-461.1,-1655.1,0,240,268435456,247,0, 
0.1367,-427.2,30.9,-12.3,469.8,519.6,-1404.3,1212.3,-267.3,15412.8,489.0,1834.2,1480.2,-1243.8,-8125.8,3099.0,69.6,-6.9,-5.7,-76.5,-197.4,-0.6,510.9,-12.6,-1592.1,0,246,268435456,248,0, 
0.1400,-423.3,32.1,-11.7,468.3,523.2,-1398.3,1209.9,-272.1,24675.3,483.0,1826.7,1480.2,-1261.5,-8144.4,9830.1,66.9,-6.9,-6.0,-84.3,-195.3,-0.6,499.5,-7.5,-1596.3,0,252,268435456,249,0, 
0.1433,-425.4,51.9,10.8,487.2,551.1,-1446.0,1212.9,-284.4,4964.7,511.2,1853.4,1508.7,-1263.6,-8383.8,8645.1,55.8,-6.9,-6.0,-59.7,-163.2,-0.9,533.7,-464.7,-1656.0,0,258,268435456,250,0, 
0.1467,-422.4,73.5,26.4,501.0,558.0,-1452.3,1217.4,-285.9,-16450.2,521.7,1865.1,1517.1,-1242.3,-8516.1,-2921.7,54.9,-6.9,-6.0,-49.2,-178.2,-0.6,548.4,-759.9,-1687.8,0,264,268435456,251,0, 
0.1500,-423.9,56.4,15.6,492.3,552.9,-1436.1,1222.8,-271.2,-10077.6,520.2,1854.9,1508.1,-1229.4,-8365.2,-8325.6,64.8,-6.9,-6.0,-51.6,-172.2,-0.6,538.2,-465.9,-1642.5,0,270,268435456,252,0, 
0.1533,-426.6,34.2,-8.1,464.1,515.1,-1401.3,1219.5,-266.1,15412.8,489.0,1828.2,1477.5,-1254.3,-8132.1,3180.9,75.0,-6.6,-5.7,-80.4,-196.8,-0.9,505.2,-8.4,-1592.7,0,276,268435456,253,0, 
0.1567,-429.0,21.9,-12.3,463.8,516.3,-1412.4,1211.7,-270.9,24897.6,483.0,1829.1,1476.0,-1255.8,-8154.3,9830.1,74.1,-6.9,-5.7,-82.5,-199.2,-0.6,499.2,0.9,-1596.9,0,282,268435456,254,0, 
0.1600,-425.7,53.7,9.9,478.5,537.0,-1441.5,1209.6,-275.4,4890.6,509.1,1843.2,1492.5,-1257.9,-8388.0,8654.1,60.0,-6.9,-6.0,-67.8,-181.2,-0.9,520.2,-455.7,-1661.1,0,288,268435456,255,0, 
0.1633,-423.6,57.3,18.3,492.3,556.2,-1458.3,1218.0,-277.8,-16524.3,527.4,1859.1,1507.2,-1225.8,-8519.7,-2996.7,63.0,-7.2,-5.4,-55.2,-166.8,-0.9,537.6,-733.2,-1696.8,0,294,268435456,0,0, 
0.1667,-425.1,48.9,8.7,481.5,536.7,-1436.4,1221.9,-263.1,-10003.5,513.3,1845.0,1492.2,-1223.4,-8365.2,-8356.5,69.0,-6.9,-6.0,-65.4,-190.8,-0.9,521.7,-459.0,-1651.5,0,300,268435456,1,0, 
0.1700,-425.7,25.8,-13.5,461.4,515.4,-1403.4,1217.4,-256.8,15264.6,479.7,1818.9,1472.1,-1231.5,-8133.3,3068.1,82.8,-6.9,-6.0,-84.3,-199.2,-0.6,497.7,30.3,-1586.4,0,306,268435456,2,0, 
0.1733,-431.4,36.9,-20.7,451.2,503.4,-1414.8,1207.5,-262.8,24675.3,475.8,1805.4,1467.0,-1257.0,-8163.6,9830.1,73.8,-7.2,-6.0,-100.2,-209.1,-0.6,494.1,10.2,-1602.9,0,312,268435456,3,0, 
0.1767,-429.6,38.1,0.0,478.8,541.5,-1429.2,1215.0,-271.5,4890.6,503.1,1842.6,1495.2,-1240.2,-8401.8,8615.7,72.0,-7.2,-5.7,-66.9,-177.0,-0.3,523.5,-440.1,-1662.0,0,318,268435456,4,0, 
0.1800,-421.8,63.9,24.0,491.4,546.0,-1468.8,1217.7,-275.1,-16672.5,523.2,1860.6,1514.1,-1232.7,-8527.8,-3045.0,69.6,-6.6,-6.0,-52.8,-179.1,-0.9,543.0,-731.1,-1698.0,0,324,268435456,5,0, 
0.1833,-425.4,50.7,12.0,481.8,536.1,-1440.3,1219.2,-264.6,-9855.3,502.8,1851.3,1496.1,-1234.8,-8377.8,-8330.7,76.5,-7.2,-5.7,-68.4,-186.9,-0.3,507.3,-466.8,-1656.3,0,330,268435456,6,0, 
0.1867,-428.7,28.5,-16.8,456.3,506.1,-1423.8,1209.0,-259.8,15635.1,474.0,1818.0,1467.3,-1255.2,-8155.5,3286.5,83.4,-6.9,-5.7,-96.0,-210.0,-0.6,490.8,-21.0,-1593.6,0,336,268435456,7,0, 
0.1900,-431.1,17.4,-19.2,457.2,512.1,-1414.2,1209.0,-261.0,24897.6,471.0,1821.0,1470.3,-1270.8,-8177.1,9830.1,82.8,-6.6,-6.0,-96.6,-204.0,-0.6,483.6,-8.1,-1594.5,0,342,268435456,8,0, 
0.1933,-429.9,37.5,-5.1,472.5,531.3,-1443.9,1210.5,-273.6,5112.9,494.1,1839.9,1496.4,-1275.9,-8422.2,8689.8,72.9,-6.9,-5.7,-77.1,-189.6,-0.9,513.6,-463.5,-1660.8,0,348,268435456,9,0, 
0.1967,-423.3,64.5,15.0,488.4,546.0,-1462.8,1218.6,-269.1,-16450.2,512.1,1853.1,1509.0,-1254.6,-8527.8,-2927.7,67.5,-6.9,-5.7,-65.7,-179.7,-0.6,531.9,-737.7,-1695.0,0,354,268435456,10,0, 
0.2000,-421.8,54.9,14.4,486.9,540.9,-1451.1,1218.3,-256.2,-10003.5,510.3,1847.1,1502.7,-1229.7,-8370.3,-8380.5,75.3,-6.9,-5.7,-68.1,-182.4,-0.9,520.5,-446.7,-1645.8,0,360,268435456,11,0, 
0.2033,-427.2,27.6,-9.3,464.4,516.0,-1407.9,1212.0,-249.3,15635.1,478.5,1826.7,1476.6,-1253.7,-8159.4,3219.0,78.0,-7.2,-5.7,-88.8,-201.6,-0.9,495.3,0.6,-1592.1,0,366,268435456,12,0, 
0.2067,-428.1,26.1,-13.5,457.2,507.9,-1412.7,1208.7,-258.9,24971.7,474.6,1818.9,1475.7,-1271.7,-8181.9,9830.1,75.0,-6.6,-5.7,-96.6,-203.4,-1.2,491.4,10.2,-1597.8,0,372,268435456,13,0, 
0.2100,-425.4,47.7,10.5,480.9,541.2,-1452.6,1210.5,-267.3,4964.7,510.0,1851.0,1508.4,-1265.7,-8419.8,8674.5,69.0,-7.2,-5.7,-69.0,-169.2,-0.3,524.4,-454.2,-1651.5,0,378,268435456,14,0, 
0.2133,-417.9,75.0,31.5,496.8,554.1,-1467.0,1215.6,-263.1,-16524.3,520.5,1865.7,1522.8,-1243.2,-8541.9,-2913.6,66.6,-6.6,-6.0,-59.1,-168.9,-0.9,546.0,-738.9,-1696.2,0,384,268435456,15,0, 
0.2167,-421.5,48.3,16.5,490.5,548.4,-1424.7,1221.9,-251.1,-9855.3,519.3,1861.8,1515.9,-1223.4,-8380.8,-8257.5,70.8,-6.9,-5.4,-57.0,-165.3,-0.6,531.0,-461.7,-1647.9,0,390,268435456,16,0, 
0.2200,-422.7,32.1,-7.2,465.0,517.5,-1410.9,1213.8,-245.1,15709.2,476.1,1831.2,1481.4,-1240.2,-8167.5,3302.7,79.5,-6.9,-6.0,-84.6,-194.4,-1.2,503.4,0.3,-1584.0,0,396,268435456,17,0, 
0.2233,-427.8,22.8,-14.7,457.2,509.1,-1423.2,1204.2,-252.9,25119.9,479.4,1821.3,1479.9,-1256.4,-8187.0,9830.1,73.8,-6.6,-5.7,-87.0,-201.3,-0.3,501.6,4.5,-1597.2,0,402,268435456,18,0, 
0.2267,-428.1,44.4,9.6,482.1,538.8,-1447.5,1205.7,-263.7,5261.1,504.6,1851.9,1503.3,-1257.3,-8426.1,8727.0,60.9,-6.9,-5.7,-68.1,-186.6,-0.9,518.7,-463.5,-1657.5,0,408,268435456,19,0, 
0.2300,-422.7,64.5,31.2,501.9,561.6,-1462.8,1215.9,-258.0,-16153.8,523.8,1866.3,1523.4,-1234.2,-8543.7,-2792.4,56.1,-6.9,-5.7,-45.6,-154.8,-0.6,539.7,-734.4,-1684.2,0,414,268435456,20,0, 
0.2333,-427.5,53.4,15.9,484.8,540.9,-1445.1,1216.8,-247.5,-9484.8,512.1,1848.6,1506.6,-1232.4,-8392.8,-8158.5,65.4,-7.2,-6.0,-55.2,-180.9,-0.9,527.7,-452.1,-1646.4,0,420,268435456,21,0, 
0.2367,-427.8,36.0,-6.6,461.4,516.0,-1410.0,1212.9,-245.7,15783.3,491.7,1827.6,1483.2,-1245.0,-8165.7,3413.1,70.5,-6.9,-5.7,-79.5,-194.1,-0.9,499.8,10.2,-1581.3,0,426,268435456,22,0, 
0.2400,-432.0,27.3,-15.9,461.4,512.4,-1411.2,1206.6,-256.2,24971.7,489.0,1831.2,1483.2,-1254.9,-8181.3,9830.1,68.7,-6.9,-5.7,-75.0,-212.7,-1.2,508.2,15.0,-1587.6,0,432,268435456,23,0, 
0.2433,-425.1,54.3,16.5,487.5,542.4,-1446.9,1212.0,-258.9,5187.0,514.5,1859.7,1517.4,-1261.5,-8414.1,8733.0,58.8,-7.2,-5.7,-53.7,-170.7,-0.9,538.5,-428.7,-1643.4,0,438,268435456,24,0, 
0.2467,-422.7,66.0,32.1,499.5,557.1,-1463.7,1221.0,-258.6,-16227.9,531.9,1868.4,1522.2,-1239.0,-8537.7,-2776.2,57.0,-6.9,-5.7,-43.2,-165.6,-0.6,543.3,-722.4,-1679.7,0,444,268435456,25,0, 
0.2500,-424.5,68.4,18.3,492.3,546.6,-1443.3,1221.0,-243.9,-9781.2,513.0,1849.2,1512.9,-1231.5,-8376.6,-8104.2,66.6,-6.6,-6.3,-61.5,-176.7,-0.3,533.7,-439.5,-1650.0,0,450,268435456,26,0, 
0.2533,-429.6,21.3,-15.6,464.4,519.3,-1391.7,1215.3,-244.2,15635.1,485.1,1827.6,1481.4,-1232.1,-8144.7,3387.6,73.5,-6.9,-6.0,-75.9,-203.1,-0.6,495.9,25.2,-1584.3,0,456,268435456,27,0, 
0.2567,-429.3,26.1,-15.3,452.7,504.6,-1431.9,1205.7,-252.6,24971.7,486.9,1825.8,1480.2,-1246.5,-8162.4,9830.1,70.5,-6.9,-6.0,-81.3,-201.6,-0.6,500.1,24.6,-1589.1,0,462,268435456,28,0, 
0.2600,-429.0,40.2,5.4,477.0,537.9,-1450.2,1210.5,-261.0,5409.3,510.9,1844.7,1509.6,-1247.1,-8395.8,8727.6,63.9,-6.9,-5.4,-62.4,-183.9,-0.6,519.0,-435.6,-1658.7,0,468,268435456,29,0, 
0.2633,-427.8,68.1,25.2,495.3,557.7,-1466.4,1213.5,-258.3,-16227.9,533.4,1860.0,1521.9,-1229.4,-8525.7,-2782.8,58.2,-6.9,-5.7,-46.8,-165.6,-0.9,529.8,-714.3,-1695.0,0,474,268435456,30,0, 
0.2667,-430.5,50.4,8.1,479.1,531.9,-1454.7,1214.4,-255.6,-9558.9,497.4,1843.5,1500.6,-1230.3,-8380.5,-8097.3,71.1,-6.9,-5.7,-62.4,-197.4,-0.6,512.7,-442.2,-1651.5,0,480,268435456,31,0, 
0.2700,-437.4,23.1,-21.0,456.3,507.6,-1420.2,1208.7,-249.0,16153.8,476.1,1812.0,1472.7,-1250.4,-8160.9,3500.1,75.0,-6.3,-6.0,-90.3,-211.2,-0.9,488.7,12.6,-1594.5,0,486,268435456,32,0, 
0.2733,-441.3,21.0,-27.0,447.6,498.3,-1426.2,1200.3,-261.0,25268.1,468.9,1805.7,1467.9,-1268.7,-8182.5,9830.1,68.4,-7.2,-6.0,-92.4,-221.7,-0.6,480.6,6.6,-1599.3,0,492,268435456,33,0, 
0.2767,-438.9,36.3,-0.9,475.2,534.6,-1453.5,1201.2,-263.4,5335.2,489.9,1837.8,1504.2,-1271.4,-8415.0,8777.4,63.3,-6.6,-5.7,-72.3,-176.1,-0.6,511.8,-446.4,-1660.2,0,498,268435456,34,0, 
0.2800,-437.4,56.4,15.0,488.1,548.7,-1468.2,1210.8,-264.9,-15931.5,500.4,1849.5,1515.0,-1254.3,-8535.3,-2645.4,56.7,-7.2,-5.7,-59.7,-180.3,-0.6,531.9,-723.6,-1698.6,0,504,268435456,35,0, 
0.2833,-438.9,42.9,-2.1,475.8,534.9,-1448.1,1209.3,-255.3,-9188.4,491.7,1828.8,1499.1,-1247.1,-8383.8,-7915.5,62.7,-6.9,-6.0,-73.8,-184.8,-0.6,514.2,-460.5,-1658.4,0,510,268435456,36,0, 
0.2867,-442.5,17.7,-25.5,453.0,505.5,-1410.0,1207.8,-252.3,16302.0,467.1,1809.9,1476.3,-1253.4,-8165.1,3726.3,68.1,-6.9,-6.0,-89.1,-208.2,-0.9,498.9,-12.3,-1595.1,0,516,268435456,37,0, 
0.2900,-444.3,13.8,-21.0,454.8,512.4,-1419.3,1203.9,-255.0,25416.3,477.6,1810.8,1474.5,-1265.1,-8177.1,9830.1,70.5,-6.6,-6.0,-92.4,-204.0,-0.6,492.9,12.3,-1596.6,0,522,268435456,38,0, 
0.2933,-441.6,40.8,1.5,472.5,535.8,-1449.0,1203.6,-263.1,5631.6,505.2,1827.6,1497.6,-1258.2,-8407.8,8853.3,56.4,-7.2,-6.0,-73.2,-187.2,-0.6,519.3,-458.7,-1666.8,0,528,268435456,39,0, 
0.2967,-440.1,51.6,15.6,487.5,549.3,-1473.6,1210.8,-263.4,-16079.7,522.0,1849.5,1515.0,-1241.4,-8518.8,-2552.7,57.3,-6.6,-5.7,-63.6,-177.3,-0.9,527.7,-730.5,-1689.3,0,534,268435456,40,0, 
0.3000,-437.7,39.3,7.2,483.0,540.3,-1443.6,1214.4,-250.2,-9336.6,506.4,1845.6,1510.5,-1233.6,-8364.9,-7946.4,68.1,-6.9,-5.7,-58.8,-177.9,-0.6,525.0,-435.9,-1651.2,0,540,268435456,41,0, 
0.3033,-440.1,23.4,-13.2,459.6,513.9,-1422.6,1208.1,-248.1,16227.9,480.9,1817.1,1485.0,-1250.4,-8143.8,3677.7,75.0,-6.9,-5.7,-92.1,-200.4,-0.9,497.7,1.5,-1584.3,0,546,268435456,42,0, 
0.3067,-442.2,15.9,-20.4,459.6,519.9,-1411.8,1205.4,-252.0,25342.2,470.1,1815.6,1478.1,-1264.5,-8164.5,9830.1,72.0,-7.2,-5.7,-93.9,-204.6,-0.6,484.5,0.9,-1600.8,0,552,268435456,43,0, 
0.3100,-437.7,42.0,6.0,477.0,534.6,-1447.8,1206.9,-261.3,5483.4,501.3,1839.3,1506.0,-1250.1,-8388.3,8825.4,60.3,-6.6,-5.7,-72.9,-185.1,-0.6,525.0,-455.1,-1656.9,0,558,268435456,44,0, 
0.3133,-434.7,54.9,22.5,496.8,558.6,-1476.9,1215.9,-263.4,-15857.4,516.9,1855.5,1527.3,-1241.1,-8516.1,-2411.7,57.3,-7.2,-5.7,-53.7,-164.7,-0.6,540.0,-752.4,-1695.6,0,564,268435456,45,0, 
0.3167,-429.9,52.2,19.2,490.2,541.8,-1448.1,1219.8,-249.3,-9040.2,512.7,1852.5,1512.0,-1244.7,-8353.8,-7734.0,67.2,-6.6,-5.4,-52.8,-185.1,-0.9,530.4,-459.6,-1644.0,0,570,268435456,46,0, 
0.3200,-435.3,27.6,-11.1,467.1,524.1,-1407.3,1214.1,-240.6,16376.1,485.1,1821.6,1488.9,-1264.5,-8132.7,3843.6,74.7,-6.9,-6.3,-82.5,-192.9,-0.6,497.7,-6.0,-1588.5,0,576,268435456,47,0, 
0.3233,-437.1,29.4,-13.8,458.4,509.1,-1429.2,1204.5,-252.3,25638.6,481.5,1815.9,1479.6,-1271.4,-8142.9,9830.1,68.1,-6.9,-5.7,-81.9,-208.8,-0.9,507.9,-3.9,-1591.5,0,582,268435456,48,0, 
0.3267,-439.8,31.5,-0.3,479.4,539.7,-1454.7,1208.4,-265.2,5557.5,509.4,1840.8,1507.8,-1250.4,-8382.9,8898.0,54.9,-6.9,-6.0,-57.9,-179.4,-0.6,519.0,-455.7,-1662.0,0,588,268435456,49,0, 
0.3300,-433.5,59.4,26.1,500.4,557.1,-1468.2,1218.6,-261.6,-15783.3,533.1,1863.9,1528.8,-1227.6,-8510.1,-2342.1,52.5,-7.2,-6.3,-40.5,-170.4,-0.9,551.4,-731.4,-1686.9,0,594,268435456,50,0, 
0.3333,-437.4,42.9,5.1,483.9,538.8,-1448.4,1215.0,-253.5,-8892.0,512.4,1843.5,1506.3,-1224.0,-8358.6,-7679.4,54.9,-6.6,-6.0,-56.7,-186.0,-0.6,523.5,-459.6,-1651.2,0,600,268435456,51,0, 
0.3367,-440.1,24.3,-9.6,457.2,512.4,-1420.5,1213.5,-249.6,16376.1,481.8,1812.3,1473.6,-1232.7,-8130.6,3911.7,66.3,-6.9,-5.7,-75.9,-216.0,-0.9,495.6,3.6,-1590.9,0,606,268435456,52,0, 
0.3400,-443.7,19.2,-23.4,451.8,507.3,-1417.2,1207.2,-255.9,25712.7,484.8,1813.5,1474.2,-1257.3,-8141.4,9830.1,61.5,-7.2,-5.4,-81.6,-215.1,-0.9,487.5,-4.2,-1596.3,0,612,268435456,53,0, 
0.3433,-441.9,39.6,-1.5,473.7,536.1,-1452.3,1209.6,-264.0,5557.5,514.8,1831.2,1501.8,-1264.2,-8377.2,8925.6,52.5,-6.3,-6.3,-59.4,-197.4,-0.9,520.8,-459.3,-1658.1,0,618,268435456,54,0, 
0.3467,-435.6,54.6,16.5,490.2,548.1,-1475.7,1215.9,-263.4,-15783.3,526.5,1851.9,1517.1,-1237.2,-8490.3,-2374.5,55.2,-7.2,-5.7,-46.8,-174.9,-0.9,529.2,-717.9,-1688.1,0,624,268435456,55,0, 
0.3500,-436.8,43.8,5.1,478.5,535.5,-1454.1,1215.3,-254.7,-9114.3,504.3,1840.5,1493.1,-1236.3,-8337.3,-7697.7,68.4,-7.2,-5.7,-57.0,-193.2,-0.9,520.8,-440.7,-1645.2,0,630,268435456,56,0, 
0.3533,-444.9,14.7,-24.3,453.6,514.2,-1418.1,1209.0,-252.9,16524.3,479.4,1812.6,1476.6,-1255.5,-8115.0,3920.7,78.0,-6.9,-6.0,-85.8,-203.1,-0.6,491.7,17.7,-1580.4,0,636,268435456,57,0, 
0.3567,-447.9,8.1,-31.5,441.0,505.2,-1431.3,1202.7,-262.8,25786.8,467.1,1800.0,1465.8,-1279.8,-8151.3,9830.1,77.4,-6.9,-6.0,-101.4,-227.1,-0.9,487.2,-7.2,-1598.7,0,642,268435456,58,0, 
0.3600,-449.1,27.3,-12.6,458.1,518.7,-1472.7,1203.0,-274.2,5705.7,501.9,1825.2,1489.2,-1264.2,-8385.0,8954.7,63.9,-6.9,-6.3,-74.4,-201.6,-0.6,522.9,-471.6,-1663.8,0,648,268435456,59,0, 
0.3633,-446.7,44.7,6.3,473.4,539.7,-1492.2,1209.0,-278.1,-15635.1,512.4,1838.4,1504.8,-1250.4,-8510.7,-2180.4,57.9,-6.9,-6.0,-62.7,-187.2,-0.6,525.6,-744.3,-1698.6,0,654,268435456,60,0, 
0.3667,-444.0,37.8,-9.6,457.5,521.4,-1466.1,1212.0,-268.5,-8817.9,499.5,1817.1,1483.2,-1244.1,-8347.5,-7515.6,66.6,-6.9,-6.0,-79.8,-209.4,-0.9,513.6,-463.5,-1653.0,0,660,268435456,61,0, 
0.3700,-446.7,9.0,-34.2,441.6,502.5,-1426.5,1208.4,-261.0,16598.4,466.8,1797.6,1464.6,-1255.5,-8117.1,4053.6,77.1,-6.6,-6.0,-102.9,-216.6,-1.2,490.8,-9.9,-1591.5,0,666,268435456,62,0, 
0.3733,-454.8,1.2,-33.3,438.9,500.7,-1420.5,1206.3,-265.2,25416.3,471.3,1797.0,1459.2,-1273.5,-8138.7,9830.1,75.6,-6.9,-6.0,-105.0,-224.1,-0.6,479.1,9.0,-1596.9,0,672,268435456,63,0, 
0.3767,-451.8,28.2,-7.8,461.7,527.4,-1474.8,1203.6,-281.4,5705.7,496.2,1829.1,1493.1,-1274.4,-8383.2,8941.8,61.8,-7.2,-6.0,-80.4,-197.4,-0.9,517.2,-459.3,-1655.1,0,678,268435456,64,0, 
0.3800,-452.4,36.6,7.2,479.7,543.9,-1478.4,1211.7,-283.8,-15635.1,520.5,1843.5,1508.1,-1263.0,-8504.7,-2222.1,56.4,-6.6,-6.0,-66.0,-188.7,-0.6,533.1,-732.3,-1692.3,0,684,268435456,65,0, 
0.3833,-449.7,36.0,-3.6,471.9,533.1,-1455.9,1212.3,-274.5,-8892.0,490.5,1822.8,1489.5,-1256.7,-8340.0,-7519.2,64.8,-6.9,-5.4,-82.2,-194.4,-0.6,508.2,-459.9,-1644.3,0,690,268435456,66,0, 
0.3867,-455.4,6.9,-32.1,444.0,498.0,-1435.5,1200.3,-273.3,16672.5,458.7,1803.0,1457.4,-1267.2,-8117.4,4070.1,75.0,-6.6,-6.0,-105.0,-220.2,-0.6,486.9,-11.4,-1589.7,0,696,268435456,67,0, 
0.3900,-456.3,-0.6,-34.8,439.5,499.8,-1436.1,1194.9,-276.3,25786.8,459.6,1799.7,1455.6,-1286.7,-8142.3,9830.1,63.0,-6.6,-5.7,-110.1,-224.1,-0.6,484.8,-9.0,-1599.0,0,702,268435456,68,0, 
0.3933,-450.0,29.4,-4.5,467.7,531.3,-1463.1,1199.4,-282.9,5705.7,497.7,1826.1,1489.2,-1282.5,-8374.8,8965.5,56.7,-6.9,-5.7,-83.4,-191.7,-0.6,513.6,-471.3,-1662.6,0,708,268435456,69,0, 
0.3967,-447.0,45.3,6.3,486.3,549.9,-1473.0,1205.4,-282.6,-15486.9,515.1,1839.3,1502.4,-1261.2,-8505.3,-2145.9,47.7,-6.9,-5.7,-68.7,-190.8,-0.9,529.8,-752.1,-1694.7,0,714,268435456,70,0, 
0.4000,-446.7,40.5,5.4,483.6,537.9,-1456.2,1206.0,-268.8,-8817.9,495.3,1834.5,1494.9,-1258.5,-8343.9,-7458.6,59.1,-6.9,-6.0,-77.4,-193.8,-0.6,518.7,-468.0,-1654.5,0,720,268435456,71,0, 
0.4033,-446.1,15.3,-26.1,456.3,510.9,-1428.6,1203.6,-264.9,16820.7,477.6,1807.8,1466.4,-1254.3,-8119.2,4119.9,67.8,-7.2,-5.7,-99.9,-210.6,-0.6,488.7,-16.8,-1594.5,0,726,268435456,72,0, 
0.4067,-448.5,7.2,-21.0,456.3,516.0,-1426.2,1197.3,-269.7,25786.8,480.9,1815.0,1467.3,-1261.5,-8131.2,9830.1,68.1,-6.9,-6.0,-100.5,-219.9,0.0,493.5,-10.5,-1601.4,0,732,268435456,73,0, 
0.4100,-445.5,43.8,-6.9,467.7,528.6,-1462.2,1196.4,-280.8,5779.8,506.1,1825.2,1484.1,-1270.2,-8363.4,8975.4,56.4,-6.6,-6.0,-84.6,-198.3,-0.9,518.7,-469.5,-1668.6,0,738,268435456,74,0, 
0.4133,-444.9,39.0,17.1,490.5,550.8,-1479.0,1206.6,-283.8,-15338.7,520.2,1844.7,1505.7,-1243.8,-8498.4,-2013.9,54.6,-6.9,-6.0,-60.9,-178.5,-0.6,529.2,-758.1,-1700.7,0,744,268435456,75,0, 
0.4167,-445.2,38.1,-5.7,478.2,535.5,-1460.1,1209.3,-272.4,-8595.6,504.3,1832.4,1490.4,-1232.7,-8334.6,-7292.4,62.4,-7.5,-5.7,-76.5,-193.8,-0.9,515.7,-468.9,-1655.1,0,750,268435456,76,0, 
0.4200,-448.5,13.2,-21.6,455.7,508.2,-1424.7,1205.4,-268.2,16820.7,488.1,1809.9,1466.7,-1245.9,-8093.7,4272.0,72.0,-6.9,-5.7,-93.9,-219.3,-1.2,497.4,-0.6,-1587.9,0,756,268435456,77,0, 
0.4233,-450.0,8.4,-30.6,446.7,504.9,-1431.3,1199.7,-273.9,26083.2,484.8,1803.3,1466.4,-1277.7,-8108.7,9830.1,69.6,-7.2,-6.0,-99.0,-222.6,-0.6,492.0,-10.2,-1596.3,0,762,268435456,78,0, 
0.4267,-448.2,29.7,-2.4,470.7,527.7,-1468.2,1197.0,-282.9,5779.8,505.8,1830.6,1483.8,-1278.0,-8344.2,8983.8,59.1,-6.6,-5.7,-75.6,-204.3,-1.2,511.5,-450.3,-1666.8,0,768,268435456,79,0, 
0.4300,-448.5,45.0,9.9,480.9,537.6,-1487.1,1203.0,-284.4,-15486.9,520.8,1841.4,1495.8,-1257.9,-8466.0,-2115.0,54.9,-6.9,-5.4,-70.8,-201.0,-0.6,531.0,-729.0,-1706.7,0,774,268435456,80,0, 
0.4333,-447.3,35.1,-10.5,467.1,525.0,-1456.8,1202.7,-273.9,-8743.8,496.2,1822.2,1476.9,-1253.4,-8314.5,-7388.7,61.2,-6.9,-6.0,-85.2,-210.6,-0.9,500.7,-455.1,-1667.7,0,780,268435456,81,0, 
0.4367,-450.3,5.4,-31.5,438.6,495.0,-1443.9,1197.9,-273.6,16746.6,476.1,1790.7,1450.8,-1261.5,-8083.5,4198.8,75.9,-6.9,-5.7,-109.2,-231.3,-0.9,486.6,-4.2,-1606.5,0,786,268435456,82,0, 
0.4400,-456.0,0.3,-39.3,434.1,493.2,-1436.7,1191.6,-280.5,25935.0,472.8,1789.5,1445.7,-1293.6,-8119.2,9830.1,66.9,-6.9,-5.7,-110.4,-236.7,-0.6,478.5,-7.8,-1609.8,0,792,268435456,83,0, 
0.4433,-454.2,24.3,-10.5,456.3,519.6,-1477.2,1195.2,-289.8,6076.2,494.1,1814.4,1477.8,-1277.7,-8352.9,9044.1,60.3,-7.2,-5.4,-91.5,-204.3,-0.6,504.3,-468.0,-1675.2,0,798,268435456,84,0, 
0.4467,-450.6,39.3,1.8,478.5,537.6,-1488.9,1203.6,-293.1,-15412.8,516.3,1831.2,1496.7,-1260.6,-8479.8,-1945.2,56.1,-6.9,-5.7,-79.8,-190.5,-0.9,525.0,-740.7,-1696.8,0,804,268435456,85,0, 
0.4500,-452.1,21.3,-6.0,467.4,520.5,-1469.1,1206.0,-286.5,-8521.5,492.6,1814.7,1480.2,-1255.5,-8313.0,-7271.7,66.9,-6.6,-6.0,-83.1,-221.7,-0.6,501.0,-470.4,-1665.9,0,810,268435456,86,0, 
0.4533,-452.1,7.2,-41.1,438.6,490.8,-1430.7,1201.5,-280.2,16968.9,455.4,1781.7,1444.8,-1281.0,-8095.5,4299.0,76.2,-7.2,-6.3,-117.0,-232.2,-0.9,475.8,-10.2,-1600.8,0,816,268435456,87,0, 
0.4567,-458.7,-14.4,-42.9,436.8,492.9,-1438.5,1194.6,-288.6,26009.1,459.6,1779.6,1446.9,-1293.0,-8110.8,9830.1,73.2,-6.6,-6.0,-107.1,-231.0,-0.6,472.8,-14.7,-1605.0,0,822,268435456,88,0, 
0.4600,-451.5,20.7,-15.6,464.1,518.4,-1473.3,1196.1,-294.9,5928.0,486.6,1808.7,1477.2,-1285.8,-8340.6,8994.0,61.8,-7.2,-6.0,-86.4,-208.8,-0.3,512.7,-449.4,-1662.3,0,828,268435456,89,0, 
0.4633,-452.1,28.2,-5.4,479.1,546.0,-1480.2,1203.0,-294.9,-15561.0,509.7,1825.2,1496.1,-1275.3,-8457.0,-2068.5,60.3,-6.9,-5.7,-71.4,-183.0,-0.6,514.5,-719.4,-1703.1,0,834,268435456,90,0, 
0.4667,-453.6,21.9,-13.5,464.1,516.6,-1467.0,1201.8,-290.1,-8521.5,489.0,1807.5,1473.6,-1273.2,-8310.9,-7335.0,66.6,-7.5,-6.0,-88.5,-217.8,-0.6,499.5,-450.3,-1662.9,0,840,268435456,91,0, 
0.4700,-452.7,-9.0,-45.0,438.9,496.5,-1442.1,1195.5,-287.1,16894.8,467.7,1779.6,1449.3,-1286.4,-8084.1,4261.5,74.1,-6.9,-5.7,-111.3,-228.6,-0.3,479.4,-7.2,-1601.7,0,846,268435456,92,0, 
0.4733,-453.6,-6.9,-41.4,439.8,496.2,-1444.8,1188.9,-291.9,25935.0,470.4,1790.7,1452.3,-1291.5,-8108.1,9830.1,69.3,-7.2,-6.0,-109.5,-226.2,-0.6,480.3,1.5,-1608.0,0,852,268435456,93,0, 
0.4767,-450.9,16.2,-14.1,462.6,520.5,-1478.4,1190.1,-302.1,6002.1,485.4,1811.1,1475.4,-1284.3,-8349.3,9034.2,57.6,-6.6,-5.7,-87.6,-213.3,-0.6,501.6,-469.2,-1671.0,0,858,268435456,94,0, 
0.4800,-447.0,34.2,0.6,482.1,545.1,-1483.2,1204.8,-296.4,-15338.7,505.2,1830.6,1498.2,-1269.9,-8457.0,-1963.2,59.7,-7.5,-5.7,-70.5,-189.9,-0.3,522.0,-745.2,-1699.8,0,864,268435456,95,0, 
0.4833,-445.8,38.1,-2.1,473.4,525.9,-1476.3,1198.8,-287.1,-8225.1,476.7,1808.4,1479.0,-1270.8,-8304.0,-7164.3,61.8,-6.9,-5.4,-87.0,-203.7,-0.6,504.0,-490.8,-1669.2,0,870,268435456,96,0, 
0.4867,-449.7,-5.4,-43.5,444.0,503.1,-1430.1,1199.1,-284.1,17117.1,460.2,1789.8,1451.7,-1288.8,-8079.3,4431.3,74.1,-6.9,-5.7,-105.0,-222.3,-0.6,486.6,-17.4,-1593.9,0,876,268435456,97,0, 
0.4900,-453.0,-7.5,-44.1,438.3,496.5,-1447.5,1193.7,-290.7,26157.3,459.3,1787.4,1448.1,-1303.2,-8100.6,9830.1,64.5,-6.9,-5.7,-109.2,-229.5,-0.6,490.5,-28.5,-1608.9,0,882,268435456,98,0, 
0.4933,-452.7,15.3,-24.6,460.8,529.2,-1466.7,1196.7,-298.2,6002.1,496.2,1803.9,1473.6,-1294.2,-8340.9,9078.6,54.3,-7.2,-6.0,-95.4,-205.8,-0.9,500.7,-477.3,-1670.1,0,888,268435456,99,0, 
0.4967,-445.8,36.3,-4.2,474.6,536.1,-1500.9,1201.5,-299.4,-15116.4,503.4,1815.6,1489.5,-1267.2,-8450.7,-1830.9,48.6,-6.9,-6.0,-84.0,-201.3,-0.6,525.3,-752.7,-1707.3,0,894,268435456,100,0, 
0.5000,-447.9,21.0,-17.7,461.7,522.3,-1460.1,1209.0,-291.9,-8299.2,489.9,1798.2,1472.7,-1252.2,-8297.1,-7116.0,64.5,-6.9,-5.7,-97.2,-218.4,-0.9,501.3,-468.9,-1659.0,0,900,268435456,101,0, 
0.5033,-445.5,9.9,-42.3,436.5,494.7,-1443.3,1203.3,-291.3,17043.0,463.5,1781.1,1444.2,-1280.1,-8070.3,4447.2,71.1,-6.3,-5.4,-119.7,-234.0,-0.6,486.6,-18.6,-1596.9,0,906,268435456,102,0, 
0.5067,-452.4,-12.6,-46.5,436.8,503.1,-1437.3,1202.4,-295.5,26083.2,469.2,1782.6,1451.7,-1293.0,-8084.7,9830.1,71.4,-6.6,-5.7,-116.7,-231.9,-0.6,484.8,-17.4,-1598.7,0,912,268435456,103,0, 
0.5100,-444.9,23.7,-12.3,462.3,525.9,-1471.8,1208.4,-303.9,6002.1,499.8,1808.1,1479.3,-1287.6,-8314.2,9090.9,57.6,-6.9,-5.4,-95.7,-201.9,-0.9,516.6,-467.1,-1655.1,0,918,268435456,104,0, 
0.5133,-441.0,38.7,3.9,483.6,544.8,-1483.5,1215.0,-300.3,-15116.4,519.9,1834.5,1495.5,-1269.9,-8440.2,-1785.6,57.3,-7.2,-6.0,-69.9,-189.3,-0.6,533.1,-741.6,-1691.4,0,924,268435456,105,0, 
0.5167,-438.0,36.6,-6.0,476.4,534.9,-1452.9,1215.6,-287.7,-8373.3,513.3,1815.9,1485.0,-1251.6,-8269.2,-7178.1,66.3,-6.9,-6.3,-79.8,-202.5,-0.9,522.6,-436.8,-1644.3,0,930,268435456,106,0, 
0.5200,-443.4,7.5,-29.7,448.8,504.6,-1424.7,1210.2,-283.8,17043.0,480.9,1791.6,1455.6,-1258.2,-8052.9,4396.5,77.7,-6.6,-5.7,-98.1,-222.0,-0.9,497.1,8.4,-1580.7,0,936,268435456,107,0, 
0.5233,-444.0,12.0,-30.0,444.6,501.9,-1440.0,1200.3,-291.9,26083.2,482.7,1789.8,1454.4,-1281.9,-8073.3,9830.1,70.5,-6.6,-6.0,-103.5,-221.4,-1.2,499.5,6.9,-1592.7,0,942,268435456,108,0, 
0.5267,-445.8,18.9,-9.9,471.0,533.7,-1456.5,1204.2,-299.7,6076.2,515.1,1815.0,1482.9,-1269.9,-8303.1,9083.4,65.1,-6.9,-5.7,-78.3,-195.0,-0.6,527.1,-456.0,-1648.2,0,948,268435456,109,0, 
0.5300,-440.7,50.4,4.8,486.3,551.1,-1480.8,1213.8,-298.8,-15264.6,529.2,1826.4,1502.7,-1247.7,-8424.9,-1830.9,64.8,-6.9,-6.0,-68.7,-180.9,-0.6,540.0,-737.7,-1682.4,0,954,268435456,110,0, 
0.5333,-444.3,29.7,-2.1,477.6,540.9,-1455.3,1218.0,-286.5,-8225.1,514.2,1819.8,1489.5,-1247.7,-8278.5,-7098.9,77.4,-6.6,-6.0,-72.6,-189.3,-0.6,523.5,-437.4,-1639.8,0,960,268435456,111,0, 
0.5367,-443.1,11.1,-33.3,448.2,509.4,-1421.1,1209.0,-284.1,17117.1,486.3,1787.1,1458.6,-1247.1,-8053.8,4482.6,79.2,-6.9,-6.0,-101.1,-225.6,-0.6,499.5,9.3,-1585.8,0,966,268435456,112,0, 
0.5400,-446.1,4.8,-35.7,445.2,505.5,-1429.5,1199.4,-292.2,26157.3,474.3,1782.9,1461.0,-1266.3,-8069.4,9830.1,73.8,-6.9,-6.0,-104.7,-221.4,-0.9,492.6,3.9,-1589.4,0,972,268435456,113,0, 
0.5433,-441.9,29.4,-17.4,463.8,529.5,-1458.6,1201.2,-301.8,6150.3,500.7,1804.2,1484.4,-1253.1,-8303.4,9126.6,64.2,-6.9,-5.7,-87.0,-203.1,-0.6,517.2,-465.9,-1660.8,0,978,268435456,114,0, 
0.5467,-443.7,36.9,3.3,485.1,546.6,-1484.7,1208.7,-304.2,-15042.3,522.0,1827.6,1502.7,-1233.3,-8425.5,-1684.2,67.2,-6.9,-5.7,-66.9,-192.0,-0.6,543.9,-733.5,-1688.4,0,984,268435456,115,0, 
0.5500,-447.3,29.1,-9.9,471.0,530.4,-1452.0,1209.9,-298.8,-8225.1,497.4,1809.9,1480.5,-1238.1,-8265.3,-6989.4,72.6,-6.9,-6.0,-80.4,-207.3,-0.6,521.1,-453.6,-1644.9,0,990,268435456,116,0, 
0.5533,-452.4,-0.3,-37.2,446.7,502.8,-1433.1,1203.3,-292.5,17265.3,469.8,1786.8,1454.7,-1253.1,-8044.8,4572.3,80.1,-6.6,-6.0,-102.3,-223.8,-0.6,485.7,-15.0,-1590.3,0,996,268435456,117,0, 
0.5567,-455.1,-6.0,-39.0,445.5,506.1,-1410.0,1197.9,-297.3,26231.4,477.6,1777.8,1454.1,-1280.1,-8064.3,9830.1,74.1,-7.2,-6.0,-105.9,-226.5,-0.6,481.8,-12.3,-1594.8,0,1002,268435456,118,0, 
0.5600,-448.5,26.4,-19.5,459.3,521.4,-1473.9,1194.0,-308.7,6298.5,511.2,1800.9,1479.9,-1280.7,-8298.3,9132.3,63.3,-6.9,-6.0,-84.6,-205.8,-0.9,514.2,-460.8,-1659.6,0,1008,268435456,119,0, 
0.5633,-445.5,49.5,-1.5,476.4,540.9,-1485.0,1198.8,-302.4,-14968.2,528.3,1801.5,1486.2,-1265.1,-8415.3,-1667.1,57.0,-6.6,-5.4,-82.2,-202.2,-0.6,521.4,-750.3,-1695.9,0,1014,268435456,120,0, 
0.5667,-442.8,21.6,-14.4,467.4,531.3,-1449.0,1209.3,-297.3,-8076.9,507.9,1797.3,1473.6,-1254.9,-8241.9,-6939.0,73.8,-6.6,-6.0,-84.9,-202.8,-0.9,504.9,-454.8,-1645.8,0,1020,268435456,121,0, 
0.5700,-444.6,2.1,-39.6,444.3,498.0,-1424.4,1202.1,-289.2,17487.6,481.8,1776.6,1449.0,-1267.8,-8032.8,4638.3,84.9,-7.2,-5.7,-114.3,-227.1,-0.3,476.1,8.4,-1584.3,0,1026,268435456,122,0, 
0.5733,-442.2,2.4,-39.3,442.5,497.4,-1434.9,1194.9,-292.5,26305.5,489.9,1780.2,1451.7,-1279.2,-8034.3,9830.1,76.8,-6.9,-5.7,-107.4,-228.6,-0.6,484.2,15.6,-1593.3,0,1032,268435456,123,0, 
0.5767,-438.3,24.0,-16.8,462.3,522.6,-1458.0,1196.4,-303.9,6372.6,507.6,1794.0,1472.1,-1272.0,-8273.4,9145.2,69.6,-6.6,-5.7,-100.8,-212.7,-0.6,504.3,-445.8,-1664.7,0,1038,268435456,124,0, 
0.5800,-441.6,39.0,-7.5,479.1,538.8,-1472.1,1203.0,-306.3,-14968.2,514.5,1808.7,1486.2,-1268.7,-8395.5,-1606.5,63.9,-6.9,-6.0,-87.9,-195.3,-0.9,524.4,-725.7,-1695.0,0,1044,268435456,125,0, 
0.5833,-441.6,34.5,-6.0,471.9,528.6,-1461.3,1200.6,-294.9,-7928.7,499.2,1802.1,1478.1,-1257.9,-8252.1,-6844.2,71.1,-7.2,-5.7,-90.0,-204.6,-0.3,509.7,-450.9,-1645.2,0,1050,268435456,126,0, 
0.5867,-449.7,0.3,-37.5,447.0,506.7,-1424.7,1200.0,-288.6,17561.7,472.5,1781.1,1459.5,-1274.1,-8024.1,4740.9,81.3,-6.9,-5.7,-109.8,-218.1,-0.9,492.9,5.4,-1585.8,0,1056,268435456,127,0, 
0.5900,-452.7,1.5,-33.3,444.3,504.3,-1430.1,1196.4,-298.2,26527.8,469.5,1777.8,1454.7,-1281.0,-8051.7,9830.1,80.1,-7.2,-5.7,-114.0,-217.8,-0.6,497.7,2.7,-1587.9,0,1062,268435456,128,0, 
0.5933,-445.2,21.9,-12.3,466.2,528.9,-1463.1,1200.0,-308.4,6446.7,498.0,1797.6,1482.3,-1274.7,-8280.6,9207.0,62.4,-6.9,-6.0,-92.7,-200.7,-0.9,517.2,-453.3,-1647.9,0,1068,268435456,129,0, 
0.5967,-445.8,42.3,6.0,481.2,542.7,-1473.3,1203.6,-309.6,-14597.7,508.8,1811.4,1491.0,-1263.6,-8396.1,-1426.2,54.9,-6.9,-6.0,-83.7,-196.2,-0.3,535.8,-732.3,-1685.4,0,1074,268435456,130,0, 
0.6000,-446.1,21.0,-11.4,469.8,528.9,-1455.6,1206.0,-299.1,-7854.6,506.4,1804.2,1480.5,-1248.6,-8227.5,-6689.1,59.7,-6.9,-5.7,-96.6,-198.9,-0.9,524.7,-449.4,-1642.5,0,1080,268435456,131,0, 
0.6033,-449.7,6.3,-29.4,450.6,504.0,-1422.9,1200.0,-291.3,17858.1,476.4,1780.2,1453.2,-1260.3,-8019.6,4895.1,66.0,-6.9,-6.0,-109.8,-219.6,-0.9,496.8,-13.8,-1583.7,0,1086,268435456,132,0, 
0.6067,-450.9,1.2,-38.1,442.8,500.7,-1427.4,1197.0,-300.0,26676.0,472.2,1772.7,1453.2,-1271.7,-8033.1,9830.1,68.7,-6.9,-5.7,-116.4,-223.8,-0.6,496.2,-13.8,-1587.6,0,1092,268435456,133,0, 
0.6100,-446.1,21.0,-10.8,467.4,528.6,-1445.1,1208.1,-302.7,6669.0,506.1,1802.1,1479.6,-1268.1,-8272.8,9267.3,58.5,-6.6,-5.7,-87.3,-205.8,-1.2,523.2,-456.3,-1647.6,0,1098,268435456,134,0, 
0.6133,-442.8,39.9,7.2,488.1,551.7,-1470.6,1213.2,-306.0,-14597.7,530.1,1818.9,1506.0,-1247.1,-8380.5,-1274.4,57.3,-7.2,-5.7,-70.2,-179.4,-0.9,551.1,-731.1,-1671.0,0,1104,268435456,135,0, 
0.6167,-439.5,32.7,-3.3,480.0,538.5,-1437.3,1217.7,-292.5,-7854.6,509.1,1806.3,1485.9,-1240.5,-8203.8,-6628.8,65.7,-6.6,-5.7,-80.7,-194.1,-0.9,531.9,-425.7,-1629.6,0,1110,268435456,136,0, 
0.6200,-442.2,2.7,-30.0,454.2,516.6,-1402.5,1217.4,-285.9,17709.9,485.1,1782.3,1460.4,-1264.5,-7983.9,4880.1,78.9,-7.2,-5.7,-99.3,-207.3,-0.6,501.3,37.5,-1565.1,0,1116,268435456,137,0, 
0.6233,-441.3,8.4,-33.9,447.3,500.7,-1417.8,1210.5,-296.1,26898.3,484.2,1777.2,1454.4,-1282.5,-8009.1,9830.1,74.4,-6.9,-6.3,-100.8,-220.2,-0.9,498.6,11.1,-1578.9,0,1122,268435456,138,0, 
0.6267,-445.8,17.1,-10.5,464.7,531.3,-1455.0,1209.6,-308.7,6817.2,503.4,1801.2,1482.6,-1273.5,-8243.1,9297.3,64.2,-6.9,-5.7,-82.8,-196.2,-0.6,528.0,-451.2,-1644.3,0,1128,268435456,139,0, 
0.6300,-441.3,41.7,7.5,486.6,550.2,-1469.7,1218.0,-307.5,-14597.7,521.7,1814.4,1506.3,-1254.0,-8352.0,-1204.5,60.9,-6.6,-6.0,-64.5,-176.1,-0.6,547.2,-705.3,-1676.1,0,1134,268435456,140,0, 
0.6333,-441.9,22.5,-14.1,468.9,528.0,-1446.0,1222.5,-297.0,-7484.1,507.0,1800.0,1480.8,-1248.3,-8194.5,-6567.9,74.1,-6.9,-5.4,-88.5,-200.1,-0.3,527.1,-416.7,-1632.3,0,1140,268435456,141,0, 
0.6367,-444.9,2.1,-34.5,452.7,507.6,-1412.4,1215.0,-291.0,18154.5,480.0,1775.7,1455.6,-1255.5,-7986.3,5114.4,81.6,-6.9,-6.0,-105.3,-218.7,-0.9,495.0,7.2,-1580.1,0,1146,268435456,142,0, 
0.6400,-444.6,4.2,-37.5,446.7,497.7,-1419.6,1206.9,-298.5,26898.3,476.1,1777.2,1452.0,-1287.6,-8006.1,9830.1,78.3,-6.9,-6.3,-112.2,-218.1,-0.9,495.0,6.3,-1582.8,0,1152,268435456,143,0, 
0.6433,-442.5,22.5,-21.9,462.9,521.7,-1453.5,1206.9,-309.3,6817.2,501.0,1789.5,1473.0,-1281.9,-8245.5,9340.2,69.3,-6.9,-6.0,-87.9,-203.1,0.0,522.6,-447.6,-1647.3,0,1158,0,144,0, 
0.6467,-443.4,23.1,1.5,487.5,545.1,-1461.6,1215.6,-309.3,-14301.3,523.2,1817.4,1496.7,-1262.7,-8367.0,-1045.8,67.8,-6.6,-5.7,-69.0,-181.8,-0.6,534.3,-714.9,-1675.5,0,1164,0,145,0, 
0.6500,-440.1,27.0,-11.7,475.8,528.9,-1447.5,1213.8,-302.1,-7261.8,504.9,1800.3,1475.1,-1260.9,-8203.5,-6325.8,67.5,-7.2,-5.7,-89.7,-197.1,-0.3,518.7,-436.2,-1648.5,0,1170,0,146,0, 
0.6533,-441.0,2.7,-30.6,454.5,506.4,-1413.9,1211.4,-295.5,18154.5,492.0,1783.2,1457.1,-1281.9,-7970.4,5202.3,76.5,-6.9,-5.7,-105.0,-213.3,-0.3,497.1,16.5,-1580.7,0,1176,0,147,0, 
0.6567,-443.7,0.9,-37.5,450.6,504.3,-1417.2,1205.4,-299.7,27046.5,478.2,1782.0,1458.9,-1306.2,-7996.5,9830.1,72.0,-6.9,-6.0,-112.8,-212.1,-0.6,494.4,13.5,-1587.9,0,1182,0,148,0, 
0.6600,-437.4,23.7,-7.2,474.6,529.5,-1445.4,1207.8,-307.8,6817.2,503.4,1809.0,1485.6,-1287.0,-8216.7,9347.4,63.3,-6.6,-5.7,-90.3,-193.2,-0.6,523.8,-432.6,-1648.8,0,1188,268435456,149,0, 
0.6633,-435.9,42.9,15.6,492.9,549.6,-1459.5,1216.8,-304.2,-14079.0,526.8,1824.9,1504.2,-1269.3,-8332.8,-1006.5,62.1,-6.9,-6.0,-71.7,-179.7,-0.6,540.3,-712.8,-1685.7,0,1194,268435456,150,0, 
0.6667,-436.2,30.9,1.2,481.5,540.6,-1435.5,1212.9,-294.6,-6965.4,506.4,1801.5,1485.0,-1261.2,-8183.4,-6118.5,66.6,-7.2,-5.1,-90.9,-191.4,-0.3,527.1,-445.8,-1642.2,0,1200,268435456,151,0, 
0.6700,-437.7,7.2,-34.8,450.0,500.4,-1415.1,1206.0,-296.1,18376.8,481.2,1779.0,1454.1,-1272.3,-7962.6,5376.9,71.1,-6.6,-6.0,-113.4,-221.7,-1.5,495.0,12.6,-1581.6,0,1206,268435456,152,0, 
0.6733,-434.1,0.9,-32.1,453.3,512.4,-1397.1,1203.3,-293.4,27194.7,480.0,1776.9,1453.2,-1287.0,-7971.6,9830.1,70.5,-7.2,-6.0,-108.3,-218.7,-0.3,497.1,40.2,-1586.1,0,1212,268435456,153,0, 
0.6767,-436.5,24.3,-14.4,469.2,528.0,-1461.3,1201.5,-307.8,7187.7,509.4,1789.5,1478.1,-1287.0,-8210.1,9426.0,61.8,-7.8,-5.7,-96.3,-195.9,-0.6,524.7,-429.3,-1651.5,0,1218,268435456,154,0, 
0.6800,-435.6,32.4,5.1,488.7,546.9,-1465.2,1206.9,-303.3,-14079.0,525.9,1812.6,1497.0,-1269.9,-8324.7,-771.3,61.2,-6.9,-5.7,-78.9,-187.8,-1.2,545.7,-708.3,-1677.3,0,1224,268435456,155,0, 
0.6833,-432.6,37.2,-6.3,483.9,534.6,-1439.7,1208.1,-293.1,-7113.6,510.3,1805.7,1485.6,-1264.2,-8158.5,-6040.8,68.1,-7.2,-6.3,-88.5,-185.7,-0.6,529.2,-422.7,-1635.0,0,1230,268435456,156,0, 
0.6867,-438.0,1.8,-37.8,456.6,509.1,-1403.4,1205.1,-287.4,18599.1,487.2,1774.2,1456.8,-1267.5,-7929.3,5444.4,77.7,-6.9,-6.3,-115.2,-210.9,-1.2,502.5,36.0,-1574.1,0,1236,268435456,157,0, 
0.6900,-438.9,-1.5,-38.1,450.0,504.6,-1411.5,1199.4,-294.6,27417.0,487.8,1769.7,1456.2,-1289.1,-7949.7,9830.1,71.4,-6.9,-6.0,-118.5,-214.5,-0.6,503.4,18.6,-1581.9,0,1242,268435456,158,0, 
0.6933,-435.0,23.4,-18.3,471.9,530.7,-1442.1,1202.4,-304.8,7261.8,508.5,1792.2,1477.5,-1282.8,-8183.1,9470.1,65.4,-6.9,-5.7,-101.7,-196.2,-0.9,521.1,-436.2,-1637.7,0,1248,268435456,159,0, 
0.6967,-429.0,45.0,1.5,488.7,543.6,-1470.9,1205.7,-306.0,-13930.8,525.3,1807.8,1492.5,-1269.3,-8301.0,-614.7,57.6,-6.9,-5.7,-81.6,-183.0,-0.6,546.3,-714.3,-1678.5,0,1254,268435456,160,0, 
0.7000,-432.0,30.9,-16.8,477.6,534.0,-1438.2,1205.7,-296.7,-6520.8,516.6,1793.1,1475.1,-1266.6,-8135.7,-5777.4,63.6,-7.2,-5.4,-94.2,-192.3,-0.6,530.1,-423.3,-1628.7,0,1260,268435456,161,0, 
0.7033,-437.7,6.3,-42.9,451.5,502.5,-1410.0,1200.3,-291.9,19117.8,482.1,1763.7,1450.5,-1280.1,-7919.4,5810.1,67.2,-6.9,-6.0,-121.8,-220.2,-0.6,499.5,-0.9,-1574.1,0,1266,268435456,162,0, 
0.7067,-440.1,-0.9,-45.3,446.7,501.3,-1415.4,1194.3,-299.4,28083.9,478.2,1760.7,1444.8,-1303.5,-7928.7,9830.1,64.2,-6.6,-6.0,-124.5,-221.1,-0.6,492.9,11.7,-1579.8,0,1272,268435456,163,0, 
0.7100,-437.4,21.6,-17.1,468.3,523.8,-1451.4,1195.8,-313.5,8151.0,500.4,1789.2,1471.2,-1296.6,-8164.5,9662.4,50.7,-6.9,-6.0,-94.2,-199.5,-0.6,521.1,-447.0,-1647.3,0,1278,268435456,164,0, 
0.7133,-434.1,37.5,-3.0,487.8,542.1,-1460.1,1204.8,-310.2,-12893.4,523.2,1806.0,1490.4,-1270.5,-8277.0,81.9,49.2,-6.9,-5.4,-82.2,-188.1,-0.6,539.4,-721.2,-1674.0,0,1284,268435456,165,0, 
0.7167,-438.3,27.6,-14.4,476.7,529.2,-1434.9,1206.0,-302.7,-5853.9,500.1,1787.7,1474.5,-1272.6,-8105.4,-5124.9,58.8,-6.9,-6.0,-94.5,-194.7,-1.5,519.6,-436.2,-1632.6,0,1290,268435456,166,0, 
0.7200,-435.9,8.1,-35.4,453.0,506.7,-1392.0,1201.5,-291.0,19488.3,480.6,1768.2,1442.7,-1287.6,-7873.2,6144.3,64.8,-6.9,-5.4,-119.4,-226.5,-0.3,490.5,46.5,-1570.5,0,1296,268435456,167,0, 
0.7233,-444.0,-3.3,-41.4,446.7,496.5,-1411.8,1194.3,-303.3,28602.6,476.7,1765.8,1438.2,-1304.4,-7899.0,9830.1,62.7,-6.6,-5.7,-120.6,-223.5,-0.6,501.6,15.0,-1589.1,0,1302,268435456,168,0, 
0.7267,-439.5,32.4,-16.2,475.2,535.2,-1428.9,1202.4,-304.5,8595.6,500.7,1791.3,1469.4,-1325.7,-8134.8,9762.9,53.1,-6.9,-6.0,-108.0,-192.9,-0.9,519.9,-442.5,-1645.5,0,1308,268435456,169,0, 
0.7300,-439.8,28.5,-6.0,488.7,541.8,-1458.3,1206.0,-315.0,-12893.4,525.6,1801.5,1485.6,-1288.8,-8259.0,449.4,51.6,-6.6,-6.0,-90.0,-187.2,-0.6,533.1,-720.9,-1683.6,0,1314,268435456,170,0, 
0.7333,-440.1,21.9,-15.3,476.1,530.4,-1441.2,1210.8,-306.6,-5557.5,509.1,1782.9,1468.8,-1290.9,-8095.2,-4820.7,62.7,-6.9,-5.7,-101.1,-192.0,-0.3,531.6,-436.8,-1638.9,0,1320,268435456,171,0, 
0.7367,-438.9,1.2,-43.5,449.4,498.0,-1410.6,1205.4,-303.6,19858.8,476.4,1764.0,1440.3,-1301.4,-7867.8,6430.8,69.3,-7.2,-5.7,-122.7,-229.2,-0.6,497.7,3.0,-1580.4,0,1326,268435456,172,0, 
0.7400,-443.7,-8.7,-40.2,453.3,507.3,-1403.1,1204.5,-303.0,28899.0,478.5,1768.2,1445.7,-1305.3,-7878.9,9830.1,73.2,-6.9,-6.0,-119.4,-216.6,-0.9,501.6,3.3,-1584.6,0,1332,268435456,173,0, 
0.7433,-441.0,20.4,-17.7,472.5,530.1,-1440.3,1204.8,-313.5,8595.6,496.5,1784.1,1468.8,-1303.8,-8109.0,9819.6,62.1,-6.9,-5.7,-113.1,-199.5,-0.9,519.6,-453.0,-1650.9,0,1338,268435456,174,0, 
0.7467,-435.9,30.9,-3.0,485.7,542.7,-1460.1,1209.9,-316.2,-12374.7,519.9,1803.9,1486.8,-1275.3,-8215.5,628.8,57.0,-6.9,-5.7,-100.5,-189.9,-0.6,542.1,-727.8,-1680.6,0,1344,268435456,175,0, 
0.7500,-435.9,17.4,-17.4,473.4,524.7,-1429.5,1208.1,-307.8,-5335.2,505.2,1788.9,1468.2,-1275.6,-8041.2,-4616.1,61.8,-7.2,-6.3,-111.9,-205.2,-0.9,522.0,-434.7,-1633.8,0,1350,268435456,176,0, 
0.7533,-438.6,-7.2,-37.8,452.7,504.9,-1404.0,1198.5,-299.7,20155.2,484.2,1768.2,1449.3,-1278.9,-7823.7,6611.4,70.2,-7.2,-6.0,-133.2,-217.8,-0.9,504.0,2.1,-1584.9,0,1356,268435456,177,0, 
0.7567,-437.7,-1.2,-36.0,450.6,501.0,-1399.5,1196.7,-305.1,28899.0,482.7,1760.7,1446.6,-1289.1,-7824.9,9830.1,69.6,-7.2,-6.0,-135.6,-224.1,-0.3,488.4,17.4,-1579.8,0,1362,268435456,178,0, 
0.7600,-431.4,20.4,-15.6,468.0,522.0,-1449.6,1195.5,-313.5,8892.0,517.8,1789.8,1472.1,-1280.7,-8057.4,9830.1,58.5,-6.6,-5.7,-112.2,-201.9,-0.3,520.8,-449.7,-1647.6,0,1368,268435456,179,0, 
0.7633,-432.0,37.2,4.5,491.1,543.9,-1452.6,1202.4,-313.5,-12300.6,530.1,1809.6,1487.4,-1271.4,-8171.7,732.9,54.9,-6.9,-6.3,-90.9,-189.9,-0.9,540.6,-726.0,-1676.7,0,1374,268435456,180,0, 
0.7667,-431.4,28.5,-3.9,483.6,533.7,-1431.3,1201.8,-307.5,-5112.9,509.1,1790.7,1474.2,-1266.9,-8025.9,-4473.9,59.1,-6.9,-5.7,-110.7,-204.0,-0.9,529.2,-462.3,-1632.9,0,1380,268435456,181,0, 
0.7700,-438.3,-3.3,-25.2,458.1,502.5,-1405.2,1191.9,-302.4,20525.7,485.4,1768.2,1447.8,-1278.0,-7805.1,6760.2,63.6,-6.9,-5.4,-123.9,-213.3,-0.3,498.6,-14.7,-1575.6,0,1386,268435456,182,0, 
0.7733,-436.5,-0.6,-42.0,444.0,490.5,-1418.4,1186.2,-315.3,28973.1,483.9,1752.3,1433.4,-1284.9,-7827.0,9830.1,62.1,-6.9,-5.4,-136.5,-232.5,-0.6,496.5,-16.5,-1588.2,0,1392,268435456,183,0, 
0.7767,-435.3,15.9,-16.8,464.7,518.4,-1444.2,1189.8,-323.1,8669.7,512.1,1779.3,1458.6,-1278.3,-8043.0,9830.1,56.1,-6.9,-6.0,-116.4,-214.5,-0.9,522.3,-458.7,-1647.9,0,1398,268435456,184,0, 
0.7800,-428.7,42.3,7.5,483.9,533.1,-1464.3,1194.9,-320.7,-12448.8,534.0,1803.0,1474.5,-1254.6,-8162.4,711.9,47.7,-6.6,-5.7,-92.4,-201.9,-0.6,534.3,-734.4,-1684.5,0,1404,268435456,185,0, 
0.7833,-432.9,22.5,-14.7,477.3,525.0,-1426.2,1200.9,-306.3,-5038.8,523.2,1787.7,1468.8,-1254.6,-7997.7,-4541.4,56.1,-6.9,-5.4,-107.7,-205.2,-0.9,525.0,-449.4,-1633.2,0,1410,268435456,186,0, 
0.7867,-435.3,-2.1,-33.3,450.0,491.4,-1400.4,1195.5,-300.0,20229.3,494.7,1763.7,1440.6,-1266.3,-7770.3,6643.8,63.6,-6.9,-5.7,-127.5,-234.0,-0.6,501.6,6.3,-1572.6,0,1416,268435456,187,0, 
0.7900,-441.0,-6.3,-42.3,445.5,495.9,-1407.3,1192.5,-306.3,28899.0,489.9,1757.4,1438.5,-1276.2,-7788.6,9830.1,60.0,-7.2,-6.3,-135.3,-227.4,-0.6,499.8,-3.0,-1574.7,0,1422,268435456,188,0, 
0.7933,-434.7,19.8,-12.0,474.6,523.5,-1429.5,1203.9,-313.8,8743.8,520.2,1788.6,1471.5,-1275.6,-8030.1,9830.1,53.7,-6.9,-5.7,-104.7,-203.4,-0.6,528.6,-453.9,-1639.8,0,1428,268435456,189,0, 
0.7967,-437.4,35.1,4.5,491.7,540.0,-1451.4,1210.5,-313.8,-12448.8,533.7,1801.8,1490.7,-1255.5,-8149.2,637.8,51.9,-6.9,-5.4,-89.4,-187.8,-0.6,550.2,-741.3,-1681.2,0,1434,268435456,190,0, 
0.8000,-436.8,27.6,-7.2,477.3,525.6,-1420.2,1213.5,-303.3,-5187.0,513.9,1783.8,1467.9,-1258.2,-8000.7,-4576.2,57.6,-6.9,-5.7,-109.5,-203.1,-0.6,523.8,-459.6,-1631.1,0,1440,268435456,191,0, 
0.8033,-440.1,-3.9,-35.4,455.4,501.9,-1404.9,1208.4,-301.5,20081.1,504.0,1766.7,1446.3,-1263.6,-7769.7,6645.9,71.1,-6.9,-5.4,-123.3,-218.1,-0.6,515.1,-16.5,-1566.3,0,1446,268435456,192,0, 
0.8067,-442.8,-5.4,-34.8,450.0,503.1,-1403.1,1204.5,-304.5,28824.9,488.7,1765.5,1449.6,-1281.0,-7783.2,9830.1,71.4,-6.6,-5.7,-126.9,-214.2,-0.9,511.5,-0.3,-1574.7,0,1452,268435456,193,0, 
0.8100,-439.5,22.2,-8.1,474.9,531.9,-1434.6,1206.6,-308.4,8447.4,519.0,1791.9,1476.0,-1278.6,-8021.1,9828.3,58.8,-7.2,-6.0,-102.3,-192.0,-0.6,537.6,-464.4,-1637.4,0,1458,268435456,194,0, 
0.8133,-428.7,50.4,16.2,498.9,550.8,-1443.3,1219.8,-302.4,-12597.0,542.7,1807.2,1494.6,-1261.5,-8146.2,543.3,58.2,-6.6,-6.0,-84.0,-176.4,-0.3,553.5,-736.8,-1669.2,0,1464,268435456,195,0, 
0.8167,-436.2,12.3,-10.8,481.5,536.4,-1423.8,1220.7,-300.6,-5409.3,532.5,1791.6,1484.1,-1246.2,-7971.0,-4732.2,66.6,-6.9,-6.0,-91.8,-185.1,-0.9,531.9,-441.3,-1620.9,0,1470,268435456,196,0, 
0.8200,-438.9,1.5,-25.5,456.3,507.9,-1399.2,1212.3,-290.1,20081.1,496.5,1763.7,1449.3,-1274.1,-7755.9,6525.3,68.7,-7.2,-6.3,-120.3,-216.3,-0.6,504.6,7.2,-1569.3,0,1476,268435456,197,0, 
0.8233,-440.4,1.5,-33.9,448.5,496.5,-1406.7,1213.2,-297.3,28602.6,498.3,1762.2,1446.3,-1295.4,-7768.5,9830.1,71.4,-7.5,-6.0,-125.4,-226.2,-0.6,504.9,7.5,-1576.5,0,1482,268435456,198,0, 
0.8267,-438.0,15.9,-8.1,474.3,532.5,-1432.8,1212.6,-303.0,8447.4,520.2,1785.0,1469.7,-1294.2,-8009.4,9802.2,62.7,-6.9,-6.0,-103.8,-202.5,-0.6,533.1,-463.5,-1639.8,0,1488,268435456,199,0, 
0.8300,-441.9,29.7,3.6,492.0,543.3,-1443.0,1217.4,-303.3,-12745.2,523.8,1798.8,1485.0,-1272.6,-8135.4,438.9,57.9,-7.2,-6.0,-90.9,-179.7,-0.6,541.8,-726.3,-1672.8,0,1494,268435456,200,0, 
0.8333,-441.6,24.3,-9.6,481.2,527.7,-1423.2,1215.9,-290.7,-5557.5,504.3,1784.7,1467.6,-1260.3,-7980.6,-4785.3,57.9,-6.9,-6.0,-102.0,-202.5,-0.6,529.8,-448.2,-1635.9,0,1500,268435456,201,0, 
0.8367,-438.3,5.1,-32.7,459.3,502.8,-1395.6,1215.9,-279.6,19932.9,480.3,1765.8,1450.8,-1274.1,-7743.0,6425.4,73.8,-6.9,-6.0,-126.6,-219.0,-0.3,502.5,31.2,-1561.8,0,1506,268435456,202,0, 
0.8400,-439.2,-4.8,-28.8,459.0,506.1,-1399.5,1207.8,-286.2,28602.6,487.2,1773.0,1452.0,-1289.4,-7764.0,9830.1,66.3,-6.9,-6.0,-121.2,-213.9,-0.9,500.1,12.6,-1569.0,0,1512,268435456,203,0, 
0.8433,-435.9,27.0,-6.3,476.7,525.3,-1444.2,1202.7,-294.3,8299.2,510.3,1789.2,1473.0,-1287.9,-8007.9,9774.0,51.9,-6.9,-6.0,-99.9,-198.6,-0.3,525.9,-466.5,-1642.2,0,1518,268435456,204,0, 
0.8467,-436.8,37.5,9.3,494.4,546.0,-1452.3,1212.9,-289.2,-12819.3,535.8,1798.8,1487.1,-1254.0,-8134.5,379.8,48.3,-6.9,-6.0,-86.1,-183.6,-0.9,549.3,-739.2,-1673.4,0,1524,268435456,205,0, 
0.8500,-439.5,22.5,-2.1,479.1,527.4,-1431.3,1209.3,-284.4,-5483.4,502.8,1781.4,1467.9,-1250.1,-7969.5,-4806.0,55.2,-6.6,-6.0,-107.7,-201.6,-0.6,529.8,-444.0,-1633.2,0,1530,268435456,206,0, 
0.8533,-438.9,0.3,-31.5,451.8,500.7,-1403.7,1209.3,-277.2,20155.2,483.9,1762.5,1443.0,-1264.5,-7756.2,6507.0,65.7,-7.2,-6.0,-124.2,-218.1,-0.6,498.9,-2.1,-1580.1,0,1536,268435456,207,0, 
0.8567,-443.4,-2.1,-24.0,455.1,499.5,-1410.0,1203.9,-281.4,28602.6,479.1,1761.3,1443.3,-1287.0,-7780.8,9830.1,61.8,-6.6,-5.7,-126.6,-220.5,-0.6,501.6,-10.8,-1579.2,0,1542,268435456,208,0, 
0.8600,-441.9,11.7,-14.1,474.9,527.1,-1434.6,1203.6,-295.8,8447.4,512.4,1783.5,1468.8,-1273.5,-8012.1,9794.7,53.4,-6.6,-5.7,-105.0,-189.3,-0.6,528.3,-468.9,-1646.7,0,1548,268435456,209,0, 
0.8633,-440.4,32.7,2.7,486.3,534.6,-1460.4,1207.2,-298.2,-12671.1,528.3,1796.7,1482.9,-1257.9,-8137.5,529.2,48.6,-6.9,-5.7,-95.4,-192.3,-0.6,543.9,-748.5,-1683.6,0,1554,268435456,210,0, 
0.8667,-440.4,12.9,-12.6,470.4,513.6,-1446.3,1205.1,-289.8,-5261.1,509.1,1781.1,1460.1,-1241.7,-7974.9,-4540.5,60.0,-6.9,-6.0,-105.9,-209.1,-1.2,525.6,-465.3,-1643.7,0,1560,268435456,211,0, 
0.8700,-442.5,-4.8,-34.8,444.9,489.6,-1404.9,1202.7,-284.1,20377.5,477.6,1752.6,1430.7,-1264.5,-7748.1,6681.0,65.1,-7.2,-6.3,-132.9,-232.2,-0.3,496.2,-14.1,-1579.5,0,1566,268435456,212,0, 
0.8733,-444.3,-15.3,-49.5,441.0,490.2,-1410.9,1201.8,-292.2,29121.3,486.9,1757.4,1432.8,-1275.9,-7777.5,9830.1,67.8,-6.6,-5.7,-129.0,-232.2,-1.5,499.8,-24.0,-1583.7,0,1572,268435456,213,0, 
0.8767,-441.6,8.7,-20.7,465.9,517.8,-1440.6,1204.5,-298.5,8817.9,513.3,1772.7,1459.8,-1271.4,-8000.1,9830.1,58.5,-6.9,-6.0,-124.2,-203.7,-0.6,520.2,-468.0,-1639.5,0,1578,268435456,214,0, 
0.8800,-440.4,26.1,0.3,483.3,531.9,-1460.7,1211.4,-295.2,-12152.4,528.6,1791.9,1479.9,-1256.1,-8112.9,805.8,58.2,-6.9,-5.7,-98.7,-196.8,-0.6,551.1,-735.0,-1668.3,0,1584,268435456,215,0, 
0.8833,-439.8,15.0,-10.5,471.9,520.2,-1431.9,1213.8,-284.7,-4890.6,517.2,1779.9,1462.2,-1255.8,-7951.8,-4322.7,64.8,-6.9,-6.3,-113.7,-203.7,-0.9,536.4,-435.6,-1625.1,0,1590,268435456,216,0, 
0.8867,-439.2,-2.1,-32.7,451.2,494.1,-1401.9,1211.4,-275.7,20673.9,490.5,1765.8,1441.5,-1260.6,-7727.7,6872.4,75.9,-6.9,-5.7,-131.4,-217.5,-0.6,505.2,22.2,-1570.5,0,1596,268435456,217,0, 
0.8900,-445.2,-8.4,-36.3,450.3,497.4,-1405.8,1209.3,-282.6,29343.6,493.2,1763.7,1441.5,-1267.2,-7750.8,9830.1,72.0,-6.9,-6.3,-133.2,-216.9,-0.6,516.3,4.5,-1563.0,0,1602,268435456,218,0, 
0.8933,-441.6,11.1,-9.6,477.3,527.7,-1433.4,1211.4,-290.4,8817.9,526.2,1788.3,1470.6,-1246.5,-7965.6,9830.1,58.8,-6.9,-6.0,-102.9,-193.8,-1.2,546.6,-438.6,-1627.2,0,1608,268435456,219,0, 
0.8967,-435.0,39.0,10.8,492.6,543.3,-1447.5,1220.1,-285.3,-12004.2,536.1,1796.7,1482.3,-1239.0,-8083.5,928.5,57.6,-6.9,-6.3,-93.0,-178.5,-0.6,546.0,-702.9,-1660.2,0,1614,268435456,220,0, 
0.9000,-442.5,15.3,-12.6,477.3,525.6,-1426.2,1220.4,-280.8,-4668.3,512.7,1776.0,1463.7,-1239.0,-7924.2,-4121.4,65.7,-6.9,-6.3,-112.2,-200.4,-1.5,532.8,-429.6,-1619.1,0,1620,268435456,221,0, 
0.9033,-446.4,-15.3,-34.2,453.6,499.5,-1406.7,1210.8,-276.3,20896.2,492.6,1753.2,1436.7,-1255.8,-7705.8,6993.6,75.9,-6.9,-5.7,-133.8,-216.3,-0.9,508.8,27.3,-1569.3,0,1626,268435456,222,0, 
0.9067,-445.8,-10.5,-40.5,450.3,497.7,-1409.1,1204.8,-284.4,29714.1,480.9,1755.6,1438.5,-1287.3,-7731.9,9830.1,68.4,-6.9,-6.0,-136.2,-224.4,-0.9,510.3,1.8,-1575.6,0,1632,268435456,223,0, 
0.9100,-448.8,1.8,-14.4,470.7,523.2,-1440.0,1211.1,-292.2,9484.8,512.7,1776.9,1464.6,-1271.1,-7971.6,9830.1,56.4,-7.5,-5.7,-115.8,-198.9,-0.6,530.7,-466.8,-1639.2,0,1638,268435456,224,0, 
0.9133,-446.7,25.8,-3.3,487.2,541.8,-1461.0,1207.2,-289.8,-11633.7,520.8,1783.2,1477.5,-1258.2,-8094.3,1329.0,61.5,-6.9,-5.7,-111.0,-187.5,-0.9,550.5,-728.4,-1674.0,0,1644,268435456,225,0, 
0.9167,-448.5,2.1,-15.6,471.6,514.8,-1440.3,1209.0,-283.5,-4223.7,504.0,1771.8,1457.7,-1249.2,-7928.1,-3763.2,68.7,-6.6,-5.7,-117.9,-210.9,-0.9,529.2,-434.7,-1628.7,0,1650,268435456,226,0, 
0.9200,-448.5,-10.2,-39.3,446.7,488.4,-1414.8,1200.6,-277.5,21118.5,475.5,1746.9,1423.2,-1265.7,-7696.8,7247.1,82.2,-6.9,-6.0,-144.0,-236.1,-0.9,490.5,21.0,-1575.6,0,1656,268435456,227,0, 
0.9233,-449.1,-17.7,-40.8,445.8,483.9,-1413.9,1200.9,-281.1,29788.2,478.2,1749.3,1424.1,-1283.7,-7702.8,9830.1,76.5,-6.9,-6.0,-144.9,-237.3,-0.6,489.6,22.8,-1575.3,0,1662,268435456,228,0, 
0.9267,-448.8,6.3,-24.6,464.7,513.6,-1453.5,1200.0,-293.1,9484.8,499.8,1765.5,1450.5,-1295.1,-7950.9,9830.1,60.0,-7.5,-5.4,-129.9,-210.6,-1.2,514.2,-454.5,-1649.7,0,1668,268435456,229,0, 
0.9300,-449.7,9.6,-10.5,476.1,524.4,-1477.2,1209.6,-296.4,-11337.3,513.3,1784.7,1469.1,-1269.0,-8075.4,1537.2,57.6,-6.6,-5.7,-111.3,-197.7,-0.6,537.0,-728.4,-1683.0,0,1674,268435456,230,0, 
0.9333,-447.0,3.0,-21.3,471.3,516.3,-1440.0,1212.3,-285.3,-3927.3,501.3,1773.3,1452.6,-1266.9,-7906.2,-3519.6,63.6,-7.2,-6.0,-112.2,-220.5,-0.6,524.4,-432.6,-1628.7,0,1680,268435456,231,0, 
0.9367,-447.9,-21.0,-47.1,446.7,486.9,-1413.6,1205.1,-277.8,21711.3,469.8,1744.8,1426.2,-1285.8,-7680.3,7388.7,72.6,-6.6,-6.0,-145.2,-235.5,-1.2,502.8,27.3,-1566.6,0,1686,268435456,232,0, 
0.9400,-452.1,-26.4,-51.3,442.2,482.1,-1420.8,1195.5,-288.0,30010.5,477.0,1742.1,1423.2,-1303.8,-7700.1,9830.1,70.5,-6.9,-6.0,-146.4,-234.6,-0.6,492.9,5.7,-1578.0,0,1692,268435456,233,0, 
0.9433,-440.4,11.1,-17.1,471.0,517.5,-1448.1,1200.9,-288.9,9855.3,499.2,1769.7,1454.7,-1296.9,-7917.6,9830.1,58.8,-6.6,-6.0,-129.3,-207.0,-0.9,524.7,-461.4,-1636.5,0,1698,268435456,234,0, 
0.9467,-447.3,12.3,-10.2,481.2,528.6,-1460.7,1209.3,-289.8,-11411.4,522.0,1776.3,1462.2,-1272.0,-8030.7,1670.4,58.5,-7.2,-5.4,-119.4,-199.5,-1.2,536.7,-732.3,-1666.2,0,1704,268435456,235,0, 
0.9500,-445.5,7.2,-19.2,471.9,514.5,-1429.2,1217.1,-277.8,-3853.2,503.4,1765.8,1450.2,-1260.6,-7855.8,-3443.1,69.9,-6.6,-6.0,-125.1,-203.4,-0.3,531.9,-419.4,-1614.6,0,1710,268435456,236,0, 
0.9533,-446.4,-13.8,-41.7,450.0,490.5,-1411.2,1203.3,-273.0,22007.7,484.8,1744.5,1429.8,-1279.8,-7625.1,7488.3,77.4,-7.2,-5.7,-147.3,-227.7,-0.3,506.7,18.0,-1559.7,0,1716,268435456,237,0, 
0.9567,-447.9,-16.8,-44.1,439.8,483.6,-1410.3,1199.4,-284.4,30455.1,483.6,1745.1,1423.2,-1294.5,-7659.3,9821.4,72.3,-6.6,-6.0,-140.1,-240.3,-0.9,500.1,9.0,-1573.8,0,1722,268435456,238,0, 
0.9600,-448.2,4.8,-24.9,455.7,502.5,-1455.9,1197.6,-293.7,10151.7,508.8,1761.6,1444.8,-1289.1,-7888.2,9830.1,68.1,-6.9,-6.0,-119.4,-219.0,-0.9,529.2,-447.3,-1647.3,0,1728,268435456,239,0, 
0.9633,-445.5,20.7,-7.2,473.7,523.5,-1468.5,1203.3,-294.0,-10892.7,522.9,1774.5,1456.8,-1271.4,-8007.9,1915.5,62.7,-6.9,-5.7,-111.3,-207.3,-0.3,541.2,-716.1,-1673.4,0,1734,268435456,240,0, 
0.9667,-441.0,15.6,-19.5,465.9,513.3,-1437.9,1205.7,-281.4,-3334.5,505.8,1760.1,1446.3,-1266.9,-7835.4,-3030.9,72.0,-6.9,-6.0,-125.7,-212.1,-0.9,531.6,-414.6,-1626.9,0,1740,268435456,241,0, 
0.9700,-445.2,-14.7,-45.3,443.7,484.5,-1406.1,1202.4,-276.6,22304.1,485.7,1746.6,1423.2,-1269.6,-7604.1,7721.7,81.9,-7.2,-6.3,-141.9,-240.6,-0.6,508.2,33.9,-1562.1,0,1746,268435456,242,0, 
0.9733,-442.5,-8.4,-41.4,442.8,487.8,-1416.0,1193.7,-283.8,30825.6,486.0,1746.3,1421.4,-1281.6,-7624.2,9789.3,74.7,-6.9,-5.4,-143.1,-229.8,-0.9,498.3,18.3,-1570.8,0,1752,268435456,243,0, 
0.9767,-444.6,1.2,-21.3,462.0,508.5,-1452.3,1197.3,-295.5,10225.8,510.9,1767.6,1447.2,-1280.4,-7859.4,9830.1,63.0,-6.6,-6.0,-119.7,-222.9,-0.9,536.4,-439.2,-1633.8,0,1758,268435456,244,0, 
0.9800,-438.0,42.0,3.9,484.8,533.1,-1459.2,1205.4,-283.2,-10522.2,521.1,1785.9,1461.9,-1274.7,-7978.5,2148.9,57.9,-6.9,-5.7,-108.9,-197.7,-0.6,553.8,-718.2,-1665.0,0,1764,268435456,245,0, 
0.9833,-439.2,13.5,-15.6,471.3,515.7,-1437.3,1212.9,-276.9,-2964.0,505.8,1772.4,1446.3,-1253.4,-7803.6,-2700.0,67.2,-6.6,-5.7,-112.2,-213.3,-0.9,533.1,-410.7,-1619.1,0,1770,268435456,246,0, 
0.9867,-443.4,-16.2,-31.5,451.2,499.5,-1401.9,1209.6,-269.7,22896.9,490.2,1746.3,1422.9,-1262.7,-7583.1,7950.6,77.1,-6.9,-6.0,-132.6,-227.7,-0.6,503.1,54.0,-1564.2,0,1776,268435456,247,0, 
0.9900,-443.4,-17.1,-43.8,449.4,490.5,-1391.1,1209.6,-272.1,30899.7,484.2,1747.5,1425.6,-1289.4,-7593.6,9757.5,74.7,-7.2,-6.3,-133.5,-232.2,-0.6,508.8,51.3,-1566.3,0,1782,268435456,248,0, 
0.9933,-441.6,-0.3,-11.4,470.7,516.9,-1449.6,1203.9,-284.7,10670.4,515.1,1767.9,1454.4,-1297.5,-7820.7,9830.1,67.5,-6.6,-6.3,-111.3,-208.8,-0.6,539.1,-402.6,-1629.0,0,1788,268435456,249,0, 
0.9967,-439.5,21.0,-8.1,483.3,535.5,-1451.7,1211.7,-282.0,-10225.8,533.7,1779.9,1465.5,-1288.2,-7944.0,2464.2,62.7,-6.9,-6.0,-101.7,-197.1,-0.6,553.2,-688.2,-1668.0,0,1794,268435456,250,0, 
1.0000,-437.4,9.6,-3.6,476.4,522.0,-1428.9,1211.1,-269.4,-2297.1,513.6,1766.7,1456.8,-1261.5,-7765.5,-2230.2,71.7,-6.9,-6.0,-114.0,-210.0,-1.2,527.1,-397.8,-1617.9,0,1800,268435456,251,0, 
1.0033,-437.7,-14.4,-39.0,451.8,494.4,-1401.0,1203.6,-266.4,23489.7,497.4,1744.5,1430.4,-1280.7,-7550.7,8298.6,84.6,-7.2,-6.0,-136.5,-229.2,-0.6,517.8,41.7,-1554.3,0,1806,268435456,252,0, 
1.0067,-445.2,-27.3,-41.7,444.0,491.7,-1413.0,1194.3,-277.8,31863.0,484.2,1745.1,1424.4,-1297.2,-7565.4,9694.8,80.7,-6.9,-5.7,-142.8,-233.1,-0.9,510.0,20.7,-1580.1,0,1812,268435456,253,0, 
1.0100,-441.6,-1.2,-22.2,464.4,516.9,-1446.6,1197.6,-285.9,11040.9,510.3,1765.8,1449.0,-1281.3,-7795.2,9830.1,69.0,-6.6,-5.7,-126.0,-212.4,-0.9,524.1,-436.2,-1639.2,0,1818,268435456,254,0, 
1.0133,-444.3,12.0,-9.0,475.2,529.5,-1462.2,1202.7,-287.4,-10003.5,519.6,1774.2,1464.9,-1258.2,-7913.7,2710.5,64.2,-6.6,-5.7,-116.4,-204.9,-0.9,541.2,-702.6,-1673.7,0,1824,268435456,255,0, 
1.0167,-448.8,-1.5,-29.1,459.0,513.0,-1434.6,1203.9,-278.1,-1926.6,502.2,1752.6,1443.0,-1261.2,-7744.2,-1868.4,66.9,-7.5,-6.0,-130.8,-219.9,-0.6,517.8,-403.8,-1629.0,0,1830,268435456,0,0, 
1.0200,-450.3,-26.7,-55.5,434.1,482.1,-1413.9,1201.5,-277.2,24378.9,475.8,1732.2,1412.1,-1282.8,-7516.2,8499.9,78.6,-6.6,-5.7,-152.4,-252.6,-0.6,495.0,68.4,-1567.8,0,1836,268435456,1,0, 
1.0233,-450.9,-25.8,-54.3,433.8,487.8,-1416.3,1194.9,-277.2,32678.1,476.1,1729.2,1414.8,-1298.7,-7538.4,9649.8,70.5,-6.9,-5.7,-154.8,-238.2,-0.6,496.5,32.4,-1579.2,0,1842,268435456,2,0, 
1.0267,-448.2,-8.4,-24.6,450.9,504.9,-1456.8,1197.0,-292.8,11040.9,506.4,1758.6,1436.4,-1278.9,-7773.6,9830.1,67.2,-6.9,-5.7,-127.8,-232.8,-0.9,526.8,-454.8,-1647.3,0,1848,268435456,3,0, 
1.0300,-441.3,19.8,-3.6,479.7,534.9,-1465.2,1202.7,-285.6,-10744.5,516.6,1769.7,1465.8,-1252.8,-7892.4,2544.0,59.1,-6.9,-6.0,-117.6,-194.1,-0.6,535.5,-735.6,-1678.5,0,1854,268435456,4,0, 
1.0333,-439.8,3.0,-22.8,469.2,513.3,-1427.7,1207.8,-275.4,-2223.0,507.3,1764.3,1443.3,-1238.7,-7685.7,-2089.8,67.8,-6.9,-5.4,-122.1,-225.0,-0.6,525.3,-403.2,-1625.7,0,1860,268435456,5,0, 
1.0367,-445.5,-21.0,-49.2,438.9,477.9,-1409.7,1200.3,-272.7,26898.3,470.4,1725.9,1405.8,-1264.8,-7427.4,8745.0,81.9,-6.9,-5.7,-154.8,-254.1,-0.3,493.5,114.0,-1563.3,0,1866,268435456,6,0, 
1.0400,-445.8,-24.9,-48.9,436.5,480.9,-1414.2,1195.2,-278.7,36160.8,475.5,1736.4,1411.8,-1281.3,-7443.9,9582.9,77.1,-7.2,-5.7,-152.4,-245.4,-0.6,498.3,94.8,-1575.6,0,1872,268435456,7,0, 
1.0433,-442.2,6.6,-15.9,463.2,513.6,-1449.6,1201.2,-288.9,12522.9,507.0,1764.9,1447.2,-1281.6,-7712.4,9830.1,61.2,-6.9,-6.0,-131.1,-221.7,-0.6,528.3,-444.9,-1644.0,0,1878,268435456,8,0, 
1.0467,-440.1,19.8,-4.2,481.2,540.0,-1463.7,1210.2,-288.6,-10596.3,534.6,1780.2,1461.0,-1259.4,-7833.9,3193.5,56.7,-6.6,-5.4,-108.3,-203.1,-0.6,548.1,-749.7,-1675.2,0,1884,268435456,9,0, 
1.0500,-438.0,8.7,-19.2,466.2,509.4,-1437.0,1213.5,-275.1,-815.1,517.2,1762.8,1441.5,-1249.5,-7616.1,-1170.6,64.8,-6.6,-6.3,-120.9,-216.0,-0.6,528.6,-396.3,-1622.1,0,1890,268435456,10,0, 
1.0533,-442.8,-19.2,-40.2,440.1,487.2,-1401.0,1205.4,-269.1,28824.9,497.1,1737.6,1414.8,-1267.5,-7355.7,9257.1,77.7,-6.9,-5.4,-138.0,-243.9,-0.6,502.5,110.7,-1553.7,0,1896,268435456,11,0, 
1.0567,-445.8,-12.6,-46.5,438.9,489.0,-1392.0,1203.6,-270.6,37865.1,486.9,1739.4,1412.7,-1294.8,-7380.3,9491.4,68.7,-6.6,-5.7,-137.7,-238.2,-0.6,505.5,93.9,-1560.6,0,1902,268435456,12,0, 
1.0600,-441.6,9.3,-16.8,464.7,519.9,-1446.9,1206.9,-283.5,13856.7,517.8,1762.5,1446.0,-1274.7,-7626.3,9830.1,56.1,-6.6,-5.4,-112.2,-210.9,-0.6,535.2,-451.5,-1633.8,0,1908,268435456,13,0, 
1.0633,-443.4,12.3,2.1,487.2,539.7,-1461.3,1214.4,-284.1,-9484.8,535.2,1784.1,1466.4,-1254.3,-7760.4,4089.0,53.4,-7.2,-6.0,-95.7,-194.1,-0.6,547.2,-768.6,-1673.1,0,1914,268435456,14,0, 
1.0667,-444.9,9.3,-9.3,474.6,520.5,-1429.8,1215.3,-269.7,666.9,520.5,1767.9,1448.4,-1243.2,-7538.7,7.2,55.8,-6.9,-6.0,-111.9,-220.2,-0.3,532.8,-408.6,-1620.0,0,1920,268435456,15,0, 
1.0700,-448.5,-26.7,-38.4,446.1,489.9,-1393.5,1209.0,-265.2,30306.9,487.2,1744.5,1413.9,-1274.4,-7280.7,9625.5,66.6,-6.9,-6.0,-134.7,-241.5,-0.3,496.2,102.9,-1551.0,0,1926,268435456,16,0, 
1.0733,-445.2,-16.8,-42.3,441.0,490.2,-1396.8,1205.7,-271.2,39273.0,486.6,1736.7,1413.3,-1283.7,-7298.1,9441.6,67.8,-6.9,-6.0,-141.6,-236.4,-0.6,505.8,92.7,-1560.6,0,1932,268435456,17,0, 
1.0767,-447.9,2.1,-16.5,468.6,519.9,-1439.4,1207.8,-283.8,15190.5,515.1,1768.2,1446.6,-1283.1,-7557.3,9830.1,54.0,-6.9,-5.7,-117.6,-218.4,-1.2,540.0,-447.3,-1630.8,0,1938,268435456,18,0, 
1.0800,-444.9,27.6,5.4,483.0,539.1,-1457.1,1212.3,-282.0,-8299.2,539.4,1782.9,1466.4,-1276.5,-7668.6,4955.7,49.5,-6.9,-5.7,-105.0,-193.2,-0.9,551.7,-749.4,-1669.5,0,1944,268435456,19,0, 
1.0833,-445.8,6.0,-14.1,479.1,530.7,-1414.5,1220.4,-266.4,1482.0,519.6,1764.9,1451.7,-1261.2,-7442.1,952.5,60.3,-6.9,-6.0,-121.8,-199.8,-0.6,536.7,-373.8,-1608.0,0,1950,268435456,20,0, 
1.0867,-449.7,-17.7,-41.1,446.7,492.3,-1382.1,1220.1,-261.0,30973.8,479.7,1737.9,1419.0,-1278.0,-7188.0,9818.1,72.3,-6.9,-5.7,-143.1,-240.6,-0.6,506.7,140.7,-1544.7,0,1956,268435456,21,0, 
1.0900,-456.9,-24.3,-46.8,443.7,494.7,-1404.9,1209.3,-272.4,40310.4,480.9,1742.7,1418.7,-1308.6,-7216.5,9409.5,66.6,-7.5,-5.4,-144.3,-235.8,-0.9,508.2,94.2,-1563.3,0,1962,268435456,22,0, 
1.0933,-453.0,-2.1,-19.8,467.4,521.1,-1443.9,1213.8,-282.6,15931.5,517.8,1765.2,1453.8,-1309.5,-7484.1,9830.1,58.2,-7.2,-5.4,-120.3,-215.7,-0.6,537.6,-448.8,-1635.3,0,1968,268435456,23,0, 
1.0967,-446.4,21.3,2.4,492.6,549.0,-1452.3,1222.5,-276.6,-7928.7,531.0,1785.6,1468.5,-1282.2,-7595.4,5415.6,59.7,-6.9,-6.0,-102.6,-198.3,-0.9,564.9,-741.0,-1667.1,0,1974,268435456,24,0, 
1.1000,-449.1,5.1,-13.2,473.4,518.7,-1425.6,1222.2,-269.1,2074.8,513.9,1760.7,1441.8,-1276.2,-7375.2,1611.9,66.3,-6.9,-5.4,-122.1,-212.7,-0.9,528.3,-369.3,-1619.1,0,1980,268435456,25,0, 
1.1033,-448.2,-21.9,-39.6,446.7,495.6,-1390.5,1216.8,-261.0,31788.9,483.3,1734.9,1414.2,-1278.9,-7115.1,9830.1,77.1,-6.6,-5.7,-139.5,-234.6,-0.9,503.1,134.4,-1550.4,0,1986,268435456,26,0, 
1.1067,-453.3,-31.8,-42.6,445.8,488.4,-1404.6,1209.3,-271.2,40532.7,483.9,1740.9,1415.1,-1289.1,-7130.1,9389.4,69.9,-6.9,-6.0,-138.6,-237.6,-0.3,504.0,103.5,-1561.5,0,1992,268435456,27,0, 
1.1100,-453.0,-2.1,-21.9,466.8,519.3,-1441.8,1204.8,-279.9,16153.8,512.4,1759.2,1440.3,-1287.0,-7396.5,9830.1,51.0,-6.9,-5.4,-131.4,-219.0,-0.6,530.1,-461.7,-1640.4,0,1998,268435456,28,0, 
1.1133,-450.3,13.5,-0.9,480.6,534.9,-1450.5,1216.2,-277.5,-7632.3,527.4,1770.3,1456.8,-1272.6,-7520.7,5648.7,46.8,-6.6,-5.7,-112.8,-209.7,-0.3,550.2,-765.9,-1684.8,0,2004,268435456,29,0, 
1.1167,-452.1,-3.6,-18.9,462.0,514.2,-1446.6,1211.1,-270.0,2223.0,498.9,1750.2,1437.6,-1268.1,-7300.2,1890.6,59.1,-6.6,-6.3,-129.0,-219.6,-0.6,521.4,-402.0,-1624.5,0,2010,268435456,30,0, 
1.1200,-454.5,-29.1,-48.3,434.7,482.1,-1406.1,1205.7,-269.7,31937.1,480.9,1723.5,1402.5,-1284.6,-7035.9,9830.1,62.7,-7.2,-6.0,-153.0,-254.1,-0.3,493.8,114.9,-1562.1,0,2016,268435456,31,0, 
1.1233,-450.0,-32.4,-48.3,432.6,488.1,-1409.4,1196.1,-275.7,40532.7,480.0,1720.2,1413.9,-1296.9,-7054.5,9378.0,53.1,-7.2,-5.7,-153.3,-240.6,-0.6,496.5,76.2,-1569.0,0,2022,268435456,32,0, 
1.1267,-446.4,-6.6,-18.3,458.4,516.3,-1447.8,1196.7,-287.1,15857.4,524.4,1759.8,1443.3,-1289.4,-7330.2,9830.1,46.5,-6.6,-6.0,-121.8,-217.5,-0.6,534.3,-478.2,-1649.1,0,2028,268435456,33,0, 
1.1300,-444.6,17.7,-0.3,479.4,534.3,-1463.7,1207.5,-284.1,-8151.0,535.2,1773.9,1462.5,-1265.1,-7458.9,5475.0,44.7,-7.2,-6.0,-105.6,-197.7,-0.6,554.1,-786.3,-1679.1,0,2034,268435456,34,0, 
1.1333,-444.3,3.0,-17.4,465.9,519.3,-1440.9,1204.8,-274.8,1630.2,517.8,1755.6,1445.1,-1253.1,-7242.9,1511.7,57.6,-6.6,-5.7,-120.9,-213.0,-0.6,533.4,-423.6,-1635.9,0,2040,268435456,35,0, 
1.1367,-445.8,-23.7,-45.3,439.8,486.3,-1402.8,1201.2,-270.6,31418.4,474.3,1726.5,1407.6,-1275.6,-6993.9,9830.1,68.4,-6.9,-6.0,-149.1,-246.6,-0.9,494.1,84.3,-1560.9,0,2046,268435456,36,0, 
1.1400,-448.8,-27.9,-46.8,437.7,489.0,-1413.6,1196.4,-277.5,39939.9,486.3,1732.5,1416.6,-1294.8,-7030.8,9364.5,61.2,-6.6,-5.4,-147.3,-237.3,-0.3,503.7,52.8,-1571.7,0,2052,268435456,37,0, 
1.1433,-441.9,1.8,-15.3,463.5,518.7,-1452.9,1197.9,-288.3,14820.0,522.6,1765.2,1441.2,-1285.2,-7289.1,9830.1,49.8,-7.2,-6.0,-125.4,-221.1,-0.9,541.8,-496.5,-1642.5,0,2058,268435456,38,0, 
1.1467,-441.3,30.3,11.7,488.1,542.1,-1467.3,1207.5,-282.6,-9040.2,534.9,1781.7,1461.0,-1267.2,-7431.3,4950.3,45.0,-7.2,-6.3,-106.5,-204.9,-0.6,556.5,-800.4,-1677.6,0,2064,268435456,39,0, 
1.1500,-439.5,12.6,-9.9,475.5,529.8,-1428.0,1213.2,-268.8,666.9,529.5,1764.6,1448.4,-1247.4,-7217.4,682.5,60.0,-6.9,-6.0,-112.2,-211.5,-0.6,543.6,-435.3,-1619.1,0,2070,268435456,40,0, 
1.1533,-444.0,-24.6,-34.5,451.2,501.6,-1386.3,1209.9,-262.2,30232.8,510.0,1741.5,1420.5,-1257.0,-6951.0,9794.7,71.1,-6.9,-6.0,-133.8,-233.7,-0.9,514.5,102.0,-1545.0,0,2076,268435456,41,0, 
1.1567,-444.0,-17.4,-37.8,444.9,492.3,-1403.1,1205.1,-271.2,38902.5,505.2,1733.7,1415.7,-1290.3,-7000.8,9371.7,64.5,-6.9,-5.7,-143.4,-233.7,-0.6,515.7,60.0,-1564.5,0,2082,268435456,42,0, 
1.1600,-437.1,13.2,-7.8,480.0,531.6,-1438.5,1209.6,-277.2,13708.5,534.9,1774.5,1454.7,-1267.2,-7280.1,9830.1,50.4,-6.9,-6.3,-103.2,-202.5,-0.9,555.0,-475.2,-1626.6,0,2088,268435456,43,0, 
1.1633,-441.9,21.6,4.8,488.4,543.0,-1462.8,1207.2,-282.9,-10225.8,540.9,1783.8,1463.7,-1243.5,-7419.9,4203.0,49.8,-7.2,-5.7,-95.1,-193.2,-0.6,558.9,-775.2,-1673.1,0,2094,268435456,44,0, 
1.1667,-439.8,8.1,-10.2,477.3,525.9,-1427.1,1212.0,-268.2,-370.5,524.4,1768.2,1448.4,-1239.9,-7215.9,-259.2,63.0,-7.2,-6.0,-105.3,-212.1,-0.6,544.8,-416.1,-1614.6,0,2100,268435456,45,0, 
1.1700,-446.7,-24.6,-39.0,452.4,501.0,-1388.1,1207.2,-265.2,29417.7,496.5,1738.2,1420.5,-1260.6,-6971.7,9591.9,73.2,-6.6,-5.4,-130.8,-222.9,-0.6,516.0,100.8,-1540.2,0,2106,268435456,46,0, 
1.1733,-447.3,-22.8,-41.4,447.3,497.4,-1386.6,1200.6,-268.8,37939.2,495.6,1743.3,1419.6,-1277.7,-7009.8,9398.1,67.2,-6.9,-5.4,-133.8,-236.7,-0.6,515.1,67.2,-1557.9,0,2112,268435456,47,0, 
1.1767,-447.6,1.5,-7.2,474.9,531.3,-1440.6,1199.4,-282.3,12893.4,522.6,1770.6,1449.0,-1273.8,-7302.6,9830.1,54.9,-7.2,-6.0,-112.2,-216.0,-0.6,543.3,-486.6,-1632.6,0,2118,268435456,48,0, 
1.1800,-445.8,21.0,3.3,491.1,542.4,-1467.3,1203.9,-281.4,-10892.7,538.2,1777.8,1469.1,-1260.3,-7440.3,3651.3,54.3,-6.6,-6.0,-104.1,-201.9,-0.9,560.4,-786.6,-1675.8,0,2124,268435456,49,0, 
1.1833,-446.4,-1.2,-6.3,479.4,532.8,-1420.5,1211.4,-268.2,-1037.4,525.0,1763.1,1446.3,-1252.8,-7238.7,-946.5,64.2,-6.9,-6.3,-123.6,-215.1,-0.6,542.4,-425.1,-1611.0,0,2130,268435456,50,0, 
1.1867,-448.8,-23.1,-37.2,449.7,499.2,-1390.5,1205.4,-262.2,28973.1,485.1,1736.4,1419.6,-1282.2,-7004.4,9393.6,72.3,-6.6,-6.0,-149.4,-237.3,-0.6,511.8,78.9,-1547.7,0,2136,268435456,51,0, 
1.1900,-450.3,-30.3,-42.3,443.1,495.6,-1406.4,1202.4,-274.8,37494.6,487.2,1737.9,1412.4,-1293.6,-7059.6,9432.9,65.1,-6.9,-6.0,-146.7,-235.5,-1.2,504.3,39.9,-1564.5,0,2142,268435456,52,0, 
1.1933,-447.6,-8.1,-17.4,465.9,523.2,-1438.2,1202.1,-285.9,12522.9,511.8,1761.9,1442.1,-1287.3,-7335.6,9830.1,57.9,-6.9,-5.4,-124.8,-211.2,-0.6,532.8,-503.4,-1648.8,0,2148,268435456,53,0, 
1.1967,-440.4,18.3,3.6,483.9,537.6,-1467.0,1206.9,-285.6,-11411.4,526.5,1780.2,1459.8,-1259.1,-7467.0,3274.2,56.1,-6.9,-6.0,-107.4,-206.7,-0.9,554.1,-813.9,-1682.4,0,2154,268435456,54,0, 
1.2000,-437.1,0.9,-12.9,471.6,523.2,-1429.2,1211.1,-270.6,-1704.3,517.5,1765.2,1443.9,-1261.2,-7260.9,-1456.2,71.7,-6.9,-5.4,-116.1,-211.5,-0.6,532.8,-419.7,-1619.4,0,2160,268435456,55,0, 
1.2033,-444.6,-28.5,-42.6,442.5,491.4,-1398.6,1203.0,-268.8,28528.5,484.5,1728.6,1405.2,-1279.2,-7016.1,9240.3,75.9,-7.2,-6.0,-150.0,-249.9,-0.6,503.7,90.3,-1549.5,0,2166,268435456,56,0, 
1.2067,-444.9,-33.3,-45.6,443.7,495.3,-1406.7,1194.9,-278.7,37050.0,475.8,1734.3,1412.4,-1289.4,-7057.2,9454.2,68.4,-6.6,-5.7,-152.1,-228.9,-0.3,506.4,55.2,-1565.4,0,2172,268435456,57,0, 
1.2100,-444.0,-8.1,-20.7,462.6,510.0,-1449.0,1195.8,-293.7,12374.7,511.5,1752.0,1436.1,-1281.3,-7355.1,9830.1,50.1,-6.9,-5.7,-134.7,-223.8,-0.9,537.9,-512.4,-1643.7,0,2178,268435456,58,0, 
1.2133,-435.6,18.3,0.9,486.6,538.5,-1461.6,1200.9,-287.7,-11485.5,532.2,1770.3,1457.1,-1256.4,-7484.7,3117.9,43.8,-6.9,-5.4,-118.5,-201.3,-0.3,553.2,-821.1,-1679.1,0,2184,268435456,59,0, 
1.2167,-433.5,4.2,-18.0,470.7,519.3,-1432.8,1206.6,-277.5,-1407.9,513.9,1754.1,1435.5,-1243.5,-7272.9,-1389.9,55.8,-6.9,-6.0,-138.0,-220.8,-0.6,531.9,-448.5,-1625.1,0,2190,268435456,60,0, 
1.2200,-436.8,-26.7,-48.3,443.1,487.5,-1402.8,1200.0,-273.3,28824.9,486.6,1734.3,1406.7,-1262.1,-7031.1,9272.4,66.3,-6.9,-5.7,-160.2,-243.6,-0.6,521.7,78.0,-1553.7,0,2196,268435456,61,0, 
1.2233,-441.0,-31.5,-45.0,440.4,490.5,-1405.5,1195.2,-283.2,37346.4,490.5,1737.3,1414.2,-1291.5,-7067.1,9454.8,59.1,-6.9,-5.7,-154.8,-234.6,-0.6,512.7,44.4,-1563.9,0,2202,268435456,62,0, 
1.2267,-437.1,-0.6,-18.9,470.4,522.0,-1446.3,1202.1,-290.7,12522.9,530.7,1761.9,1444.2,-1284.3,-7347.0,9830.1,48.9,-6.9,-6.0,-132.6,-211.5,-0.9,545.7,-502.2,-1637.1,0,2208,268435456,63,0, 
1.2300,-433.8,19.8,0.0,489.9,543.0,-1453.8,1211.7,-289.8,-11115.0,540.0,1777.2,1458.6,-1257.3,-7477.8,3327.0,42.6,-6.6,-6.0,-122.7,-195.6,-0.9,559.5,-806.7,-1681.8,0,2214,268435456,64,0, 
1.2333,-435.0,6.9,-19.2,474.0,521.1,-1427.4,1215.0,-277.2,-741.0,519.0,1756.2,1440.6,-1254.0,-7269.9,-983.7,55.2,-7.2,-6.0,-129.3,-222.6,-0.3,533.1,-423.3,-1612.2,0,2220,268435456,65,0, 
1.2367,-439.8,-18.9,-37.5,448.8,493.8,-1408.8,1205.4,-272.4,29640.0,492.6,1731.3,1413.3,-1267.8,-7016.7,9409.2,64.2,-6.9,-5.7,-150.9,-228.0,-0.6,513.0,105.3,-1545.3,0,2226,268435456,66,0, 
1.2400,-442.5,-26.7,-39.0,447.0,491.1,-1404.6,1200.9,-280.2,38161.5,503.7,1730.7,1414.8,-1278.0,-7061.7,9440.1,63.3,-6.9,-5.7,-149.4,-238.8,-0.6,519.0,78.0,-1555.5,0,2232,268435456,67,0, 
1.2433,-436.5,21.9,-5.4,477.0,525.9,-1442.1,1203.9,-285.3,13486.2,522.6,1760.7,1445.4,-1288.5,-7349.7,9830.1,42.9,-6.3,-5.7,-125.1,-204.0,-0.3,549.9,-477.6,-1635.9,0,2238,268435456,68,0, 
1.2467,-437.1,19.5,6.9,493.8,544.5,-1457.7,1211.4,-287.7,-10151.7,553.5,1774.5,1461.3,-1254.3,-7475.7,3853.2,41.7,-6.6,-5.4,-111.9,-196.2,-0.3,567.6,-773.1,-1667.4,0,2244,268435456,69,0, 
1.2500,-435.6,4.5,-5.4,484.2,526.5,-1427.4,1219.8,-275.1,222.3,532.8,1762.2,1439.4,-1234.8,-7268.4,-247.5,50.7,-6.9,-5.4,-126.0,-216.9,-0.3,542.1,-407.4,-1613.7,0,2250,268435456,70,0, 
1.2533,-442.2,-22.5,-36.3,456.6,502.5,-1383.3,1215.9,-265.5,30381.0,493.5,1733.7,1414.2,-1258.5,-7007.7,9636.9,60.3,-7.2,-6.0,-155.7,-230.7,-0.9,517.5,121.8,-1542.3,0,2256,268435456,71,0, 
1.2567,-442.5,-28.8,-38.7,448.2,497.1,-1386.0,1208.7,-275.1,38902.5,501.6,1736.7,1410.6,-1274.1,-7037.4,9410.1,54.0,-7.2,-6.3,-156.0,-227.7,-0.9,519.6,105.9,-1546.2,0,2262,268435456,72,0, 
1.2600,-440.7,7.5,-12.6,471.6,523.8,-1444.5,1206.9,-290.4,14301.3,537.9,1763.1,1439.4,-1269.6,-7317.6,9830.1,41.1,-7.2,-5.4,-126.6,-207.0,-0.6,549.6,-448.5,-1638.0,0,2268,268435456,73,0, 
1.2633,-441.6,17.1,3.9,494.1,545.4,-1463.4,1215.6,-287.7,-9188.4,552.3,1780.5,1465.2,-1241.7,-7457.7,4503.9,39.9,-6.9,-5.4,-115.5,-193.8,-0.3,576.6,-780.9,-1672.2,0,2274,268435456,74,0, 
1.2667,-441.0,6.3,-5.7,478.8,526.8,-1425.6,1216.8,-276.0,1185.6,526.8,1761.9,1442.4,-1237.2,-7243.8,633.6,48.9,-7.2,-5.4,-134.7,-209.4,-0.3,552.9,-405.9,-1608.9,0,2280,268435456,75,0, 
1.2700,-444.3,-25.8,-39.9,452.4,497.7,-1383.3,1209.3,-269.7,31344.3,494.4,1734.0,1412.4,-1258.8,-6984.6,9828.9,61.2,-6.6,-6.0,-159.6,-227.7,-0.9,517.2,120.0,-1540.5,0,2286,268435456,76,0, 
1.2733,-446.7,-30.3,-43.8,443.7,492.6,-1393.5,1203.0,-276.6,40014.0,489.6,1734.0,1407.6,-1281.3,-7003.2,9385.8,54.9,-6.9,-5.4,-153.9,-238.2,-0.9,516.0,104.4,-1553.4,0,2292,268435456,77,0, 
1.2767,-441.6,-0.3,-13.5,473.4,525.0,-1436.1,1207.5,-289.8,15116.4,522.6,1763.4,1446.9,-1282.5,-7281.9,9830.1,40.2,-6.6,-5.7,-127.5,-216.3,-0.6,544.8,-456.9,-1632.6,0,2298,268435456,78,0, 
1.2800,-442.8,24.3,7.8,493.5,540.0,-1456.2,1209.9,-289.2,-8373.3,539.1,1778.7,1460.4,-1263.0,-7409.1,5003.1,33.0,-6.3,-5.4,-112.5,-203.1,-0.6,560.7,-772.8,-1676.1,0,2304,268435456,79,0, 
1.2833,-444.9,0.3,-12.9,473.1,524.7,-1425.9,1211.7,-279.9,1852.5,520.5,1753.2,1435.2,-1258.8,-7201.8,1335.9,45.6,-6.9,-6.0,-136.2,-212.7,-0.6,527.1,-405.0,-1622.4,0,2310,268435456,80,0, 
1.2867,-443.7,-24.6,-38.1,452.4,495.6,-1389.6,1206.6,-274.5,32455.8,496.8,1732.2,1410.3,-1271.1,-6940.8,9830.1,52.8,-6.6,-6.0,-151.5,-232.8,-0.6,501.9,107.7,-1555.2,0,2316,268435456,81,0, 
1.2900,-445.2,-27.6,-39.3,441.6,487.8,-1410.0,1196.1,-287.1,40755.0,495.6,1729.2,1411.2,-1293.6,-6961.2,9368.1,47.4,-7.2,-5.7,-159.9,-238.5,-0.3,502.5,79.5,-1572.6,0,2322,268435456,82,0, 
1.2933,-440.1,2.4,-20.1,465.3,514.8,-1440.6,1192.8,-299.7,15931.5,534.0,1750.2,1433.1,-1292.4,-7250.1,9830.1,32.1,-6.9,-5.7,-144.3,-223.2,-0.9,525.0,-488.1,-1655.7,0,2328,268435456,83,0, 
1.2967,-443.1,6.0,-2.1,481.8,538.2,-1467.3,1201.5,-302.1,-7928.7,550.2,1770.9,1451.1,-1259.7,-7376.7,5466.6,32.7,-6.9,-5.7,-123.9,-200.4,-0.3,543.6,-784.8,-1688.1,0,2334,268435456,84,0, 
1.3000,-438.6,0.3,-17.1,467.1,510.0,-1430.4,1205.7,-292.5,2445.3,525.0,1748.7,1426.5,-1251.3,-7151.7,1910.1,43.2,-7.2,-5.7,-137.1,-228.0,-0.6,520.8,-403.5,-1630.5,0,2340,268435456,85,0, 
1.3033,-442.2,-27.9,-49.2,437.1,479.4,-1404.0,1195.8,-288.6,32826.3,487.2,1726.2,1394.7,-1274.7,-6889.8,9830.1,51.9,-6.9,-6.0,-162.3,-249.9,-0.6,494.1,114.3,-1563.0,0,2346,268435456,86,0, 
1.3067,-445.5,-33.6,-57.3,431.4,474.6,-1412.1,1186.2,-298.8,41125.5,489.9,1705.5,1390.8,-1296.0,-6919.5,9360.3,47.4,-6.6,-6.3,-174.9,-254.4,-0.6,485.1,90.9,-1585.8,0,2352,268435456,87,0, 
1.3100,-441.6,-10.2,-28.2,458.7,518.4,-1441.5,1192.2,-304.2,16079.7,513.6,1738.8,1422.3,-1288.5,-7188.0,9830.1,39.0,-6.9,-5.7,-154.8,-214.8,-0.6,524.4,-445.8,-1654.8,0,2358,268435456,88,0, 
1.3133,-441.3,10.2,-5.1,477.3,522.3,-1471.5,1193.4,-305.1,-7632.3,531.9,1760.7,1443.6,-1257.9,-7317.9,5702.7,31.8,-7.2,-6.0,-134.4,-219.9,-0.9,550.2,-760.8,-1690.8,0,2364,268435456,89,0, 
1.3167,-442.2,-1.8,-23.4,466.8,514.8,-1437.3,1197.3,-295.8,2889.9,513.6,1744.5,1427.7,-1253.4,-7102.2,2319.6,43.8,-6.3,-6.0,-150.3,-219.9,-0.9,542.7,-403.8,-1626.9,0,2370,268435456,90,0, 
1.3200,-444.0,-27.0,-46.5,443.4,486.6,-1393.2,1194.6,-288.3,33122.7,495.6,1721.4,1404.3,-1270.2,-6846.3,9830.1,53.1,-7.2,-6.0,-172.5,-240.6,-0.9,513.3,130.2,-1548.6,0,2376,268435456,91,0, 
1.3233,-447.0,-44.4,-44.4,446.7,488.1,-1399.5,1189.8,-297.9,41644.2,496.8,1725.9,1404.0,-1279.2,-6875.4,9365.1,49.5,-6.9,-6.0,-166.5,-243.9,-0.9,508.5,98.1,-1562.1,0,2382,268435456,92,0, 
1.3267,-443.1,7.2,-14.7,477.3,524.1,-1444.5,1196.7,-300.3,16598.4,526.8,1757.1,1444.5,-1275.3,-7147.5,9830.1,36.3,-7.2,-5.4,-144.0,-207.6,-0.6,552.0,-454.8,-1636.2,0,2388,268435456,93,0, 
1.3300,-441.9,12.6,6.3,492.3,544.5,-1456.8,1206.0,-303.0,-7039.5,549.3,1772.4,1459.2,-1251.0,-7278.9,6041.4,33.0,-7.2,-6.0,-126.6,-199.5,-0.3,565.8,-770.7,-1674.9,0,2394,268435456,94,0, 
1.3333,-442.5,10.5,-8.1,483.3,522.3,-1424.4,1210.8,-284.7,3630.9,524.4,1752.3,1440.0,-1256.7,-7068.3,2811.0,39.6,-6.9,-5.7,-149.4,-216.3,-0.6,546.9,-402.0,-1617.9,0,2400,268435456,95,0, 
1.3367,-448.5,-39.3,-48.3,450.3,494.4,-1384.8,1205.4,-285.6,33641.4,500.1,1718.7,1407.3,-1267.5,-6790.2,9830.1,51.6,-7.2,-6.0,-177.3,-237.9,-0.9,511.5,124.5,-1554.0,0,2406,268435456,96,0, 
1.3400,-450.3,-34.2,-42.6,445.5,488.1,-1404.3,1201.8,-291.3,41940.6,503.7,1724.7,1402.2,-1283.1,-6827.7,9362.4,46.2,-7.2,-6.6,-178.8,-239.7,-0.9,513.0,95.1,-1563.0,0,2412,268435456,97,0, 
1.3433,-450.0,-11.4,-17.1,472.8,520.5,-1437.6,1205.1,-302.1,16598.4,522.6,1753.2,1433.1,-1278.6,-7096.5,9830.1,37.8,-6.6,-5.4,-147.6,-221.1,-0.6,541.2,-442.5,-1635.3,0,2418,268435456,98,0, 
1.3467,-447.0,11.1,0.3,489.9,541.2,-1454.4,1209.6,-298.8,-7113.6,541.2,1767.9,1458.9,-1274.1,-7227.9,6089.1,31.8,-6.6,-6.0,-134.7,-192.9,-0.9,569.1,-754.5,-1670.4,0,2424,268435456,99,0, 
1.3500,-450.6,-9.6,-21.0,470.4,515.4,-1419.6,1210.2,-286.2,3408.6,515.7,1741.8,1425.3,-1252.5,-7011.9,2816.1,43.8,-6.9,-6.0,-150.9,-223.5,-0.3,532.5,-375.9,-1625.7,0,2430,268435456,100,0, 
1.3533,-449.1,-35.4,-49.8,442.8,480.0,-1404.6,1207.2,-284.7,33715.5,489.3,1716.3,1395.6,-1265.1,-6760.2,9830.1,51.3,-7.2,-6.0,-173.1,-246.0,-0.9,507.0,134.4,-1553.4,0,2436,268435456,101,0, 
1.3567,-455.4,-43.2,-56.4,442.5,482.7,-1399.5,1197.9,-294.9,42088.8,488.1,1718.7,1398.6,-1281.3,-6799.5,9360.9,51.3,-6.9,-5.7,-167.7,-246.9,-1.2,502.8,87.3,-1572.9,0,2442,268435456,102,0, 
1.3600,-449.7,-3.6,-22.5,467.4,515.4,-1455.9,1199.4,-305.7,16894.8,520.5,1741.2,1434.3,-1274.4,-7074.6,9830.1,35.4,-6.6,-6.3,-153.0,-220.5,-0.9,540.0,-474.6,-1644.6,0,2448,268435456,103,0, 
1.3633,-449.7,-0.6,-8.1,485.1,537.0,-1464.0,1208.4,-305.7,-7187.7,535.8,1758.3,1445.7,-1255.5,-7204.2,6136.2,34.8,-6.9,-5.7,-131.1,-211.5,-0.9,554.1,-777.6,-1679.1,0,2454,268435456,104,0, 
1.3667,-448.8,-7.8,-24.0,469.5,512.1,-1433.1,1210.8,-294.9,3260.4,518.4,1739.7,1430.7,-1239.3,-6979.5,2787.3,48.0,-7.2,-5.7,-144.3,-221.1,-0.9,533.1,-394.2,-1623.9,0,2460,268435456,105,0, 
1.3700,-449.7,-38.1,-53.1,438.9,479.1,-1407.3,1204.5,-290.7,33270.9,476.4,1707.9,1394.4,-1257.3,-6722.4,9830.1,63.3,-6.6,-5.7,-173.1,-264.3,-0.9,501.3,121.2,-1563.0,0,2466,268435456,106,0, 
1.3733,-456.0,-46.2,-58.2,433.8,478.2,-1415.7,1197.3,-299.1,41496.0,477.6,1710.6,1394.7,-1288.2,-6770.1,9352.2,57.3,-7.2,-6.0,-183.6,-261.6,-0.9,498.6,92.1,-1573.5,0,2472,268435456,107,0, 
1.3767,-454.5,-22.2,-33.0,455.1,508.8,-1459.5,1200.3,-315.0,16227.9,508.5,1737.0,1420.8,-1268.1,-7053.6,9830.1,40.5,-6.6,-5.7,-165.0,-233.4,-0.6,531.9,-479.4,-1653.6,0,2478,268435456,108,0, 
1.3800,-449.1,5.7,-18.0,473.1,525.0,-1476.3,1200.9,-310.5,-7632.3,527.7,1746.9,1437.9,-1253.4,-7186.8,5875.8,32.4,-6.6,-6.3,-147.6,-222.3,-0.9,547.2,-789.3,-1697.4,0,2484,268435456,109,0, 
1.3833,-449.7,-14.1,-31.5,459.9,509.7,-1444.8,1206.0,-300.0,2815.8,510.0,1731.0,1421.1,-1247.4,-6975.3,2429.4,45.9,-6.9,-5.7,-160.2,-223.2,-0.9,529.8,-412.5,-1636.8,0,2490,268435456,110,0, 
1.3867,-447.0,-33.0,-63.3,435.0,477.0,-1403.7,1199.7,-293.1,32900.4,479.1,1703.1,1392.6,-1261.8,-6704.7,9830.1,52.2,-6.9,-5.7,-183.9,-248.4,-0.6,496.2,112.2,-1563.0,0,2496,268435456,111,0, 
1.3900,-449.1,-34.8,-57.0,438.9,485.1,-1405.8,1195.2,-294.6,41051.4,491.7,1715.4,1394.4,-1271.7,-6737.7,9348.3,48.6,-6.9,-5.7,-176.4,-244.5,-0.9,496.2,90.6,-1571.1,0,2502,268435456,112,0, 
1.3933,-448.8,-9.0,-31.5,458.7,504.6,-1455.9,1194.6,-313.5,16079.7,512.7,1734.9,1423.2,-1265.1,-7035.0,9830.1,33.0,-6.9,-6.0,-150.6,-236.4,-0.6,534.3,-483.9,-1651.5,0,2508,268435456,113,0, 
1.3967,-444.0,11.4,-12.6,477.0,527.7,-1479.6,1195.8,-311.7,-7706.4,535.5,1754.7,1442.7,-1249.5,-7161.9,5708.4,33.6,-7.2,-5.7,-138.3,-210.3,-0.3,552.6,-806.7,-1686.9,0,2514,268435456,114,0, 
1.4000,-447.3,-12.3,-29.1,463.2,509.4,-1443.9,1197.3,-302.4,2667.6,511.2,1736.4,1426.2,-1252.2,-6958.5,2180.1,39.3,-6.9,-6.0,-152.4,-223.5,-0.9,531.0,-417.6,-1631.4,0,2520,268435456,115,0, 
1.4033,-446.7,-35.7,-57.9,436.5,480.3,-1407.6,1192.8,-292.2,32974.5,483.6,1712.7,1395.9,-1262.4,-6699.9,9830.1,54.0,-7.2,-5.7,-176.4,-241.2,-0.9,505.5,97.5,-1565.4,0,2526,268435456,116,0, 
1.4067,-452.1,-39.6,-58.8,434.4,483.6,-1411.8,1184.1,-305.4,40903.2,482.1,1714.2,1398.6,-1294.8,-6744.6,9345.9,42.0,-6.9,-6.0,-174.9,-246.9,-0.9,505.8,60.3,-1574.4,0,2532,268435456,117,0, 
1.4100,-452.4,-22.2,-37.5,459.6,509.7,-1459.2,1186.5,-316.8,15486.9,523.8,1745.1,1432.5,-1280.7,-7025.7,9830.1,36.0,-6.9,-5.7,-152.7,-220.8,-0.6,542.7,-495.9,-1649.7,0,2538,268435456,118,0, 
1.4133,-447.3,8.7,-11.1,481.8,534.6,-1469.4,1195.2,-316.5,-8225.1,538.5,1754.7,1452.3,-1254.6,-7153.8,5491.8,28.2,-6.9,-5.7,-140.7,-202.2,-0.6,562.8,-794.4,-1681.2,0,2544,268435456,119,0, 
1.4167,-444.3,-8.4,-25.2,471.6,515.7,-1424.1,1200.9,-301.5,2148.9,526.8,1745.4,1430.1,-1244.1,-6956.1,1867.2,39.9,-6.9,-5.7,-149.4,-220.8,-0.9,543.3,-421.5,-1626.9,0,2550,268435456,120,0, 
1.4200,-446.4,-24.3,-51.9,444.0,490.8,-1387.8,1194.0,-291.0,32455.8,496.2,1722.9,1406.7,-1262.4,-6704.1,9830.1,48.0,-6.6,-5.4,-169.8,-240.6,-1.2,509.7,100.8,-1558.2,0,2556,268435456,121,0, 
1.4233,-450.0,-32.1,-46.5,445.2,496.8,-1402.8,1189.8,-300.6,40532.7,501.9,1725.0,1411.2,-1282.5,-6735.0,9338.1,45.6,-7.2,-6.3,-168.6,-234.3,-0.9,513.6,68.1,-1561.5,0,2562,268435456,122,0, 
1.4267,-447.3,-14.4,-24.0,461.7,513.3,-1445.4,1193.4,-314.7,14968.2,527.1,1745.7,1434.0,-1281.0,-7020.9,9830.1,38.4,-6.9,-5.7,-147.0,-212.4,-0.9,551.1,-467.4,-1642.2,0,2568,268435456,123,0, 
1.4300,-447.0,5.4,-11.4,481.5,535.8,-1459.5,1200.3,-315.3,-8817.9,543.3,1762.5,1451.7,-1257.6,-7166.1,5106.0,35.7,-7.2,-6.0,-123.9,-199.8,-0.9,558.6,-789.3,-1688.4,0,2574,268435456,124,0, 
1.4333,-449.4,-12.3,-27.9,464.7,508.5,-1439.1,1201.2,-301.5,1852.5,517.5,1742.1,1424.7,-1248.0,-6968.7,1356.3,44.1,-6.9,-6.3,-146.4,-228.3,-0.3,546.6,-411.9,-1632.0,0,2580,268435456,125,0, 
1.4367,-453.6,-39.0,-51.9,437.4,481.2,-1405.2,1191.3,-301.2,31937.1,493.2,1713.9,1399.2,-1268.7,-6737.1,9830.1,48.6,-6.9,-6.0,-166.2,-244.8,-0.6,505.5,83.1,-1568.7,0,2586,268435456,126,0, 
1.4400,-456.3,-43.5,-58.2,436.8,480.9,-1413.0,1187.4,-309.3,39865.8,489.6,1716.3,1400.7,-1287.0,-6775.5,9333.6,45.6,-6.6,-5.7,-169.8,-241.5,-0.9,514.8,53.4,-1579.5,0,2592,268435456,127,0, 
1.4433,-447.6,-11.7,-24.3,465.6,516.9,-1449.6,1191.0,-313.2,14375.4,525.0,1752.3,1437.3,-1275.6,-7051.2,9830.1,33.6,-7.2,-6.0,-140.4,-212.1,-0.6,547.8,-490.2,-1656.0,0,2598,268435456,128,0, 
1.4467,-446.7,0.0,-12.0,476.4,531.3,-1466.1,1199.4,-315.0,-9410.7,536.1,1763.7,1449.3,-1252.5,-7191.0,4706.7,30.6,-6.3,-5.7,-136.5,-203.1,-0.6,550.5,-783.0,-1690.5,0,2604,268435456,129,0, 
1.4500,-451.5,-9.3,-24.3,468.9,517.2,-1428.0,1202.4,-298.8,963.3,514.8,1746.3,1430.4,-1247.4,-6989.7,801.0,44.4,-6.9,-5.7,-146.7,-218.1,0.0,534.3,-416.1,-1632.0,0,2610,268435456,130,0, 
1.4533,-452.7,-34.5,-46.5,442.5,490.2,-1393.2,1202.1,-291.0,31344.3,493.2,1724.7,1406.7,-1262.1,-6741.9,9830.1,55.2,-6.3,-5.7,-164.1,-230.7,-0.6,508.5,106.8,-1558.2,0,2616,268435456,131,0, 
1.4567,-450.9,-36.9,-47.7,444.9,492.0,-1402.2,1193.4,-295.2,39495.3,494.4,1734.9,1416.0,-1281.6,-6784.8,9351.0,51.0,-6.6,-5.7,-156.3,-231.3,-0.9,516.3,67.2,-1577.1,0,2622,268435456,132,0, 
1.4600,-451.2,-14.1,-25.2,470.1,523.2,-1441.8,1200.0,-310.2,14153.1,529.5,1753.8,1446.3,-1289.7,-7083.0,9830.1,42.6,-6.9,-6.0,-141.3,-198.0,-0.9,551.1,-492.9,-1653.0,0,2628,268435456,133,0, 
1.4633,-448.5,5.7,-9.0,484.8,538.2,-1456.5,1203.3,-312.0,-9707.1,533.4,1758.0,1453.2,-1279.5,-7222.8,4477.2,38.1,-7.2,-5.7,-131.4,-193.2,-0.9,565.2,-798.0,-1692.6,0,2634,268435456,134,0, 
1.4667,-450.0,-11.7,-27.3,465.9,513.9,-1421.4,1205.4,-304.5,963.3,512.7,1747.8,1431.3,-1264.8,-7016.7,517.5,45.6,-6.9,-6.0,-142.8,-220.2,-0.3,530.4,-426.6,-1642.5,0,2640,268435456,135,0, 
1.4700,-450.9,-43.8,-55.8,440.4,487.2,-1408.2,1196.4,-299.1,30973.8,490.5,1725.3,1407.9,-1281.3,-6768.9,9830.1,54.0,-6.6,-5.4,-161.7,-232.5,-0.6,508.5,92.1,-1569.6,0,2646,268435456,136,0, 
1.4733,-454.8,-39.3,-55.8,435.9,486.6,-1401.0,1186.8,-311.1,39421.2,481.5,1717.5,1401.6,-1310.7,-6828.0,9359.7,45.3,-7.5,-6.0,-176.4,-241.8,-0.6,493.5,33.3,-1595.4,0,2652,268435456,137,0, 
1.4767,-451.8,-20.1,-32.7,459.3,510.3,-1456.8,1188.9,-321.6,13782.6,516.9,1746.0,1434.3,-1291.5,-7110.3,9830.1,35.4,-7.2,-6.0,-148.8,-216.6,-0.9,539.4,-519.6,-1665.6,0,2658,268435456,138,0, 
1.4800,-444.0,4.5,-2.7,484.8,534.0,-1469.7,1197.6,-317.1,-10003.5,531.0,1770.6,1456.5,-1268.7,-7240.5,4265.7,31.8,-6.9,-6.0,-130.2,-195.3,-0.6,552.3,-829.8,-1703.4,0,2664,268435456,139,0, 
1.4833,-447.3,-17.4,-26.1,468.3,514.8,-1436.7,1200.3,-307.2,444.6,509.4,1750.2,1437.3,-1256.7,-7038.6,156.3,39.0,-6.9,-5.7,-141.3,-212.1,-0.3,529.2,-452.1,-1645.8,0,2670,268435456,140,0, 
1.4867,-446.1,-33.9,-53.4,444.3,486.3,-1395.6,1191.6,-301.8,30455.1,480.0,1726.2,1408.8,-1278.0,-6789.0,9762.6,39.0,-6.9,-6.0,-162.0,-230.4,-0.6,497.1,66.9,-1578.0,0,2676,268435456,141,0, 
1.4900,-449.4,-41.4,-46.2,444.6,489.6,-1408.8,1189.5,-305.7,38457.9,479.7,1738.2,1417.2,-1287.3,-6827.4,9366.0,39.6,-6.9,-6.3,-160.2,-227.4,-0.6,507.3,42.9,-1592.1,0,2682,268435456,142,0, 
1.4933,-444.0,-11.7,-20.1,473.1,525.0,-1440.0,1194.9,-316.2,13041.6,514.5,1768.2,1449.9,-1283.4,-7130.1,9830.1,27.6,-7.2,-6.0,-138.6,-195.3,-0.9,532.5,-529.2,-1666.5,0,2688,268435456,143,0, 
1.4967,-440.4,8.7,0.9,491.1,536.1,-1462.8,1202.1,-311.7,-10818.6,527.4,1782.9,1464.6,-1261.8,-7271.1,3773.1,25.2,-6.9,-6.0,-117.9,-196.2,-0.6,552.9,-816.9,-1699.5,0,2694,268435456,144,0, 
1.5000,-437.7,-2.7,-15.0,476.7,520.8,-1426.8,1206.3,-299.4,-296.4,510.6,1764.0,1448.4,-1255.5,-7070.1,-479.1,33.9,-6.9,-5.7,-132.0,-202.8,-0.6,529.8,-444.9,-1646.4,0,2700,268435456,145,0, 
1.5033,-441.9,-30.6,-54.9,443.1,483.6,-1395.9,1202.4,-291.3,30084.6,478.8,1715.4,1409.1,-1280.4,-6830.4,9635.7,45.0,-6.9,-5.7,-180.0,-239.1,-0.9,498.0,67.8,-1574.7,0,2706,268435456,146,0, 
1.5067,-444.0,-32.1,-42.3,446.1,491.4,-1403.7,1199.7,-298.5,37865.1,492.0,1741.8,1415.7,-1283.4,-6875.7,9386.7,35.1,-6.6,-5.4,-155.4,-236.7,-0.9,509.4,15.3,-1585.2,0,2712,268435456,147,0, 
1.5100,-434.7,-2.7,0.3,483.6,528.0,-1445.4,1204.2,-307.8,12374.7,540.3,1809.6,1466.4,-1258.2,-7156.2,9830.1,27.6,-6.9,-6.0,-91.5,-196.8,-0.9,544.5,-530.7,-1660.2,0,2718,268435456,148,0, 
1.5133,-436.2,18.6,8.1,497.4,541.8,-1463.4,1210.2,-309.0,-11707.8,546.6,1808.4,1479.3,-1242.9,-7302.3,3244.2,20.7,-6.9,-5.7,-92.4,-181.2,-0.6,551.7,-838.8,-1698.6,0,2724,268435456,149,0, 
1.5167,-435.9,-1.5,-6.0,485.1,528.6,-1426.2,1215.3,-297.3,-1259.7,532.2,1792.5,1470.9,-1242.6,-7088.1,-1357.2,35.1,-6.9,-6.0,-108.0,-186.9,-0.6,539.4,-445.8,-1637.4,0,2730,268435456,150,0, 
1.5200,-443.4,-28.8,-33.0,463.2,502.2,-1389.3,1211.7,-288.9,28750.8,493.8,1776.9,1453.2,-1252.2,-6851.4,9364.8,39.0,-6.9,-5.7,-126.6,-207.6,-0.6,516.9,61.5,-1563.0,0,2736,268435456,151,0, 
1.5233,-436.2,-26.1,-27.9,467.7,507.6,-1401.0,1209.0,-292.5,36679.5,502.2,1784.7,1461.3,-1263.0,-6906.6,9427.2,39.0,-7.2,-5.7,-119.4,-198.6,-0.6,517.5,24.9,-1573.2,0,2742,268435456,152,0, 
1.5267,-438.0,2.1,-0.3,492.6,539.1,-1435.2,1208.4,-303.6,10966.8,529.2,1811.1,1491.0,-1258.2,-7213.8,9830.1,21.0,-6.6,-6.0,-90.3,-177.6,-0.9,535.5,-541.8,-1661.1,0,2748,268435456,153,0, 
1.5300,-435.6,20.1,19.2,511.5,561.9,-1459.5,1214.4,-300.9,-12819.3,543.0,1832.1,1508.1,-1243.2,-7367.4,2334.6,13.2,-6.9,-5.4,-76.2,-158.4,-0.9,557.7,-853.5,-1694.1,0,2754,268435456,154,0, 
1.5333,-441.0,-1.5,8.7,498.9,535.5,-1423.5,1214.4,-288.6,-2667.6,533.1,1827.9,1495.8,-1248.0,-7163.4,-2496.9,25.5,-6.9,-6.0,-78.3,-178.8,-1.2,538.5,-474.9,-1636.8,0,2760,268435456,155,0, 
1.5367,-442.5,-24.6,-18.3,470.1,507.6,-1394.4,1205.1,-285.0,27268.8,492.0,1803.3,1467.3,-1256.4,-6919.5,8954.1,34.8,-7.2,-5.7,-101.7,-209.4,-0.9,499.2,30.0,-1568.4,0,2766,268435456,156,0, 
1.5400,-444.9,-32.4,-22.5,466.5,505.5,-1397.1,1204.5,-290.4,34827.0,485.1,1800.3,1463.4,-1272.6,-6975.9,9506.4,31.2,-6.6,-6.0,-109.5,-204.3,-0.9,492.6,5.7,-1578.9,0,2772,268435456,157,0, 
1.5433,-444.6,-3.0,3.0,491.7,532.8,-1446.6,1200.9,-298.2,9114.3,525.3,1824.0,1489.5,-1272.0,-7282.8,9830.1,16.5,-6.9,-5.7,-86.1,-186.0,-0.9,531.3,-560.1,-1662.9,0,2778,268435456,158,0, 
1.5467,-442.2,15.6,29.4,513.3,557.1,-1462.8,1210.2,-292.2,-14968.2,542.1,1851.3,1519.5,-1245.6,-7425.9,849.6,17.1,-6.9,-5.7,-52.5,-163.8,-0.6,555.9,-857.7,-1694.4,0,2784,268435456,159,0, 
1.5500,-443.1,2.1,10.8,500.7,540.9,-1428.3,1212.0,-281.1,-4446.0,526.2,1841.7,1510.8,-1231.8,-7234.2,-4216.8,29.4,-6.9,-6.0,-67.2,-167.1,-0.6,531.6,-481.2,-1638.6,0,2790,268435456,160,0, 
1.5533,-446.7,-30.6,-23.1,470.4,507.0,-1401.3,1204.5,-274.2,25342.2,490.2,1808.4,1473.9,-1264.2,-7001.7,8158.8,42.0,-6.9,-5.7,-100.2,-205.2,-0.6,500.7,32.1,-1571.1,0,2796,268435456,161,0, 
1.5567,-446.7,-30.0,-29.4,469.5,514.2,-1404.3,1203.3,-282.0,32974.5,481.2,1806.9,1481.7,-1290.0,-7077.6,9675.0,38.4,-7.2,-5.7,-106.2,-186.3,-0.9,498.9,-11.4,-1583.4,0,2802,268435456,162,0, 
1.5600,-444.6,-8.7,2.4,498.3,542.1,-1441.2,1205.7,-289.8,7113.6,519.9,1835.4,1510.8,-1287.0,-7375.8,9830.1,25.8,-7.2,-6.3,-81.0,-172.8,-1.2,532.8,-574.2,-1662.3,0,2808,268435456,163,0, 
1.5633,-438.3,21.3,35.7,527.7,569.1,-1456.2,1213.5,-286.8,-16820.7,538.8,1873.2,1541.1,-1257.9,-7535.4,-784.5,20.4,-7.2,-6.0,-44.7,-143.4,-0.6,553.5,-890.4,-1696.5,0,2814,268435456,164,0, 
1.5667,-437.7,3.9,22.5,519.3,553.2,-1434.9,1212.9,-270.3,-6446.7,527.7,1874.7,1534.2,-1239.9,-7336.2,-5959.8,28.5,-6.9,-6.0,-37.5,-153.6,-0.9,532.2,-510.3,-1641.6,0,2820,268435456,165,0, 
1.5700,-440.4,-25.8,-9.3,488.4,521.1,-1384.5,1207.8,-263.1,23267.4,478.8,1826.7,1493.7,-1256.7,-7116.0,7084.5,38.7,-6.9,-6.0,-86.7,-182.4,-0.3,505.5,7.5,-1572.6,0,2826,268435456,166,0, 
1.5733,-449.1,-31.8,-20.1,477.6,514.5,-1406.4,1193.7,-273.9,30751.5,482.4,1818.9,1490.4,-1294.2,-7187.4,9830.1,27.9,-6.6,-5.4,-90.9,-194.7,-0.9,506.1,-50.4,-1588.5,0,2832,268435456,167,0, 
1.5767,-443.7,-2.1,14.1,510.9,556.2,-1437.0,1200.3,-279.3,4890.6,522.9,1860.9,1530.9,-1273.5,-7493.4,9476.1,12.6,-6.9,-5.7,-53.1,-150.3,-0.9,535.2,-606.6,-1662.6,0,2838,268435456,168,0, 
1.5800,-441.9,21.6,42.3,532.5,573.6,-1455.9,1210.5,-278.7,-19488.3,542.7,1886.7,1555.5,-1250.4,-7638.9,-2845.8,4.2,-6.9,-6.0,-21.9,-143.7,-0.6,549.6,-892.8,-1700.4,0,2844,268435456,169,0, 
1.5833,-435.9,7.2,15.0,515.1,546.9,-1435.2,1207.8,-262.2,-8966.1,518.7,1866.9,1529.4,-1244.4,-7463.1,-8070.6,20.1,-6.6,-6.0,-43.5,-169.5,-0.6,535.8,-525.3,-1646.4,0,2850,268435456,170,0, 
1.5867,-442.2,-11.1,-17.1,485.1,522.9,-1391.1,1205.7,-253.8,20673.9,480.0,1820.1,1492.2,-1283.4,-7238.1,5515.8,28.5,-6.9,-5.7,-86.7,-191.4,-0.6,497.4,-1.5,-1574.1,0,2856,268435456,171,0, 
1.5900,-447.0,-42.6,-18.3,478.2,513.9,-1414.5,1198.8,-273.6,28083.9,496.8,1837.2,1499.4,-1286.4,-7327.5,9830.1,27.3,-7.2,-6.0,-68.1,-183.6,-0.9,513.3,-57.3,-1590.3,0,2862,268435456,172,0, 
1.5933,-438.9,1.5,9.9,509.4,551.7,-1428.9,1206.3,-271.2,1852.5,519.9,1861.2,1534.8,-1286.7,-7630.8,8471.7,16.8,-6.6,-6.0,-48.0,-160.5,-0.6,538.2,-605.4,-1665.6,0,2868,268435456,173,0, 
1.5967,-436.8,17.1,33.0,529.5,570.9,-1462.2,1213.8,-272.4,-22230.0,545.1,1879.8,1560.6,-1259.1,-7790.7,-5129.7,10.8,-7.2,-6.0,-25.2,-133.2,-0.9,566.4,-890.7,-1694.4,0,2874,268435456,174,0, 
1.6000,-436.2,9.6,21.6,516.9,554.1,-1427.4,1218.6,-259.8,-11856.0,525.3,1872.3,1539.3,-1233.9,-7604.4,-9830.1,24.6,-6.6,-5.7,-27.9,-154.2,-0.6,539.1,-506.4,-1638.3,0,2880,268435456,175,0, 
1.6033,-436.2,-18.0,-5.4,489.3,522.0,-1392.3,1212.3,-246.9,17932.2,497.1,1854.0,1508.4,-1247.7,-7388.7,3283.8,34.8,-6.9,-5.4,-46.5,-184.8,-0.6,511.5,12.3,-1572.9,0,2886,805306368,176,0, 
1.6067,-438.0,-24.9,-8.7,486.6,521.7,-1399.2,1209.3,-255.0,25194.0,493.5,1840.2,1502.1,-1266.9,-7484.4,9830.1,31.8,-6.6,-6.0,-56.4,-187.8,-0.9,510.6,-60.6,-1588.2,0,2892,805306368,177,0, 
1.6100,-439.2,0.3,16.2,510.9,557.1,-1432.2,1211.1,-267.0,-963.3,526.8,1858.2,1534.5,-1257.6,-7804.5,7021.2,17.7,-6.9,-6.0,-40.2,-150.6,-0.6,550.8,-621.0,-1664.1,0,2898,805306368,178,0, 
1.6133,-431.4,27.3,42.6,536.1,577.8,-1446.9,1222.2,-258.3,-25416.3,542.4,1884.9,1562.4,-1236.3,-7964.7,-7110.9,21.0,-6.9,-5.7,-24.9,-140.4,-0.6,566.7,-918.6,-1692.6,0,2904,805306368,179,0, 
1.6167,-430.5,17.1,21.9,519.6,561.0,-1424.1,1223.7,-245.4,-15190.5,528.6,1869.9,1545.6,-1223.7,-7797.6,-9830.1,30.9,-7.2,-5.7,-39.6,-151.5,-0.9,552.9,-530.4,-1632.6,0,2910,805306368,180,0, 
1.6200,-431.7,-26.1,3.6,495.6,535.2,-1371.6,1219.8,-239.4,14375.4,509.1,1849.5,1513.5,-1240.5,-7587.9,108.6,39.3,-6.9,-6.0,-51.3,-174.9,-0.9,515.1,-17.1,-1564.8,0,2916,805306368,181,0, 
1.6233,-436.8,-6.0,-0.9,493.5,531.6,-1395.9,1209.0,-246.9,21859.5,499.8,1853.1,1518.9,-1262.7,-7689.6,9830.1,33.9,-7.2,-6.0,-48.6,-182.1,-0.9,522.3,-84.0,-1584.0,0,2922,805306368,182,0, 
1.6267,-439.8,3.6,30.0,519.9,563.7,-1440.3,1213.2,-257.4,-4371.9,534.6,1881.9,1552.8,-1257.6,-8022.9,4778.7,24.9,-6.9,-6.0,-24.0,-147.0,-0.3,554.4,-629.7,-1657.2,0,2928,805306368,183,0, 
1.6300,-436.8,26.1,36.6,531.6,578.7,-1458.3,1220.7,-256.8,-28454.4,551.1,1877.7,1555.8,-1236.9,-8185.8,-8708.7,21.0,-6.9,-6.0,-20.4,-147.9,-0.9,565.5,-919.5,-1694.4,0,2934,805306368,184,0, 
1.6333,-435.6,1.2,23.7,515.7,549.6,-1422.9,1223.4,-243.3,-18228.6,531.0,1862.4,1532.7,-1238.1,-8023.8,-9830.1,36.0,-6.6,-5.7,-37.5,-162.3,-0.6,538.2,-547.8,-1629.6,0,2940,805306368,185,0, 
1.6367,-442.8,-23.1,-9.3,484.5,519.9,-1402.5,1212.0,-243.6,11337.3,489.3,1826.7,1498.2,-1261.2,-7817.1,-2979.9,44.1,-6.6,-5.7,-78.3,-189.0,-0.6,499.8,-30.3,-1578.3,0,2946,805306368,186,0, 
1.6400,-446.4,-34.8,-15.6,479.7,511.8,-1415.7,1205.7,-251.4,18228.6,497.7,1833.6,1496.1,-1286.7,-7928.7,9830.1,36.3,-7.2,-6.0,-76.8,-198.9,-0.3,508.5,-87.3,-1596.0,0,2952,805306368,187,0, 
1.6433,-445.2,0.3,16.2,510.0,551.7,-1452.9,1211.1,-258.3,-8151.0,525.0,1863.3,1528.8,-1289.1,-8264.4,1675.8,25.5,-6.6,-5.7,-47.7,-165.9,-0.9,536.1,-652.5,-1674.0,0,2958,805306368,188,0, 
1.6467,-437.7,18.9,34.2,533.1,568.2,-1466.7,1220.1,-249.6,-32752.2,541.5,1874.4,1546.2,-1276.5,-8436.3,-9823.8,22.8,-6.6,-5.7,-41.1,-154.5,-0.9,559.5,-947.4,-1704.9,0,2964,805306368,189,0, 
1.6500,-441.0,5.4,17.7,513.9,552.3,-1434.9,1222.2,-234.9,-22896.9,519.3,1853.7,1522.2,-1242.9,-8288.7,-9830.1,40.2,-6.6,-6.0,-57.3,-167.1,-0.9,538.2,-584.1,-1648.5,0,2970,805306368,190,0, 
1.6533,-443.7,-27.0,-12.3,485.1,518.1,-1389.6,1215.0,-228.0,5631.6,492.0,1820.4,1486.5,-1260.9,-8090.1,-6650.7,42.0,-6.6,-6.0,-83.4,-199.2,-0.6,508.8,-54.0,-1576.2,0,2976,805306368,191,0, 
1.6567,-439.2,-20.4,-8.4,487.2,529.2,-1404.0,1214.1,-233.7,12152.4,495.9,1831.2,1494.9,-1281.9,-8207.4,5215.2,41.4,-6.9,-5.4,-85.2,-183.3,-1.2,513.9,-132.3,-1591.8,0,2982,805306368,192,0, 
1.6600,-438.3,3.6,18.3,510.0,550.5,-1460.4,1213.8,-246.6,-15412.8,533.4,1859.1,1529.7,-1272.6,-8554.2,-3450.6,30.3,-6.9,-5.7,-63.0,-168.9,-1.2,551.4,-697.8,-1677.0,0,2988,805306368,193,0, 
1.6633,-428.1,29.4,40.2,528.3,573.3,-1467.9,1223.1,-244.2,-41051.4,545.1,1866.6,1544.4,-1250.1,-8767.5,-9830.1,25.2,-6.9,-5.7,-57.3,-151.8,-0.9,567.9,-1016.4,-1706.7,0,2994,805306368,194,0, 
1.6667,-428.7,20.7,28.5,518.7,558.3,-1438.8,1225.5,-228.0,-32233.5,535.2,1856.7,1526.1,-1230.6,-8641.5,-9401.1,34.2,-6.6,-6.0,-61.8,-162.0,-0.9,545.1,-656.4,-1659.6,0,3000,805306368,195,0, 
1.6700,-429.3,-8.7,-2.1,494.7,531.3,-1399.8,1223.4,-220.2,-3853.2,509.1,1827.6,1498.5,-1253.4,-8479.2,-9830.1,46.2,-6.9,-5.7,-90.0,-178.8,-0.9,518.4,-153.6,-1586.7,0,3006,805306368,196,0, 
1.6733,-432.9,-22.2,2.1,494.7,532.2,-1410.3,1218.9,-228.0,2593.5,510.6,1840.5,1500.6,-1251.3,-8610.6,-3601.2,42.3,-6.3,-5.7,-81.6,-183.0,-0.9,528.9,-210.6,-1600.2,0,3012,805306368,197,0, 
1.6767,-427.8,13.2,27.9,516.9,559.2,-1448.1,1222.2,-234.9,-24230.7,545.1,1859.7,1522.8,-1251.0,-8974.8,-8452.8,32.1,-6.9,-6.3,-69.0,-166.2,-0.9,553.8,-741.3,-1671.6,0,3018,805306368,198,0, 
1.6800,-426.0,32.4,41.4,532.5,574.8,-1464.0,1230.3,-231.6,-48609.6,558.3,1870.2,1543.8,-1227.0,-9189.6,-9830.1,32.7,-6.6,-6.0,-55.2,-151.5,-0.6,584.7,-1032.0,-1704.9,0,3024,805306368,199,0, 
1.6833,-423.9,11.7,29.1,522.6,561.3,-1433.7,1231.2,-221.4,-38087.4,526.5,1851.3,1527.9,-1223.1,-9078.3,-9746.7,38.4,-6.9,-5.1,-72.9,-159.3,-0.6,555.3,-666.9,-1649.4,0,3030,805306368,200,0, 
1.6867,-433.8,-14.7,-5.4,491.7,528.3,-1389.0,1225.5,-216.0,-8373.3,502.5,1822.2,1490.7,-1237.2,-8910.9,-9830.1,45.9,-6.9,-5.7,-95.1,-195.3,-0.6,525.6,-130.2,-1575.3,0,3036,805306368,201,0, 
1.6900,-432.0,-16.8,-10.8,486.0,522.0,-1410.3,1216.8,-225.9,-666.9,502.8,1824.3,1489.5,-1265.7,-9047.4,-7856.1,39.9,-6.9,-5.7,-91.5,-196.5,-0.9,530.4,-184.8,-1598.1,0,3042,805306368,202,0, 
1.6933,-429.6,11.7,22.8,514.2,555.3,-1449.9,1220.1,-234.9,-26305.5,535.5,1838.1,1516.8,-1255.5,-9400.2,-9319.5,26.1,-6.6,-5.7,-78.0,-173.4,-0.9,556.8,-739.2,-1671.9,0,3048,805306368,203,0, 
1.6967,-430.5,25.5,43.2,539.7,581.4,-1452.3,1233.9,-228.9,-49721.1,555.6,1867.5,1544.4,-1230.6,-9608.4,-9830.1,26.4,-6.9,-6.0,-58.8,-145.5,-0.3,581.7,-1020.9,-1698.3,0,3054,805306368,204,0, 
1.7000,-429.6,16.8,15.0,516.3,555.3,-1419.9,1238.1,-219.0,-38828.4,528.0,1836.9,1510.2,-1239.0,-9469.2,-9720.3,40.8,-6.9,-5.7,-81.6,-175.2,-0.6,543.9,-622.8,-1638.6,0,3060,805306368,205,0, 
1.7033,-434.1,-18.0,-9.3,486.9,519.6,-1401.3,1225.2,-216.6,-8447.4,504.6,1812.6,1482.3,-1245.9,-9278.1,-9830.1,53.4,-6.6,-5.4,-97.5,-200.7,-0.6,519.6,-90.3,-1578.9,0,3066,805306368,206,0, 
1.7067,-432.3,-17.1,-10.5,487.8,527.7,-1401.0,1222.2,-217.8,-444.6,510.9,1814.4,1487.1,-1253.4,-9372.3,-8299.8,46.2,-6.9,-5.7,-103.8,-189.6,-0.9,530.4,-129.0,-1576.5,0,3072,805306368,207,0, 
1.7100,-428.4,15.3,22.5,510.9,550.8,-1433.4,1222.2,-227.4,-26009.1,538.2,1842.9,1519.2,-1244.1,-9712.2,-9407.4,35.4,-6.6,-5.7,-78.3,-171.9,-0.6,565.2,-660.9,-1659.3,0,3078,805306368,208,0, 
1.7133,-427.2,31.2,37.5,525.9,565.8,-1458.3,1230.0,-225.9,-49202.4,561.9,1858.5,1533.3,-1228.8,-9826.8,-9830.1,31.2,-6.6,-6.0,-61.8,-160.2,-0.6,574.5,-953.1,-1687.8,0,3084,805306368,209,0, 
1.7167,-427.8,23.1,28.2,514.2,554.7,-1425.3,1231.2,-212.7,-38087.4,540.0,1839.9,1509.9,-1216.8,-9812.1,-9661.8,45.9,-6.9,-5.7,-78.0,-172.8,-0.3,555.0,-569.1,-1632.0,0,3090,0,210,0, 
1.7200,-432.6,-13.5,-12.3,489.3,524.4,-1383.0,1224.0,-205.8,-7261.8,504.6,1812.6,1482.6,-1238.1,-9546.6,-9830.1,51.9,-6.9,-5.7,-98.4,-194.7,-0.6,520.8,-46.2,-1556.1,0,3096,0,211,0, 
1.7233,-437.4,-11.4,-5.4,488.1,527.1,-1393.5,1221.9,-213.0,741.0,508.8,1817.4,1488.9,-1265.7,-9657.0,-7666.2,49.2,-6.9,-6.0,-97.8,-188.7,-0.6,532.5,-95.1,-1578.9,0,3102,536870912,212,0, 
1.7267,-429.9,9.6,21.3,517.2,559.8,-1432.5,1223.4,-221.4,-24527.1,537.9,1849.5,1519.2,-1250.4,-9813.9,-9194.1,41.7,-6.9,-6.0,-72.6,-171.9,-0.6,561.6,-628.2,-1649.4,0,3108,536870912,213,0, 
1.7300,-425.7,36.6,42.9,536.4,573.6,-1452.0,1231.2,-220.5,-47720.4,561.6,1862.1,1537.2,-1236.0,-9827.4,-9830.1,43.2,-7.2,-5.7,-56.1,-159.3,-0.9,577.8,-921.0,-1681.5,0,3114,536870912,214,0, 
1.7333,-430.8,15.3,24.0,520.8,559.5,-1410.9,1237.8,-204.0,-36457.2,537.6,1829.7,1510.2,-1232.4,-9827.4,-9603.6,54.9,-6.9,-5.7,-84.6,-167.1,-0.9,547.8,-536.7,-1620.3,0,3120,536870912,215,0, 
1.7367,-431.4,-8.1,-8.1,487.2,514.5,-1380.0,1231.5,-199.2,-5928.0,501.9,1802.4,1475.1,-1256.4,-9807.9,-9830.1,67.5,-6.9,-5.7,-111.0,-213.6,-0.9,513.0,12.3,-1549.5,0,3126,536870912,216,0, 
1.7400,-430.8,-10.5,-6.0,490.8,531.9,-1393.8,1222.5,-205.8,2371.2,511.2,1814.7,1486.8,-1261.8,-9760.8,-6489.9,60.9,-6.6,-5.7,-96.3,-193.8,-0.6,531.3,-56.7,-1566.6,0,3132,536870912,217,0, 
1.7433,-430.8,6.0,24.0,515.7,555.9,-1435.8,1225.8,-223.2,-22748.7,539.7,1845.3,1521.6,-1250.4,-9827.4,-8748.9,51.6,-6.6,-6.3,-71.7,-166.5,-0.9,555.9,-595.5,-1643.4,0,3138,536870912,218,0, 
1.7467,-425.1,33.6,39.9,535.2,576.0,-1443.0,1236.0,-216.6,-45645.6,563.4,1854.6,1538.7,-1232.1,-9821.1,-9830.1,42.0,-6.9,-5.7,-58.8,-148.2,-0.9,572.1,-891.6,-1675.2,0,3144,536870912,219,0, 
1.7500,-426.3,14.1,18.9,518.7,552.6,-1408.5,1236.6,-207.9,-34160.1,540.6,1839.0,1512.9,-1227.3,-9827.4,-9554.4,57.0,-6.6,-6.0,-73.2,-175.8,-0.9,566.1,-496.8,-1615.5,0,3150,536870912,220,0, 
1.7533,-429.6,-9.0,0.9,492.9,527.7,-1377.0,1228.2,-200.7,-3482.7,513.9,1815.0,1483.2,-1241.7,-9826.2,-9830.1,63.0,-6.6,-5.7,-95.4,-194.4,-0.3,528.6,16.2,-1545.9,0,3156,536870912,221,0, 
1.7567,-429.6,-12.6,-2.4,490.8,528.6,-1384.8,1224.3,-210.3,4594.2,519.0,1824.0,1491.9,-1267.2,-9827.4,-4519.5,59.1,-7.2,-5.7,-87.0,-192.0,-0.6,536.7,-32.7,-1563.3,0,3162,536870912,222,0, 
1.7600,-425.7,18.3,29.1,522.6,567.6,-1410.9,1230.0,-216.3,-20377.5,553.8,1849.5,1525.2,-1256.4,-9827.4,-7926.0,46.5,-6.9,-6.0,-62.4,-160.2,-0.6,568.8,-581.7,-1637.1,0,3168,536870912,223,0, 
1.7633,-421.8,35.1,36.6,528.6,570.9,-1442.7,1233.0,-218.1,-43200.3,568.5,1857.9,1532.1,-1241.7,-9826.8,-9830.1,43.5,-7.2,-6.0,-54.9,-162.6,-0.6,580.5,-864.3,-1672.2,0,3174,536870912,224,0, 
1.7667,-420.9,15.6,16.8,512.7,551.7,-1411.8,1234.2,-201.6,-31640.7,538.5,1838.4,1508.4,-1219.2,-9827.4,-9559.5,51.3,-6.9,-5.4,-66.6,-172.2,-0.9,558.0,-482.7,-1612.2,0,3180,536870912,225,0, 
1.7700,-426.9,-8.4,-13.8,480.6,516.9,-1375.8,1225.2,-201.3,-815.1,509.1,1804.5,1474.8,-1249.5,-9827.1,-9804.3,58.5,-7.2,-6.0,-102.6,-204.9,-0.3,525.6,17.4,-1553.4,0,3186,536870912,226,0, 
1.7733,-435.0,-29.7,-21.3,476.4,516.0,-1373.1,1219.5,-218.1,7187.7,497.7,1802.7,1472.4,-1271.7,-9827.4,-2217.3,58.2,-7.2,-5.7,-113.4,-206.7,-0.9,526.5,-36.3,-1568.4,0,3192,536870912,227,0, 
1.7767,-432.3,6.0,7.5,496.2,538.2,-1444.8,1219.8,-231.3,-17784.0,531.9,1830.0,1497.9,-1266.0,-9827.4,-6810.9,45.6,-6.9,-5.7,-89.4,-185.7,-0.6,552.3,-587.4,-1647.0,0,3198,536870912,228,0, 
1.7800,-427.2,22.8,30.6,516.0,556.5,-1450.8,1230.6,-232.8,-40755.0,550.2,1845.0,1513.8,-1245.6,-9827.4,-9830.1,42.0,-6.9,-6.0,-78.3,-176.4,-1.2,571.2,-857.7,-1683.0,0,3204,536870912,229,0, 
1.7833,-426.6,9.9,11.7,501.9,543.6,-1411.8,1237.8,-214.8,-29491.8,539.4,1830.3,1498.8,-1236.0,-9827.4,-9605.4,52.2,-6.9,-6.3,-86.7,-186.0,-0.9,555.3,-454.8,-1614.9,0,3210,536870912,230,0, 
1.7867,-430.2,-21.0,-23.1,473.4,505.2,-1375.5,1225.2,-208.5,1185.6,509.7,1799.4,1458.6,-1252.2,-9827.4,-9345.6,60.6,-6.9,-5.7,-114.3,-220.2,-0.6,527.1,66.3,-1550.7,0,3216,536870912,231,0, 
1.7900,-431.1,-24.6,-27.3,465.3,500.4,-1395.0,1215.0,-222.3,9410.7,508.2,1797.9,1456.2,-1272.0,-9827.4,-104.1,56.1,-6.6,-6.0,-116.4,-223.5,-0.6,519.0,1.8,-1573.8,0,3222,536870912,232,0, 
1.7933,-431.7,2.4,6.0,496.5,537.9,-1428.6,1221.0,-234.3,-15338.7,540.0,1830.6,1500.6,-1268.7,-9826.8,-5547.9,45.0,-6.9,-5.7,-90.9,-188.1,-0.6,566.7,-550.5,-1640.1,0,3228,536870912,233,0, 
1.7967,-426.9,27.0,22.2,514.2,562.2,-1442.1,1235.1,-234.9,-38235.6,554.7,1844.4,1514.1,-1244.4,-9827.4,-9830.1,41.7,-7.2,-6.0,-80.7,-174.9,-0.9,576.3,-834.3,-1673.1,0,3234,536870912,234,0, 
1.8000,-427.2,8.4,9.0,501.3,535.8,-1411.2,1238.4,-222.0,-26824.2,530.7,1826.4,1491.0,-1242.9,-9826.8,-9706.5,57.9,-6.6,-6.0,-92.1,-189.6,-0.9,548.4,-433.8,-1611.6,0,3240,536870912,235,0, 
1.8033,-426.9,-23.1,-21.3,474.3,509.4,-1374.6,1233.3,-219.0,3779.1,506.7,1801.2,1464.9,-1251.0,-9827.4,-8570.4,66.3,-6.9,-5.7,-109.5,-208.2,-0.3,530.1,82.8,-1544.7,0,3246,536870912,236,0, 
1.8067,-435.3,-26.7,-28.5,469.8,510.0,-1377.0,1229.7,-227.7,11781.9,504.9,1799.4,1459.5,-1271.7,-9809.4,2202.6,53.4,-6.9,-5.7,-115.8,-214.2,-1.2,516.0,16.5,-1554.6,0,3252,536870912,237,0, 
1.8100,-433.8,4.5,3.0,497.4,533.4,-1434.9,1229.7,-239.7,-13189.8,544.2,1831.2,1493.4,-1278.6,-9825.9,-4076.4,43.2,-6.6,-5.4,-93.9,-195.3,-0.9,559.8,-528.9,-1638.6,0,3258,536870912,238,0, 
1.8133,-428.7,16.5,20.4,514.5,555.6,-1438.8,1239.3,-237.9,-36309.0,557.4,1835.4,1505.7,-1256.7,-9826.5,-9830.1,44.7,-6.6,-5.7,-83.4,-179.1,-0.6,574.5,-798.3,-1669.2,0,3264,536870912,239,0, 
1.8167,-428.7,15.0,4.8,501.3,531.9,-1416.3,1241.1,-224.1,-24675.3,533.4,1815.0,1485.6,-1255.5,-9827.4,-9821.1,55.5,-6.9,-5.7,-95.1,-196.5,-0.6,557.1,-414.3,-1611.3,0,3270,536870912,240,0, 
1.8200,-437.1,-31.2,-31.2,467.1,504.9,-1376.7,1235.1,-225.0,5853.9,498.9,1780.5,1454.4,-1274.4,-9791.1,-7673.7,64.2,-6.3,-5.7,-128.1,-214.2,-0.9,519.9,101.7,-1548.6,0,3276,536870912,241,0, 
1.8233,-439.5,-39.0,-36.9,461.4,499.8,-1381.2,1228.2,-234.9,13708.5,499.5,1783.2,1453.5,-1289.4,-9715.2,4179.0,65.1,-6.9,-6.0,-127.5,-223.8,-0.6,521.7,55.5,-1557.6,0,3282,536870912,242,0, 
1.8267,-436.2,-4.5,-3.3,490.8,532.5,-1430.1,1230.9,-246.3,-11263.2,530.7,1816.5,1485.6,-1276.5,-9827.4,-2586.0,56.1,-6.6,-6.0,-99.3,-192.3,-0.6,553.2,-503.4,-1638.0,0,3288,536870912,243,0, 
1.8300,-437.7,9.6,18.3,512.4,553.2,-1434.6,1238.1,-242.7,-34234.2,551.7,1839.3,1502.1,-1257.6,-9810.3,-9830.1,50.7,-6.9,-6.0,-78.0,-183.9,-0.6,570.0,-797.1,-1669.8,0,3294,536870912,244,0, 
1.8333,-432.6,5.7,4.8,501.0,537.0,-1400.7,1246.2,-223.8,-22896.9,537.9,1824.3,1484.7,-1249.5,-9827.4,-9830.1,68.4,-6.9,-6.0,-84.9,-194.1,-0.6,551.7,-394.5,-1609.2,0,3300,536870912,245,0, 
1.8367,-440.1,-24.9,-22.5,472.8,510.9,-1372.2,1236.3,-222.9,7632.3,494.7,1788.0,1456.5,-1279.5,-9668.1,-6735.6,75.6,-6.9,-6.0,-122.1,-208.2,-0.6,520.5,120.9,-1535.1,0,3306,536870912,246,0, 
1.8400,-437.7,-25.2,-32.7,463.8,504.0,-1384.5,1225.5,-235.5,15635.1,495.6,1784.4,1449.3,-1289.7,-9605.1,5878.5,72.3,-6.9,-6.0,-115.8,-227.7,-0.6,521.4,52.8,-1571.1,0,3312,536870912,247,0, 
1.8433,-434.7,-5.4,-1.2,495.6,536.1,-1423.5,1226.1,-243.9,-9633.0,527.7,1815.3,1483.5,-1277.1,-9827.4,-1177.8,56.1,-7.2,-5.7,-90.3,-199.5,-0.9,554.1,-495.9,-1636.8,0,3318,536870912,248,0, 
1.8467,-430.5,24.3,19.5,511.2,553.5,-1442.1,1229.7,-241.2,-32455.8,546.3,1828.5,1501.2,-1251.3,-9810.9,-9830.1,51.3,-6.9,-5.7,-81.3,-180.3,-0.9,570.6,-807.3,-1675.5,0,3324,536870912,249,0, 
1.8500,-428.7,3.6,4.5,496.5,537.9,-1407.6,1233.0,-228.6,-20970.3,537.0,1813.5,1484.4,-1247.1,-9827.4,-9830.1,60.6,-6.9,-5.7,-93.6,-193.2,-0.6,548.7,-420.9,-1618.2,0,3330,536870912,250,0, 
1.8533,-423.9,-15.0,-9.9,475.5,513.3,-1368.6,1233.9,-215.1,9410.7,510.9,1801.2,1459.8,-1254.3,-9521.7,-5548.2,70.5,-6.6,-6.0,-108.6,-217.5,-0.6,528.0,101.4,-1540.5,0,3336,536870912,251,0, 
1.8567,-425.4,-20.7,-18.0,474.9,512.1,-1377.0,1223.7,-225.3,17265.3,516.0,1797.6,1461.3,-1266.9,-9513.0,7545.0,61.8,-6.9,-6.0,-112.8,-215.4,-0.9,526.2,40.8,-1564.8,0,3342,536870912,252,0, 
1.8600,-420.9,17.4,9.6,493.2,541.8,-1419.9,1224.9,-232.8,-8002.8,540.9,1817.1,1488.6,-1247.4,-9747.6,189.0,49.8,-6.9,-5.7,-98.7,-191.4,-0.6,551.7,-492.9,-1641.0,0,3348,536870912,253,0, 
1.8633,-426.0,18.6,20.7,507.6,550.5,-1443.0,1229.7,-236.4,-30899.7,554.1,1831.8,1502.1,-1229.1,-9827.4,-9754.2,50.7,-6.9,-6.0,-86.1,-182.4,-0.6,569.1,-787.8,-1678.8,0,3354,536870912,254,0, 
1.8667,-425.7,1.5,8.7,494.7,539.1,-1407.6,1236.0,-224.4,-19636.5,532.8,1813.2,1488.6,-1224.6,-9704.7,-9830.1,63.3,-6.3,-5.4,-102.9,-198.9,-0.6,549.0,-409.2,-1618.8,0,3360,536870912,255,0, 
1.8700,-428.7,-22.8,-24.3,467.1,508.8,-1368.3,1231.8,-219.6,10818.6,497.7,1784.7,1453.5,-1260.0,-9369.0,-4544.7,71.4,-6.9,-5.7,-126.3,-220.8,-0.9,510.0,102.6,-1545.3,0,3366,536870912,0,0, 
1.8733,-430.5,-27.0,-25.5,465.9,506.4,-1379.1,1230.6,-226.5,18673.2,505.8,1788.9,1455.9,-1275.3,-9422.7,8773.8,70.2,-6.6,-5.4,-118.5,-220.8,-1.2,513.6,60.9,-1566.9,0,3372,536870912,1,0, 
1.8767,-425.7,3.9,2.1,492.0,534.0,-1422.6,1234.5,-239.4,-6743.1,537.3,1809.6,1483.5,-1262.7,-9666.3,1468.8,59.1,-6.9,-5.7,-98.1,-206.7,-1.2,554.7,-502.5,-1631.7,0,3378,536870912,2,0, 
1.8800,-424.8,22.5,20.7,510.3,557.7,-1432.8,1242.0,-239.1,-29788.2,556.8,1832.1,1504.2,-1235.7,-9770.4,-9468.9,59.1,-6.6,-6.0,-77.4,-183.6,-0.9,568.2,-775.5,-1668.3,0,3384,536870912,3,0, 
1.8833,-423.9,6.3,3.0,498.3,536.4,-1389.9,1246.8,-225.3,-18525.0,540.3,1814.4,1485.3,-1232.1,-9556.2,-9830.1,70.5,-6.9,-6.0,-94.8,-201.6,-0.6,562.2,-399.9,-1602.9,0,3390,536870912,4,0, 
1.8867,-427.5,-21.0,-22.5,471.6,507.3,-1364.1,1239.0,-219.0,12004.2,508.5,1789.2,1456.2,-1259.1,-9282.3,-3603.3,78.3,-6.6,-5.4,-111.9,-222.3,-0.9,531.0,107.7,-1537.8,0,3396,536870912,5,0, 
1.8900,-425.7,-19.5,-21.3,473.1,509.4,-1377.6,1233.3,-230.1,19340.1,514.2,1795.5,1457.4,-1281.3,-9325.5,9728.4,73.2,-6.9,-6.9,-108.3,-219.3,-0.6,525.3,41.7,-1553.7,0,3402,536870912,6,0, 
1.8933,-432.0,-4.8,3.9,495.9,540.3,-1414.2,1231.5,-243.3,-6002.1,540.6,1817.4,1488.6,-1282.5,-9586.8,2237.4,54.0,-6.6,-5.4,-86.7,-209.1,-0.9,558.3,-510.0,-1628.1,0,3408,536870912,7,0, 
1.8967,-422.7,24.9,24.9,513.6,556.2,-1421.7,1242.0,-238.2,-29269.5,553.5,1828.8,1501.5,-1254.0,-9684.0,-9314.7,58.5,-6.6,-6.0,-73.8,-193.2,-0.9,570.3,-782.7,-1670.7,0,3414,536870912,8,0, 
1.9000,-426.6,-2.1,7.2,498.9,544.5,-1405.5,1247.4,-226.8,-18376.8,538.8,1820.4,1493.4,-1251.3,-9446.7,-9830.1,69.0,-6.6,-5.7,-80.4,-189.6,-0.6,551.4,-386.7,-1599.6,0,3420,536870912,9,0, 
1.9033,-426.6,-3.9,-8.7,472.8,510.0,-1367.4,1240.2,-216.6,11930.1,506.7,1793.1,1458.9,-1284.0,-9195.0,-3424.8,76.5,-6.9,-5.7,-111.3,-229.5,-0.3,525.3,117.0,-1543.8,0,3426,536870912,10,0, 
1.9067,-433.2,-27.6,-19.2,471.9,520.5,-1370.4,1235.1,-230.1,19340.1,512.4,1795.8,1466.1,-1284.3,-9242.7,9830.1,69.0,-6.9,-6.0,-101.1,-219.9,-0.6,529.2,36.3,-1552.5,0,3432,536870912,11,0, 
1.9100,-430.5,0.6,7.2,493.5,540.6,-1409.7,1237.8,-246.0,-6446.7,536.4,1820.7,1486.8,-1271.4,-9503.4,2116.5,60.9,-7.2,-5.7,-75.6,-194.4,-0.9,563.7,-501.3,-1630.5,0,3438,805306368,12,0, 
1.9133,-430.5,12.6,21.0,511.8,563.4,-1422.3,1246.5,-244.8,-29788.2,558.3,1833.6,1504.8,-1257.6,-9616.5,-9372.6,63.3,-7.2,-5.7,-66.9,-178.8,-0.9,575.7,-785.4,-1658.4,0,3444,805306368,13,0, 
1.9167,-428.1,7.5,2.4,497.4,542.7,-1395.9,1246.8,-235.8,-18747.3,531.9,1811.1,1484.7,-1250.7,-9395.1,-9830.1,74.1,-6.9,-5.7,-82.5,-198.6,-0.6,553.2,-404.7,-1599.3,0,3450,805306368,14,0, 
1.9200,-431.1,-28.5,-19.2,470.1,511.2,-1363.2,1238.1,-232.2,11337.3,499.8,1782.0,1451.4,-1254.9,-9137.7,-3708.3,82.5,-7.2,-5.7,-108.6,-227.7,-0.6,518.1,111.0,-1540.5,0,3456,805306368,15,0, 
1.9233,-431.7,-27.3,-25.2,462.6,506.7,-1378.8,1232.7,-244.5,18895.5,503.4,1786.8,1457.1,-1279.2,-9186.0,9537.6,77.1,-6.9,-5.4,-109.2,-221.4,-0.9,527.7,53.7,-1560.3,0,3462,805306368,16,0, 
1.9267,-426.6,-2.4,2.1,494.4,543.6,-1416.6,1235.4,-253.8,-6446.7,537.6,1818.9,1489.8,-1277.4,-9460.5,1970.4,69.6,-6.6,-5.7,-88.5,-189.6,-0.3,556.5,-510.6,-1624.5,0,3468,805306368,17,0, 
1.9300,-426.9,21.3,28.2,512.7,562.2,-1437.6,1248.6,-249.9,-29862.3,562.8,1839.9,1510.2,-1254.6,-9576.6,-9387.3,63.6,-7.2,-6.0,-68.4,-174.9,-1.2,575.7,-796.8,-1656.0,0,3474,805306368,18,0, 
1.9333,-427.2,2.7,9.0,496.5,543.6,-1397.7,1244.7,-240.6,-18599.1,533.7,1814.7,1488.9,-1247.4,-9362.7,-9830.1,72.0,-6.9,-6.0,-85.5,-191.7,-0.6,558.9,-406.2,-1600.8,0,3480,805306368,19,0, 
1.9367,-431.1,-22.8,-23.7,465.0,507.0,-1374.0,1237.5,-237.3,11633.7,498.3,1788.0,1453.2,-1268.1,-9107.1,-3542.1,79.2,-6.9,-5.7,-116.7,-230.1,-0.6,519.9,111.3,-1540.5,0,3486,805306368,20,0, 
1.9400,-431.7,-25.8,-18.0,475.2,518.4,-1388.7,1225.8,-242.4,19266.0,513.0,1798.8,1466.1,-1270.8,-9155.4,9739.8,72.9,-6.9,-6.0,-107.1,-206.7,-0.6,540.6,41.1,-1545.0,0,3492,805306368,21,0, 
1.9433,-430.5,5.4,13.8,504.6,552.6,-1415.1,1232.4,-252.6,-6224.4,537.9,1827.6,1500.0,-1268.4,-9435.6,2245.2,58.5,-6.9,-6.3,-78.6,-183.6,-0.9,560.4,-525.3,-1626.0,0,3498,805306368,22,0, 
1.9467,-418.8,33.3,32.7,519.9,567.0,-1433.1,1236.9,-248.1,-29565.9,552.6,1837.5,1517.4,-1248.9,-9541.5,-9332.4,50.7,-6.6,-5.7,-74.1,-180.3,-0.9,585.0,-798.6,-1660.5,0,3504,805306368,23,0, 
1.9500,-422.4,13.5,24.3,508.5,552.9,-1399.5,1242.9,-234.0,-18376.8,548.1,1828.8,1500.3,-1226.4,-9331.2,-9830.1,59.7,-6.6,-5.7,-75.0,-190.2,-0.9,566.4,-424.2,-1599.6,0,3510,805306368,24,0, 
1.9533,-421.8,-10.8,-7.8,477.9,522.9,-1371.3,1228.8,-234.6,11411.4,515.4,1799.1,1465.2,-1246.2,-9065.4,-3556.8,66.3,-6.6,-6.3,-96.9,-209.4,-0.6,535.2,96.3,-1536.3,0,3516,805306368,25,0, 
1.9567,-426.0,-16.5,-9.0,474.3,515.7,-1368.3,1224.9,-240.0,19191.9,518.7,1797.6,1458.9,-1266.6,-9119.4,9630.3,59.1,-6.9,-5.4,-95.7,-224.4,-1.2,534.6,39.3,-1555.8,0,3522,805306368,26,0, 
1.9600,-424.5,7.5,16.2,497.1,552.9,-1423.8,1221.0,-252.0,-6669.0,539.4,1814.1,1490.1,-1258.5,-9391.5,1973.1,44.7,-6.3,-5.4,-79.2,-191.7,-0.3,560.1,-526.8,-1635.6,0,3528,805306368,27,0, 
1.9633,-420.6,23.7,28.5,514.2,565.5,-1430.7,1229.1,-248.4,-29788.2,555.9,1831.5,1504.8,-1245.3,-9510.3,-9389.1,50.7,-7.2,-5.7,-62.4,-182.7,-0.9,575.4,-801.3,-1668.3,0,3534,805306368,28,0, 
1.9667,-425.7,2.1,8.4,496.8,540.3,-1411.5,1227.6,-237.9,-18895.5,537.6,1812.9,1483.2,-1235.1,-9295.2,-9830.1,58.8,-7.2,-5.7,-78.9,-202.8,-0.9,551.7,-426.9,-1615.2,0,3540,805306368,29,0, 
1.9700,-425.7,-17.7,-14.1,472.5,511.8,-1377.3,1225.8,-235.2,11337.3,506.4,1790.4,1457.7,-1258.8,-9042.6,-3695.7,65.7,-6.6,-5.7,-99.0,-227.7,-0.9,526.8,98.7,-1545.3,0,3546,805306368,30,0, 
1.9733,-430.8,-27.0,-18.0,468.6,516.0,-1384.8,1221.9,-244.5,18895.5,511.5,1787.1,1459.5,-1277.7,-9087.9,9539.7,63.9,-6.6,-5.7,-104.7,-221.1,-1.2,526.5,34.8,-1557.3,0,3552,805306368,31,0, 
1.9767,-428.4,8.7,9.6,492.3,543.9,-1432.2,1222.5,-258.6,-6446.7,537.6,1811.7,1486.5,-1277.7,-9375.6,1977.3,44.7,-6.9,-6.0,-88.2,-201.0,-0.6,555.6,-518.4,-1638.0,0,3558,805306368,32,0, 
1.9800,-423.6,29.4,29.7,515.7,567.0,-1434.6,1238.4,-250.2,-29714.1,557.1,1834.8,1512.0,-1245.0,-9480.3,-9365.4,43.2,-7.2,-6.0,-65.4,-181.2,-1.2,584.4,-791.7,-1664.1,0,3564,805306368,33,0, 
1.9833,-430.2,-0.9,9.3,496.8,542.7,-1412.7,1232.7,-246.0,-18673.2,533.1,1820.7,1493.4,-1242.9,-9267.9,-9830.1,55.5,-7.2,-5.7,-68.4,-198.9,-0.6,561.9,-393.6,-1606.2,0,3570,805306368,34,0, 
1.9867,-434.7,-24.6,-19.5,469.8,518.1,-1365.9,1229.7,-239.7,11707.8,500.7,1786.5,1453.2,-1266.9,-9019.8,-3522.6,66.0,-6.9,-5.7,-100.2,-219.0,-1.2,515.4,117.3,-1531.2,0,3576,805306368,35,0, 
1.9900,-438.3,-36.9,-26.1,456.9,504.3,-1396.8,1216.8,-254.1,19117.8,509.1,1780.5,1448.1,-1285.2,-9078.9,9750.3,56.4,-7.2,-6.0,-105.9,-237.3,-0.3,524.7,42.6,-1557.6,0,3582,805306368,36,0, 
1.9933,-434.7,-2.7,6.6,487.5,536.7,-1434.0,1221.6,-264.6,-6298.5,546.9,1811.4,1484.4,-1280.1,-9363.9,2189.4,46.5,-6.6,-6.0,-75.6,-208.5,-0.6,565.8,-514.8,-1633.8,0,3588,805306368,37,0, 
1.9967,-434.1,15.6,21.9,506.4,559.8,-1446.9,1230.9,-266.1,-29491.8,559.2,1824.3,1504.8,-1258.8,-9498.0,-9317.4,45.6,-6.9,-5.4,-65.1,-188.4,-0.6,577.8,-806.1,-1665.3,0,3594,805306368,38,0, 
2.0000,-432.6,-3.0,5.4,487.2,537.3,-1421.4,1224.0,-254.4,-18154.5,527.4,1807.2,1485.0,-1251.9,-9279.9,-9830.1,51.3,-7.5,-5.7,-86.7,-201.0,-0.6,546.6,-434.4,-1611.0,0,3600,805306368,39,0, 
2.0033,-441.9,-33.9,-21.6,460.5,506.4,-1377.3,1221.9,-252.0,11856.0,498.9,1786.2,1451.1,-1261.5,-9017.1,-3334.5,63.3,-6.9,-5.7,-103.5,-233.7,-0.6,518.7,86.4,-1541.7,0,3606,805306368,40,0, 
2.0067,-441.9,-34.2,-28.8,460.5,514.5,-1386.6,1215.3,-258.9,19340.1,500.4,1784.1,1456.5,-1281.0,-9074.7,9830.1,56.1,-6.9,-6.0,-103.8,-224.7,-0.9,531.9,27.0,-1554.9,0,3612,805306368,41,0, 
2.0100,-440.4,-9.0,4.8,488.7,543.6,-1431.6,1214.7,-270.6,-6372.6,534.0,1807.8,1485.9,-1272.6,-9357.0,2187.0,42.9,-6.9,-5.4,-81.0,-205.8,-0.6,564.6,-526.2,-1628.1,0,3618,805306368,42,0, 
2.0133,-437.7,11.1,21.0,504.0,552.3,-1449.0,1221.3,-271.2,-29714.1,548.4,1829.7,1503.3,-1261.5,-9469.2,-9353.7,42.9,-6.9,-5.7,-67.2,-186.6,-0.6,576.0,-813.6,-1662.0,0,3624,805306368,43,0, 
2.0167,-433.5,-4.5,6.3,491.4,539.7,-1406.7,1227.6,-255.9,-18747.3,531.3,1809.9,1480.5,-1252.5,-9259.5,-9830.1,55.5,-7.2,-5.4,-84.3,-205.5,-0.6,541.8,-429.9,-1601.4,0,3630,805306368,44,0, 
2.0200,-437.1,-29.7,-18.0,461.1,507.9,-1390.8,1221.9,-251.1,11263.2,495.6,1785.3,1458.6,-1260.3,-9003.3,-3663.9,62.4,-6.9,-5.7,-105.3,-216.9,-0.9,519.0,76.2,-1543.2,0,3636,805306368,45,0, 
2.0233,-436.5,-28.8,-24.6,461.4,508.2,-1391.1,1217.7,-260.4,18376.8,510.6,1789.5,1457.7,-1275.6,-9050.7,9385.2,57.6,-6.9,-5.7,-101.4,-227.1,-0.9,519.0,19.8,-1558.2,0,3642,805306368,46,0, 
2.0267,-430.5,4.5,11.7,491.4,540.0,-1434.9,1218.9,-267.0,-7410.0,541.8,1815.3,1488.3,-1267.5,-9316.5,1485.3,46.8,-6.6,-5.4,-79.5,-198.6,-0.9,544.2,-529.8,-1635.3,0,3648,805306368,47,0, 
2.0300,-431.4,17.1,19.5,503.1,554.1,-1443.0,1226.7,-264.3,-30825.6,561.0,1825.5,1501.8,-1234.2,-9458.1,-9545.7,44.1,-6.9,-5.7,-66.9,-190.8,-0.9,560.7,-818.7,-1663.8,0,3654,805306368,48,0, 
2.0333,-429.6,0.0,6.3,489.6,536.7,-1407.9,1231.5,-251.7,-19710.6,543.9,1812.0,1480.8,-1228.8,-9254.1,-9830.1,60.0,-6.6,-5.7,-84.6,-211.8,-0.6,546.0,-435.9,-1608.9,0,3660,805306368,49,0, 
2.0367,-427.8,-18.6,-17.1,463.2,507.6,-1386.6,1218.3,-245.1,10225.8,518.4,1783.5,1452.9,-1251.6,-9002.4,-4374.0,65.7,-7.2,-5.7,-104.1,-229.8,-0.6,507.9,75.0,-1547.4,0,3666,805306368,50,0, 
2.0400,-436.2,-30.0,-16.2,458.4,508.8,-1398.0,1215.9,-253.5,17561.7,514.5,1789.2,1455.9,-1279.2,-9073.2,8626.2,56.1,-6.9,-5.4,-104.4,-230.7,-1.2,518.1,9.0,-1566.9,0,3672,805306368,51,0, 
2.0433,-437.4,5.7,3.3,482.7,536.7,-1437.6,1213.5,-265.8,-8225.1,533.4,1807.5,1478.7,-1281.6,-9362.1,817.2,40.5,-7.2,-5.7,-87.0,-208.5,-0.6,545.1,-551.7,-1645.5,0,3678,805306368,52,0, 
2.0467,-434.1,14.4,22.5,501.9,555.0,-1456.2,1222.2,-265.5,-31492.5,547.2,1825.5,1504.2,-1252.8,-9489.3,-9730.2,39.3,-6.6,-5.7,-69.6,-189.9,-0.6,570.0,-829.5,-1673.4,0,3684,805306368,53,0, 
2.0500,-434.7,-12.9,6.0,485.1,533.4,-1421.7,1223.4,-258.0,-20599.8,522.3,1808.4,1482.9,-1247.7,-9289.8,-9830.1,51.6,-7.2,-5.7,-82.8,-206.4,-0.9,554.4,-451.5,-1619.1,0,3690,805306368,54,0, 
2.0533,-434.7,-26.1,-19.5,465.9,508.8,-1378.2,1222.5,-250.5,9410.7,498.6,1787.4,1458.6,-1249.5,-9039.0,-4991.7,50.4,-6.3,-6.0,-103.8,-221.1,-0.6,526.5,69.0,-1542.6,0,3696,805306368,55,0, 
2.0567,-438.9,-30.6,-18.9,461.1,509.7,-1393.5,1214.4,-259.2,16524.3,508.5,1789.2,1458.6,-1274.4,-9098.1,7857.6,47.1,-6.9,-6.0,-96.3,-225.6,-0.6,525.6,-2.1,-1559.4,0,3702,805306368,56,0, 
2.0600,-435.6,-3.0,9.9,493.2,550.5,-1430.4,1223.1,-264.6,-9262.5,540.9,1820.4,1500.0,-1265.7,-9402.6,-28.2,38.7,-6.9,-6.0,-72.9,-184.5,-0.6,561.9,-555.9,-1632.9,0,3708,805306368,57,0, 
2.0633,-429.6,27.0,30.9,513.0,565.5,-1440.9,1228.5,-259.5,-32678.1,565.2,1837.2,1515.9,-1237.2,-9531.9,-9830.1,38.1,-6.9,-5.7,-58.2,-188.1,-0.3,584.7,-847.8,-1661.4,0,3714,805306368,58,0, 
2.0667,-429.9,7.2,9.0,494.4,540.3,-1415.1,1229.7,-251.7,-21637.2,536.4,1813.2,1494.0,-1220.1,-9330.3,-9830.1,50.1,-6.6,-6.0,-74.4,-199.8,-0.9,560.4,-466.5,-1609.2,0,3720,805306368,59,0, 
2.0700,-431.7,-20.7,-13.5,471.3,515.4,-1374.9,1225.8,-243.9,8447.4,514.8,1788.9,1463.1,-1242.0,-9080.1,-5728.2,60.9,-6.9,-6.0,-95.4,-222.3,-0.6,534.6,53.7,-1535.7,0,3726,805306368,60,0, 
2.0733,-434.1,-26.7,-21.9,466.5,518.1,-1378.5,1220.4,-252.6,15561.0,515.4,1791.3,1467.9,-1256.1,-9141.9,6921.9,54.9,-6.9,-5.7,-96.3,-218.1,-0.3,531.9,0.6,-1558.8,0,3732,805306368,61,0, 
2.0767,-430.5,6.3,16.8,490.8,546.6,-1426.5,1221.0,-264.9,-10374.0,546.6,1817.1,1493.4,-1254.0,-9429.3,-948.3,39.3,-7.2,-5.7,-76.5,-196.2,-0.9,564.6,-536.4,-1626.3,0,3738,805306368,62,0, 
2.0800,-427.2,23.1,24.9,511.2,563.1,-1440.9,1224.9,-263.4,-33493.2,559.2,1827.3,1508.7,-1237.8,-9568.2,-9830.1,35.4,-6.9,-5.4,-61.5,-187.8,-0.6,574.5,-829.5,-1668.9,0,3744,805306368,63,0, 
2.0833,-433.5,-0.9,3.6,489.6,534.9,-1416.3,1230.0,-259.2,-22155.9,533.1,1801.2,1477.8,-1236.3,-9377.1,-9830.1,47.4,-7.2,-6.0,-84.9,-215.7,-0.9,549.0,-453.6,-1609.2,0,3750,805306368,64,0, 
2.0867,-436.2,-24.9,-20.7,463.8,507.3,-1384.2,1222.8,-256.5,8151.0,503.4,1783.5,1458.0,-1256.7,-9139.5,-6075.9,60.3,-7.2,-5.7,-102.0,-228.3,-0.6,522.0,59.1,-1544.7,0,3756,805306368,65,0, 
2.0900,-436.5,-29.4,-18.9,465.3,513.6,-1388.1,1222.2,-267.6,15190.5,506.4,1778.4,1457.1,-1278.9,-9203.7,6501.3,55.5,-6.6,-5.7,-105.0,-226.2,-0.9,531.0,6.9,-1549.8,0,3762,805306368,66,0, 
2.0933,-435.9,-5.7,-2.1,485.1,536.1,-1433.1,1224.3,-277.8,-10374.0,534.9,1802.7,1480.8,-1278.6,-9495.3,-1162.5,46.5,-6.9,-6.0,-83.4,-206.4,-0.6,565.2,-545.7,-1636.5,0,3768,805306368,67,0, 
2.0967,-432.6,12.0,18.6,501.9,554.7,-1444.2,1233.0,-273.9,-33641.4,554.1,1816.5,1501.5,-1261.2,-9627.0,-9830.1,45.0,-6.9,-5.7,-71.1,-199.8,-0.6,577.5,-826.2,-1665.0,0,3774,805306368,68,0, 
2.1000,-433.5,-0.6,-1.2,486.0,531.6,-1419.6,1229.7,-264.0,-22378.2,526.8,1801.8,1482.9,-1260.3,-9425.4,-9830.1,55.2,-6.9,-6.0,-87.3,-211.2,-0.9,557.7,-446.7,-1609.5,0,3780,805306368,69,0, 
2.1033,-434.7,-32.1,-26.1,459.9,506.7,-1377.6,1223.4,-257.7,7632.3,498.9,1777.2,1455.0,-1272.0,-9177.3,-6263.4,68.7,-7.2,-5.7,-114.6,-232.8,-0.6,522.0,63.9,-1540.2,0,3786,805306368,70,0, 
2.1067,-438.3,-35.4,-31.2,456.0,508.8,-1392.9,1216.2,-269.4,15042.3,501.6,1779.0,1456.8,-1291.8,-9240.3,6243.3,66.3,-6.6,-5.7,-109.2,-220.8,-0.6,525.6,2.4,-1554.3,0,3792,805306368,71,0, 
2.1100,-436.2,-7.8,1.5,483.9,541.2,-1419.0,1222.2,-278.7,-10966.8,537.3,1805.1,1487.4,-1289.4,-9523.5,-1492.2,47.4,-6.9,-6.0,-86.7,-198.6,-0.6,557.1,-538.5,-1629.9,0,3798,805306368,72,0, 
2.1133,-429.0,14.1,20.7,502.2,557.1,-1439.4,1229.4,-275.1,-34308.3,556.5,1827.3,1509.9,-1245.3,-9653.4,-9830.1,50.4,-6.9,-5.7,-69.0,-184.5,-0.6,588.0,-807.0,-1665.6,0,3804,805306368,73,0, 
2.1167,-429.3,-1.5,5.7,490.5,549.3,-1411.5,1231.8,-261.0,-23045.1,534.9,1806.9,1492.5,-1230.6,-9456.3,-9830.1,55.8,-6.6,-6.0,-85.2,-190.8,-0.9,559.5,-447.3,-1606.2,0,3810,805306368,74,0, 
2.1200,-434.1,-31.2,-24.6,463.5,509.4,-1373.1,1225.2,-258.0,7113.6,512.4,1782.0,1459.2,-1262.7,-9227.1,-6618.6,63.6,-6.9,-5.7,-110.1,-232.2,-0.6,528.0,54.0,-1539.9,0,3816,805306368,75,0, 
2.1233,-433.5,-25.8,-24.6,459.9,509.1,-1389.9,1218.9,-268.5,14153.1,509.4,1787.4,1461.6,-1285.2,-9282.9,5612.1,57.9,-6.9,-5.7,-106.8,-230.7,-0.9,532.5,-9.0,-1562.4,0,3822,805306368,76,0, 
2.1267,-432.6,10.2,7.2,487.5,544.2,-1421.7,1220.7,-274.5,-11707.8,545.4,1812.0,1497.3,-1273.2,-9574.8,-2072.4,43.8,-6.9,-5.7,-84.6,-195.9,-0.6,558.0,-555.0,-1639.8,0,3828,805306368,77,0, 
