Time,P3,C3,F3,Fz,F4,C4,P4,Cz,CM,A1,Fp1,Fp2,T3,T5,O1,O2,X3,X2,F7,F8,X1,A2,T6,T4,Trigger,Time_Offset,ADC_Status,ADC_Sequence,Event,Comments
0.0033,-10.8,-286.8,-141.3,-104.7,-117.3,-261.9,-142.2,-36.9,-28158.0,-189.9,-180.3,-220.8,-382.8,-334.5,-155.7,-384.3,-7.2,-6.0,-273.0,-274.8,-0.6,-77.4,-298.2,-248.1,0,6,0,244,0, 
0.0067,-18.0,-275.7,-142.5,-108.3,-115.2,-260.1,-138.3,-34.8,-36383.1,-188.7,-183.0,-217.8,-378.3,-327.6,-146.7,-389.7,-6.9,-5.7,-278.4,-275.7,-0.6,-71.4,-306.9,-253.2,0,12,0,245,0, 
0.0100,0.6,-296.7,-158.1,-114.0,-121.2,-267.6,-141.0,-41.4,-32604.0,-194.7,-187.2,-227.7,-383.1,-331.2,-146.4,-381.0,-6.6,-5.7,-277.2,-280.8,-0.3,-77.7,-303.3,-242.1,0,18,0,246,0, 
0.0133,13.8,-295.5,-159.6,-114.9,-121.8,-269.1,-140.7,-42.3,-22674.6,-199.5,-189.6,-231.6,-381.6,-336.3,-157.8,-384.9,-6.9,-5.7,-286.8,-276.9,-0.6,-87.6,-304.8,-234.3,0,24,0,247,0, 
0.0167,2.4,-292.5,-150.3,-106.8,-116.1,-264.0,-137.7,-36.9,-20229.3,-191.4,-184.8,-214.8,-375.0,-336.9,-166.5,-398.7,-6.9,-6.0,-267.6,-275.1,-0.6,-72.9,-303.3,-227.7,0,30,0,248,0, 
0.0200,-16.5,-286.8,-144.6,-108.3,-121.2,-263.7,-135.3,-32.4,-30158.7,-186.9,-181.8,-213.0,-372.0,-335.1,-151.8,-398.1,-6.3,-5.7,-272.7,-271.8,-0.9,-66.0,-310.2,-232.8,0,36,0,249,0, 
0.0233,-24.3,-286.8,-148.2,-110.4,-119.1,-259.8,-137.1,-31.8,-38235.6,-181.5,-173.1,-201.9,-366.9,-333.6,-150.3,-394.8,-6.9,-5.4,-273.9,-267.3,-0.6,-68.1,-304.8,-231.3,0,42,0,250,0, 
0.0267,-7.8,-297.0,-153.6,-115.5,-127.2,-261.9,-144.9,-39.9,-34308.3,-190.2,-177.0,-213.6,-376.5,-337.5,-151.8,-399.0,-6.6,-5.7,-276.0,-276.0,-1.2,-78.0,-304.8,-236.7,0,48,0,251,0, 
0.0300,4.8,-301.2,-162.9,-123.6,-132.3,-267.6,-145.5,-46.5,-24304.8,-200.7,-204.0,-227.4,-381.3,-342.3,-162.3,-402.9,-6.9,-5.7,-300.6,-284.7,-0.9,-87.9,-310.5,-242.7,0,54,0,252,0, 
0.0333,-9.3,-305.4,-164.1,-126.9,-132.6,-267.6,-141.6,-48.9,-22230.0,-205.5,-200.1,-228.9,-391.5,-349.2,-153.6,-388.2,-6.9,-5.7,-297.0,-282.6,-1.2,-88.8,-298.2,-245.7,0,60,0,253,0, 
0.0367,-21.3,-284.1,-139.5,-105.0,-114.3,-255.3,-141.0,-36.3,-31714.8,-185.4,-162.9,-198.3,-358.5,-337.8,-161.4,-408.9,-6.9,-5.4,-263.1,-258.6,-0.6,-64.5,-302.7,-234.0,0,66,0,254,0, 
0.0400,-27.3,-290.7,-145.5,-110.1,-117.6,-253.5,-136.2,-36.9,-39569.4,-176.7,-167.4,-204.9,-392.7,-339.6,-151.2,-388.2,-7.2,-6.0,-271.2,-261.9,-0.9,-65.7,-285.3,-228.9,0,72,0,255,0, 
0.0433,-14.1,-290.4,-149.4,-111.3,-124.8,-255.6,-143.1,-41.1,-36309.0,-193.5,-185.4,-214.5,-378.6,-338.4,-158.7,-396.9,-7.2,-5.7,-282.9,-275.1,-0.9,-82.5,-294.3,-232.8,0,78,0,0,0, 
0.0467,1.8,-297.9,-154.2,-122.1,-131.7,-262.8,-143.7,-47.4,-26305.5,-198.9,-186.3,-214.2,-385.8,-336.0,-147.6,-399.9,-6.6,-6.0,-288.6,-274.8,-1.2,-88.5,-298.8,-243.0,0,84,0,1,0, 
0.0500,-7.5,-295.2,-153.9,-122.1,-131.7,-266.7,-143.7,-48.3,-23860.2,-198.0,-177.6,-216.3,-383.1,-341.1,-144.0,-400.2,-6.6,-5.7,-281.4,-275.7,-0.6,-83.4,-294.9,-248.1,0,90,0,2,0, 
0.0533,-28.2,-283.8,-142.2,-112.5,-123.9,-255.3,-137.1,-39.9,-32752.2,-177.3,-163.8,-205.5,-374.4,-336.3,-164.4,-396.6,-7.2,-5.7,-267.9,-264.6,-0.9,-64.8,-294.3,-231.0,0,96,0,3,0, 
0.0567,-28.2,-284.4,-143.4,-113.7,-125.7,-258.6,-135.9,-40.5,-40236.3,-183.0,-165.0,-201.6,-370.2,-335.4,-149.4,-387.6,-6.6,-5.7,-270.3,-267.0,-0.6,-64.8,-285.9,-222.6,0,102,0,4,0, 
0.0600,-8.1,-287.1,-149.7,-120.9,-131.4,-256.2,-132.6,-43.8,-36531.3,-195.6,-166.2,-206.7,-372.9,-335.4,-145.2,-379.8,-6.9,-5.7,-269.1,-266.4,-0.6,-69.9,-280.5,-222.0,0,108,0,5,0, 
0.0633,11.4,-287.4,-153.3,-120.0,-128.1,-254.7,-131.7,-42.3,-26379.6,-195.6,-180.0,-215.1,-375.9,-340.8,-156.9,-389.4,-7.2,-5.4,-280.2,-269.4,-0.3,-68.7,-281.4,-222.3,0,114,0,6,0, 
0.0667,0.0,-285.0,-144.9,-118.2,-121.8,-252.0,-135.9,-39.3,-24156.6,-188.7,-165.3,-207.6,-369.9,-338.4,-152.1,-404.4,-6.9,-6.0,-269.1,-261.6,-1.2,-63.0,-276.3,-220.8,0,120,0,7,0, 
0.0700,-19.5,-276.9,-137.1,-107.4,-117.0,-246.6,-129.9,-31.5,-32455.8,-174.6,-150.6,-190.2,-364.5,-334.2,-153.6,-393.6,-7.2,-6.0,-254.1,-250.8,-0.6,-44.4,-276.0,-217.2,0,126,0,8,0, 
0.0733,-20.1,-274.2,-135.9,-103.8,-111.9,-244.5,-125.4,-26.1,-40606.8,-169.2,-152.4,-188.1,-354.9,-331.8,-144.9,-387.6,-6.9,-6.3,-251.1,-245.7,-0.9,-38.7,-275.7,-217.2,0,132,0,9,0, 
0.0767,-3.0,-279.9,-143.1,-111.9,-121.8,-253.2,-131.7,-33.0,-37420.5,-185.1,-159.9,-201.6,-364.5,-331.5,-153.9,-384.3,-6.9,-5.7,-261.3,-259.8,-0.9,-71.7,-285.9,-229.2,0,138,0,10,0, 
0.0800,6.9,-290.1,-153.9,-124.8,-128.4,-259.8,-134.1,-39.6,-28009.8,-193.8,-175.8,-212.1,-371.4,-332.4,-147.0,-399.6,-6.6,-6.0,-275.7,-267.6,-0.9,-73.2,-285.6,-231.0,0,144,0,11,0, 
0.0833,-0.6,-286.8,-147.3,-117.0,-123.6,-257.7,-131.7,-35.4,-25564.5,-182.7,-163.5,-199.8,-365.4,-336.3,-159.0,-408.9,-6.9,-5.4,-267.0,-261.0,-0.9,-63.9,-287.7,-225.6,0,150,0,12,0, 
0.0867,-24.3,-282.0,-143.4,-117.6,-121.2,-256.2,-131.1,-32.4,-34086.0,-178.8,-162.3,-190.2,-362.7,-335.1,-151.5,-405.0,-6.6,-6.0,-259.8,-250.5,-0.6,-51.6,-287.7,-222.3,0,156,0,13,0, 
0.0900,-30.9,-289.2,-145.8,-121.2,-125.7,-260.1,-132.3,-36.3,-42237.0,-179.4,-164.7,-199.2,-364.5,-339.3,-155.4,-399.9,-7.5,-6.0,-263.1,-258.3,-0.9,-63.6,-291.0,-232.2,0,162,0,14,0, 
0.0933,-12.6,-294.0,-151.8,-126.6,-133.2,-262.2,-138.0,-36.3,-39421.2,-189.3,-162.9,-201.6,-368.4,-341.7,-153.9,-390.9,-6.6,-6.0,-265.5,-267.3,-0.9,-69.6,-289.8,-232.2,0,168,0,15,0, 
0.0967,-0.3,-300.3,-156.9,-132.0,-135.6,-263.7,-134.4,-40.8,-29417.7,-193.8,-168.3,-200.7,-372.3,-345.3,-158.7,-370.8,-6.9,-5.1,-271.5,-261.0,-0.3,-74.1,-283.8,-233.7,0,174,0,16,0, 
0.1000,-4.2,-294.9,-151.8,-128.4,-129.6,-260.7,-137.1,-37.5,-27194.7,-184.5,-181.2,-199.5,-363.3,-327.3,-141.0,-422.1,-6.9,-6.0,-281.1,-256.2,-0.6,-62.1,-284.4,-224.1,0,180,0,17,0, 
0.1033,-25.5,-287.4,-144.3,-120.0,-122.1,-254.4,-128.7,-29.7,-35716.2,-176.4,-159.3,-200.1,-359.7,-331.8,-145.2,-401.7,-7.2,-5.7,-265.2,-252.3,-0.3,-50.4,-275.4,-218.7,0,186,0,18,0, 
0.1067,-23.7,-285.6,-143.4,-119.4,-123.3,-257.1,-127.5,-28.2,-44163.6,-172.5,-158.7,-195.3,-358.8,-332.4,-146.1,-388.8,-6.6,-5.7,-261.0,-255.3,-0.6,-54.3,-276.9,-221.4,0,192,0,19,0, 
0.1100,-6.3,-288.0,-148.2,-123.9,-124.8,-259.5,-134.4,-30.6,-41125.5,-177.9,-168.9,-201.9,-363.0,-328.5,-143.4,-423.0,-6.9,-6.0,-269.1,-259.5,-0.9,-49.2,-283.5,-220.5,0,198,0,20,0, 
0.1133,0.6,-294.3,-153.0,-130.2,-130.8,-262.2,-140.4,-36.6,-31344.3,-186.9,-175.2,-200.7,-368.1,-325.2,-145.2,-430.5,-7.2,-6.0,-279.6,-262.8,-0.9,-61.2,-294.9,-226.2,0,204,0,21,0, 
0.1167,-14.1,-297.6,-156.3,-130.5,-131.7,-261.6,-137.7,-40.5,-28824.9,-182.7,-164.4,-203.7,-368.7,-334.8,-141.6,-399.3,-6.9,-6.0,-271.2,-266.4,-0.6,-56.7,-278.4,-230.1,0,210,0,22,0, 
0.1200,-29.4,-282.6,-138.3,-115.5,-118.8,-254.4,-132.6,-29.4,-37050.0,-171.0,-145.8,-187.8,-359.7,-334.2,-160.8,-411.6,-7.2,-5.4,-253.8,-252.0,-0.9,-50.1,-272.1,-222.3,0,216,0,23,0, 
0.1233,-33.6,-282.3,-137.4,-116.4,-118.8,-258.6,-133.2,-26.1,-45275.1,-167.7,-154.5,-193.8,-355.2,-328.8,-152.4,-402.6,-6.9,-5.7,-255.0,-254.7,-0.3,-43.5,-287.7,-228.9,0,222,0,24,0, 
0.1267,-13.5,-288.6,-147.0,-120.6,-125.7,-257.1,-130.5,-30.6,-42237.0,-183.3,-175.5,-201.9,-364.2,-330.3,-149.1,-387.0,-6.9,-5.7,-274.8,-265.2,-0.3,-61.5,-273.3,-241.8,0,228,0,25,0, 
0.1300,4.5,-281.4,-141.0,-113.7,-120.0,-252.0,-136.2,-26.7,-31863.0,-175.2,-160.2,-189.0,-355.5,-329.4,-157.8,-424.2,-6.6,-5.4,-262.8,-255.3,-0.6,-47.1,-283.2,-225.0,0,234,0,26,0, 
0.1333,0.0,-282.9,-141.3,-117.9,-124.5,-256.8,-138.9,-26.1,-28380.3,-181.5,-162.3,-189.6,-356.7,-319.5,-137.4,-408.6,-6.6,-6.0,-263.1,-258.3,-0.6,-51.9,-293.7,-222.3,0,240,0,27,0, 
0.1367,-22.2,-274.2,-136.2,-113.7,-119.7,-245.4,-130.8,-18.3,-37346.4,-163.8,-153.0,-189.9,-353.7,-322.8,-148.8,-407.7,-6.6,-5.7,-258.9,-253.8,-0.9,-43.5,-276.3,-217.8,0,246,0,28,0, 
0.1400,-30.6,-273.3,-132.6,-108.6,-112.8,-243.6,-126.3,-16.2,-45126.9,-162.0,-143.4,-184.5,-348.3,-326.4,-156.6,-408.6,-6.9,-5.7,-253.2,-250.5,-0.9,-36.9,-270.3,-210.6,0,252,0,29,0, 
0.1433,-6.6,-278.4,-137.1,-109.2,-118.2,-249.3,-131.7,-21.3,-41570.1,-166.5,-152.4,-189.3,-348.0,-322.2,-153.3,-405.9,-6.6,-6.0,-255.3,-250.8,-0.9,-48.0,-279.6,-218.7,0,258,0,30,0, 
0.1467,10.5,-279.0,-137.7,-106.5,-117.6,-243.6,-131.1,-22.5,-31937.1,-169.8,-150.6,-195.9,-352.8,-326.7,-159.9,-421.5,-6.9,-5.7,-255.3,-249.3,-0.9,-42.0,-277.8,-213.0,0,264,0,31,0, 
0.1500,-14.4,-286.5,-149.7,-117.3,-128.4,-255.3,-136.5,-29.1,-28973.1,-176.1,-157.8,-205.5,-360.0,-333.9,-156.6,-414.6,-6.3,-5.7,-264.6,-262.2,-0.6,-59.1,-273.6,-222.3,0,270,0,32,0, 
0.1533,-28.2,-279.6,-141.9,-114.3,-119.7,-247.2,-132.9,-27.6,-38235.6,-170.4,-149.1,-189.9,-352.5,-319.8,-145.2,-415.2,-6.6,-6.0,-254.1,-249.6,-0.6,-44.1,-277.2,-218.4,0,276,0,33,0, 
0.1567,-27.3,-275.7,-137.4,-107.1,-116.4,-247.2,-132.3,-26.1,-46090.2,-161.1,-139.8,-174.3,-349.5,-321.3,-149.4,-429.6,-6.9,-6.0,-248.7,-247.8,-0.3,-35.4,-279.9,-213.0,0,282,0,34,0, 
0.1600,-4.2,-283.2,-144.0,-113.7,-121.8,-249.6,-131.7,-28.8,-42162.9,-172.5,-147.9,-191.4,-352.2,-322.5,-156.0,-432.9,-6.9,-6.0,-256.5,-250.2,-0.6,-49.5,-285.3,-215.1,0,288,0,35,0, 
0.1633,16.2,-300.6,-165.9,-132.6,-139.2,-259.2,-135.6,-43.5,-27417.0,-192.6,-186.6,-216.0,-366.6,-326.1,-149.1,-420.9,-6.9,-5.7,-284.1,-271.5,-0.6,-63.0,-280.5,-219.9,0,294,0,36,0, 
0.1667,16.2,-308.7,-177.3,-140.7,-148.2,-267.3,-139.5,-55.2,-8595.6,-201.6,-199.5,-227.7,-375.9,-333.0,-153.6,-412.8,-7.2,-5.7,-299.4,-276.3,-0.6,-85.2,-277.2,-231.9,0,300,0,37,0, 
0.1700,-15.3,-286.5,-154.2,-125.1,-128.4,-251.7,-134.1,-35.1,-11930.1,-179.1,-169.8,-186.3,-357.6,-327.6,-167.1,-431.4,-6.9,-5.7,-273.9,-252.3,-0.9,-53.7,-286.5,-218.7,0,306,0,38,0, 
0.1733,-22.8,-296.4,-166.8,-135.9,-143.7,-262.2,-138.9,-42.6,-20007.0,-192.3,-173.7,-213.0,-365.1,-323.7,-155.1,-422.4,-7.2,-6.0,-285.0,-277.8,-0.3,-66.3,-289.2,-230.7,0,312,0,39,0, 
0.1767,36.9,-316.8,-193.8,-159.9,-163.8,-284.1,-151.8,-62.1,6224.4,-225.6,-212.1,-252.3,-376.8,-319.2,-150.0,-436.8,-7.2,-5.7,-316.8,-309.6,-0.9,-93.9,-298.8,-245.7,0,318,0,40,0, 
0.1800,60.9,-330.6,-201.3,-161.1,-168.0,-290.1,-161.7,-72.3,47275.8,-227.4,-215.4,-263.1,-385.8,-348.6,-189.9,-445.5,-6.6,-6.0,-323.1,-313.2,-1.2,-104.4,-301.5,-247.8,0,324,0,41,0, 
0.1833,0.0,-312.6,-177.9,-144.0,-152.1,-277.5,-150.9,-55.2,46534.8,-199.8,-191.1,-216.3,-372.3,-337.5,-177.3,-441.9,-6.9,-5.7,-293.1,-281.4,-0.9,-69.3,-299.7,-234.9,0,330,0,42,0, 
0.1867,-78.3,-284.1,-153.3,-125.7,-134.1,-260.7,-134.1,-30.6,963.3,-168.0,-159.0,-192.3,-351.0,-321.6,-148.8,-435.0,-6.6,-5.7,-270.3,-259.5,-0.9,-44.1,-288.6,-230.4,0,336,0,43,0, 
0.1900,-54.9,-290.1,-154.8,-127.8,-136.2,-258.9,-133.2,-29.4,-25194.0,-182.1,-165.6,-198.3,-354.6,-313.5,-135.3,-428.7,-6.9,-6.3,-272.7,-270.3,-0.9,-54.3,-292.2,-235.5,0,342,0,44,0, 
0.1933,35.4,-313.8,-183.6,-144.6,-153.9,-272.1,-139.8,-52.2,7928.7,-221.1,-208.8,-236.1,-371.1,-326.4,-159.6,-435.3,-6.9,-5.7,-305.7,-296.1,-0.6,-94.5,-284.4,-234.6,0,348,0,45,0, 
0.1967,60.9,-318.6,-183.0,-141.0,-155.4,-280.5,-150.9,-56.7,48906.0,-222.0,-201.0,-228.6,-371.4,-330.6,-174.6,-443.1,-6.9,-6.3,-300.9,-288.3,-1.2,-95.4,-303.3,-231.9,0,354,0,46,0, 
0.2000,-23.1,-305.4,-167.1,-134.4,-148.8,-270.0,-141.3,-47.1,35049.3,-204.3,-177.6,-204.0,-369.9,-328.5,-153.0,-419.4,-6.9,-5.7,-285.9,-272.4,-0.6,-67.2,-281.7,-226.5,0,360,0,47,0, 
0.2033,-104.4,-268.2,-129.3,-111.0,-121.5,-245.4,-125.1,-15.9,-19340.1,-153.3,-131.7,-176.4,-341.7,-314.4,-144.3,-429.6,-6.6,-5.7,-237.9,-245.7,-1.2,-18.3,-275.4,-208.5,0,366,0,48,0, 
0.2067,-51.3,-267.6,-134.4,-112.8,-117.6,-240.9,-123.9,-15.3,-40310.4,-167.7,-150.0,-184.5,-339.3,-304.5,-143.7,-430.5,-6.9,-6.0,-252.9,-250.8,-0.6,-35.4,-281.4,-216.6,0,372,0,49,0, 
0.2100,55.2,-295.8,-168.0,-138.9,-141.0,-259.8,-139.2,-41.1,-1333.8,-210.3,-193.8,-233.4,-357.9,-313.8,-156.6,-440.7,-7.2,-5.7,-293.7,-285.0,-0.9,-80.7,-288.9,-234.0,0,378,0,50,0, 
0.2133,76.5,-302.1,-167.7,-138.0,-143.4,-265.5,-149.4,-49.5,41273.7,-209.4,-183.0,-225.3,-359.7,-316.5,-166.5,-460.5,-7.2,-6.0,-281.4,-273.0,-0.9,-82.5,-298.2,-227.1,0,384,0,51,0, 
0.2167,-23.4,-283.2,-148.8,-129.0,-133.5,-261.0,-138.6,-38.7,24823.5,-176.4,-155.4,-191.7,-351.0,-315.6,-145.8,-428.4,-6.9,-5.4,-254.4,-246.3,-0.6,-47.1,-286.5,-211.8,0,390,0,52,0, 
0.2200,-98.1,-259.8,-126.9,-113.1,-115.2,-244.5,-118.8,-19.8,-30899.7,-149.7,-126.0,-164.4,-336.3,-296.7,-129.6,-417.3,-6.3,-6.0,-232.5,-229.2,-0.9,-21.3,-261.9,-203.7,0,396,0,53,0, 
0.2233,-57.3,-267.0,-136.8,-115.5,-119.1,-246.3,-125.4,-20.7,-49498.8,-158.1,-139.5,-177.9,-340.2,-306.6,-141.9,-437.7,-6.9,-5.4,-241.5,-239.7,-0.6,-38.7,-279.0,-208.8,0,402,0,54,0, 
0.2267,51.3,-301.8,-170.7,-138.6,-138.9,-267.6,-139.8,-46.8,-7039.5,-209.4,-180.0,-214.2,-362.7,-318.9,-165.6,-438.9,-6.6,-5.1,-275.7,-266.7,-0.9,-72.9,-300.9,-218.4,0,408,0,55,0, 
0.2300,68.7,-316.8,-189.0,-152.4,-157.8,-280.8,-147.6,-62.4,36531.3,-229.5,-198.9,-234.6,-378.6,-322.8,-159.6,-439.5,-7.2,-5.7,-293.4,-279.3,-0.9,-91.5,-295.5,-229.2,0,414,0,56,0, 
0.2333,-28.8,-301.5,-168.0,-140.4,-144.9,-269.1,-133.8,-48.3,18228.6,-205.5,-168.0,-205.5,-374.1,-317.1,-127.5,-426.0,-7.2,-6.0,-269.4,-255.6,-0.6,-65.7,-285.9,-225.0,0,420,0,57,0, 
0.2367,-113.4,-275.7,-140.1,-121.8,-121.2,-251.1,-120.3,-23.4,-38161.5,-167.7,-140.4,-172.2,-359.7,-316.8,-140.7,-415.2,-6.9,-5.7,-234.0,-230.1,-0.9,-35.1,-276.9,-219.9,0,426,0,58,0, 
0.2400,-59.1,-278.4,-148.8,-124.8,-126.0,-252.9,-124.8,-21.3,-55426.8,-180.3,-158.4,-200.7,-357.6,-305.1,-149.1,-448.8,-7.2,-5.4,-248.7,-245.4,-0.6,-45.0,-290.4,-219.6,0,432,0,59,0, 
0.2433,37.8,-313.8,-184.2,-146.7,-147.6,-269.1,-144.9,-44.7,-12078.3,-228.3,-204.6,-239.1,-388.5,-327.6,-183.9,-456.0,-6.9,-6.0,-290.1,-278.4,-0.6,-87.6,-312.3,-229.8,0,438,0,60,0, 
0.2467,51.6,-331.8,-202.5,-165.3,-173.1,-288.6,-155.7,-67.2,30825.6,-246.6,-219.6,-256.5,-401.4,-331.8,-175.5,-457.8,-6.9,-6.0,-305.4,-291.9,-0.6,-106.2,-313.2,-246.6,0,444,0,61,0, 
0.2500,-48.3,-303.0,-165.3,-138.6,-144.3,-268.8,-143.4,-43.2,11337.3,-199.2,-172.8,-207.3,-388.5,-333.6,-174.9,-447.3,-7.2,-6.0,-260.1,-252.3,-1.2,-57.9,-303.6,-227.7,0,450,0,62,0, 
0.2533,-120.0,-277.5,-143.4,-124.5,-126.6,-254.1,-128.7,-20.7,-44608.2,-171.3,-149.7,-176.4,-372.6,-318.3,-144.3,-442.5,-6.6,-5.7,-240.3,-225.6,-0.3,-37.8,-289.5,-221.4,0,456,0,63,0, 
0.2567,-68.4,-287.1,-156.0,-124.8,-123.9,-255.9,-132.0,-27.3,-59798.7,-195.3,-170.7,-182.7,-373.2,-310.2,-156.6,-448.5,-6.9,-5.7,-259.2,-234.6,-0.9,-52.5,-294.6,-221.7,0,462,0,64,0, 
0.2600,42.9,-306.3,-180.0,-143.4,-144.0,-271.2,-150.6,-47.4,-15338.7,-229.5,-197.4,-227.4,-388.5,-315.3,-174.3,-455.1,-6.6,-5.7,-280.2,-259.5,-0.3,-83.4,-307.8,-224.7,0,468,0,65,0, 
0.2633,51.6,-322.2,-196.5,-149.4,-159.3,-286.2,-160.8,-57.6,26379.6,-244.2,-217.5,-243.3,-393.3,-315.9,-180.6,-456.6,-6.6,-5.7,-294.9,-272.7,-0.6,-93.9,-315.9,-230.7,0,474,0,66,0, 
0.2667,-49.8,-304.8,-177.0,-139.2,-145.5,-275.1,-142.5,-43.8,6224.4,-220.5,-185.4,-212.7,-387.9,-309.0,-153.0,-434.7,-6.6,-5.7,-281.4,-245.1,-0.6,-55.8,-282.9,-219.0,0,480,0,67,0, 
0.2700,-120.0,-277.2,-150.3,-120.3,-122.7,-256.5,-129.9,-20.1,-48016.8,-185.4,-157.5,-180.3,-362.7,-292.5,-137.4,-439.2,-6.9,-6.3,-248.1,-221.4,-0.6,-23.4,-299.4,-211.2,0,486,0,68,0, 
0.2733,-66.0,-285.9,-158.7,-130.5,-130.8,-256.8,-123.9,-23.1,-61725.3,-188.1,-167.7,-209.7,-363.6,-300.0,-154.5,-425.4,-6.6,-5.4,-249.6,-237.0,-0.3,-48.3,-280.5,-210.6,0,492,0,69,0, 
0.2767,38.1,-318.0,-193.8,-150.6,-157.2,-278.1,-145.8,-50.4,-16672.5,-239.1,-209.1,-262.5,-382.2,-305.7,-174.6,-434.7,-6.9,-6.0,-286.8,-276.9,-0.6,-104.1,-302.4,-238.8,0,498,0,70,0, 
0.2800,46.2,-322.8,-190.2,-152.1,-159.3,-282.3,-155.7,-51.9,25119.9,-241.5,-214.2,-255.3,-383.7,-315.6,-191.4,-459.9,-6.9,-5.4,-293.4,-270.0,-0.6,-104.1,-315.6,-247.8,0,504,0,71,0, 
0.2833,-51.3,-301.5,-169.2,-134.1,-140.4,-270.9,-141.0,-36.0,4890.6,-213.0,-183.0,-217.2,-367.2,-297.3,-155.7,-439.5,-6.9,-6.3,-264.3,-234.0,-0.9,-55.5,-291.6,-222.6,0,510,0,72,0, 
0.2867,-123.0,-285.3,-147.3,-123.6,-125.7,-257.4,-122.7,-18.9,-49128.3,-184.5,-155.1,-194.1,-356.7,-291.0,-129.9,-410.4,-6.6,-5.4,-241.2,-212.7,-0.6,-27.6,-260.1,-204.0,0,516,0,73,0, 
0.2900,-66.0,-286.2,-148.5,-119.4,-126.9,-260.1,-129.9,-19.8,-62169.9,-190.2,-165.0,-193.8,-351.3,-279.3,-140.1,-441.3,-6.6,-5.7,-244.5,-215.1,-0.9,-58.2,-300.3,-213.0,0,522,0,74,0, 
0.2933,33.9,-313.8,-177.9,-139.2,-149.4,-277.5,-146.7,-44.7,-17487.6,-226.2,-205.5,-236.7,-368.4,-292.5,-162.6,-456.3,-7.2,-5.7,-279.9,-248.7,-0.9,-89.1,-323.7,-225.3,0,528,0,75,0, 
0.2967,48.0,-328.2,-185.7,-150.3,-162.6,-284.7,-155.4,-55.2,26824.2,-246.3,-212.1,-246.0,-381.3,-303.0,-179.7,-444.3,-6.9,-5.7,-282.9,-254.7,-1.2,-100.2,-312.9,-228.6,0,534,0,76,0, 
0.3000,-39.6,-301.2,-156.3,-130.2,-144.0,-268.5,-145.5,-33.3,9707.1,-209.7,-173.7,-210.6,-364.8,-288.0,-167.1,-446.7,-6.6,-5.7,-250.2,-220.2,-0.6,-65.7,-305.7,-220.5,0,540,0,77,0, 
0.3033,-124.8,-281.7,-142.2,-120.6,-129.0,-255.9,-129.0,-16.2,-44830.5,-189.3,-157.5,-183.3,-360.0,-281.7,-133.8,-406.5,-6.9,-5.7,-235.8,-204.6,-1.2,-38.4,-289.5,-216.3,0,546,0,78,0, 
0.3067,-70.2,-286.2,-146.7,-117.6,-127.5,-253.2,-130.5,-14.7,-61132.5,-204.0,-170.7,-187.5,-361.5,-275.7,-148.5,-421.8,-6.6,-6.0,-243.6,-213.3,-0.9,-58.5,-295.5,-222.0,0,552,0,79,0, 
0.3100,45.3,-302.1,-168.6,-126.9,-141.9,-267.6,-148.5,-26.4,-16524.3,-236.1,-204.3,-230.7,-371.7,-268.2,-172.5,-477.3,-7.2,-6.0,-267.3,-236.4,-0.6,-91.2,-319.8,-220.5,0,558,0,80,0, 
0.3133,48.3,-332.7,-200.4,-156.3,-171.6,-291.6,-156.0,-57.6,29269.5,-271.2,-231.6,-274.8,-402.3,-283.5,-159.0,-419.4,-6.3,-5.7,-300.9,-262.5,-0.6,-120.0,-297.6,-237.3,0,564,0,81,0, 
0.3167,-45.0,-300.9,-160.2,-126.0,-142.8,-271.2,-144.3,-28.5,12967.5,-215.1,-179.7,-224.7,-376.5,-274.2,-161.1,-434.7,-6.9,-5.7,-256.5,-218.1,-0.6,-55.5,-297.0,-217.5,0,570,0,82,0, 
0.3200,-124.2,-280.2,-144.0,-114.0,-129.0,-257.4,-128.1,-13.5,-41940.6,-196.8,-156.0,-197.1,-362.1,-257.4,-136.2,-408.0,-6.9,-6.0,-237.3,-196.8,-0.9,-32.1,-291.6,-214.5,0,576,0,83,0, 
0.3233,-72.0,-285.9,-156.0,-120.6,-134.7,-258.3,-126.6,-19.8,-59354.1,-210.6,-187.5,-213.9,-368.1,-254.4,-141.0,-423.6,-6.9,-5.4,-260.1,-208.5,-0.6,-55.5,-280.2,-210.9,0,582,0,84,0, 
0.3267,31.8,-321.9,-186.3,-141.3,-156.9,-278.7,-148.2,-50.1,-13930.8,-237.0,-216.6,-249.6,-381.9,-263.1,-165.3,-435.0,-6.6,-5.4,-285.3,-237.0,-0.9,-85.5,-301.8,-215.4,0,588,0,85,0, 
0.3300,46.8,-330.9,-193.5,-148.5,-168.0,-283.5,-152.1,-61.5,32678.1,-246.3,-217.5,-261.9,-393.3,-267.3,-164.7,-428.4,-7.2,-6.0,-287.4,-242.4,-1.2,-98.4,-298.8,-218.1,0,594,0,86,0, 
0.3333,-48.3,-315.3,-174.9,-141.0,-158.1,-280.2,-147.6,-53.4,16894.8,-223.2,-192.0,-237.9,-387.3,-252.6,-140.1,-404.1,-6.3,-5.4,-267.6,-226.5,-0.6,-56.7,-294.6,-225.3,0,600,0,87,0, 
0.3367,-129.0,-288.0,-147.6,-118.8,-137.1,-262.8,-134.1,-29.4,-38087.4,-193.5,-159.0,-205.5,-366.0,-234.0,-120.3,-409.8,-6.9,-5.7,-236.1,-205.5,-1.5,-35.7,-279.0,-217.2,0,606,0,88,0, 
0.3400,-82.2,-294.9,-153.3,-119.1,-133.8,-264.3,-134.4,-26.7,-53944.8,-216.3,-177.9,-208.5,-375.9,-249.9,-144.6,-399.6,-6.6,-5.4,-246.9,-199.8,-0.9,-56.1,-299.7,-207.0,0,612,0,89,0, 
0.3433,21.6,-322.2,-186.0,-140.7,-157.2,-284.1,-154.5,-52.2,-8669.7,-245.7,-228.9,-248.4,-392.1,-258.6,-175.2,-424.5,-7.2,-6.0,-280.5,-226.5,-1.2,-100.5,-316.8,-217.2,0,618,0,90,0, 
0.3467,43.5,-335.4,-204.3,-156.3,-173.1,-299.1,-167.4,-65.1,37272.3,-280.5,-250.8,-264.3,-410.7,-256.5,-161.7,-422.7,-6.9,-5.7,-311.7,-241.2,-0.6,-110.1,-321.3,-225.9,0,624,0,91,0, 
0.3500,-57.0,-324.3,-192.3,-152.1,-167.7,-292.2,-155.7,-57.0,23415.6,-263.7,-225.3,-250.8,-409.2,-258.9,-144.6,-404.4,-7.2,-5.7,-294.6,-227.7,-0.3,-76.2,-309.6,-216.3,0,630,0,92,0, 
0.3533,-132.3,-298.8,-167.4,-140.7,-149.4,-277.5,-138.0,-37.8,-31270.2,-220.8,-192.0,-217.8,-388.2,-229.5,-99.6,-385.5,-6.9,-5.4,-269.1,-208.2,-0.6,-49.5,-290.4,-212.4,0,636,0,93,0, 
0.3567,-88.2,-292.8,-163.2,-127.8,-133.8,-263.1,-131.7,-30.6,-49869.3,-218.7,-187.8,-214.2,-379.8,-241.8,-155.1,-396.3,-7.2,-5.7,-260.4,-196.5,-0.3,-54.0,-281.1,-198.6,0,642,0,94,0, 
0.3600,31.8,-319.8,-187.2,-138.0,-142.2,-273.9,-154.8,-48.9,-6520.8,-269.1,-222.3,-247.8,-395.1,-240.6,-171.3,-432.3,-7.2,-5.7,-291.9,-211.5,-0.9,-72.3,-316.2,-200.1,0,648,0,95,0, 
0.3633,53.7,-342.3,-212.4,-155.4,-159.0,-284.1,-158.4,-66.0,42829.8,-308.7,-251.1,-271.5,-419.4,-248.7,-173.7,-420.3,-6.9,-6.0,-327.6,-223.8,-0.6,-87.0,-301.2,-205.5,0,654,0,96,0, 
0.3667,-35.4,-315.0,-181.5,-141.9,-150.3,-281.4,-147.0,-51.3,30899.7,-228.0,-194.7,-238.8,-389.1,-234.6,-144.9,-391.2,-7.2,-5.7,-255.6,-205.2,-0.9,-75.9,-282.9,-205.8,0,660,0,97,0, 
0.3700,-126.3,-283.8,-151.2,-114.9,-128.1,-258.6,-129.0,-24.3,-25860.9,-180.3,-159.9,-190.8,-367.8,-222.9,-125.7,-373.8,-6.9,-5.7,-219.6,-173.7,-0.6,-44.4,-270.9,-194.7,0,666,0,98,0, 
0.3733,-81.0,-279.6,-147.0,-109.2,-115.8,-255.6,-136.8,-21.3,-49795.2,-192.3,-174.3,-190.5,-363.3,-206.4,-133.5,-400.5,-6.6,-6.3,-233.1,-163.8,-1.2,-45.9,-305.4,-190.8,0,672,0,99,0, 
0.3767,22.5,-328.2,-201.6,-141.0,-151.8,-282.6,-150.6,-58.5,-7410.0,-287.4,-245.4,-250.2,-408.9,-225.6,-140.7,-371.7,-7.2,-6.0,-310.5,-206.7,-0.6,-97.5,-297.9,-207.3,0,678,0,100,0, 
0.3800,72.6,-327.0,-191.4,-130.2,-143.7,-286.8,-169.2,-60.3,45942.0,-266.4,-233.1,-252.9,-392.7,-228.0,-173.7,-438.9,-6.9,-6.0,-285.0,-194.7,-0.6,-90.9,-333.3,-205.8,0,684,0,101,0, 
0.3833,-25.5,-308.1,-164.1,-115.5,-133.2,-276.0,-151.5,-47.1,38013.3,-219.9,-180.6,-210.3,-382.8,-234.6,-153.3,-395.1,-6.9,-5.7,-233.4,-168.6,-0.6,-46.8,-294.6,-191.7,0,690,0,102,0, 
0.3867,-122.4,-278.7,-136.8,-96.6,-112.2,-256.5,-132.3,-22.5,-21711.3,-183.9,-144.6,-181.8,-360.6,-217.5,-128.7,-378.9,-6.9,-5.7,-207.0,-143.7,-0.9,-30.3,-278.4,-191.7,0,696,0,103,0, 
0.3900,-91.8,-283.5,-151.2,-98.1,-110.7,-252.0,-129.3,-21.6,-49350.6,-221.1,-171.9,-187.8,-370.8,-217.5,-133.2,-383.1,-6.6,-6.0,-243.0,-143.7,-0.6,-28.2,-280.5,-184.5,0,702,0,104,0, 
0.3933,22.8,-327.3,-195.6,-136.5,-146.7,-276.6,-150.9,-59.4,-7335.9,-286.8,-236.1,-251.7,-400.2,-222.0,-143.1,-390.9,-6.9,-6.0,-303.0,-192.6,-0.6,-84.6,-295.5,-203.4,0,708,0,105,0, 
0.3967,69.6,-334.2,-198.9,-139.5,-159.0,-288.3,-162.0,-72.3,48906.0,-261.6,-230.4,-256.8,-401.7,-240.9,-171.0,-396.0,-6.9,-6.0,-281.4,-203.4,-0.3,-106.5,-297.3,-205.8,0,714,0,106,0, 
0.4000,-32.1,-310.2,-167.1,-117.3,-138.0,-275.7,-155.4,-57.0,41421.9,-222.3,-188.1,-207.6,-382.5,-225.6,-154.5,-400.2,-6.6,-5.4,-239.4,-168.0,-0.6,-80.4,-293.7,-201.6,0,720,0,107,0, 
0.4033,-133.5,-280.5,-135.3,-92.1,-109.8,-251.7,-134.7,-29.4,-18376.8,-195.0,-149.7,-171.6,-364.5,-216.3,-137.4,-380.1,-7.2,-5.7,-208.8,-132.0,-0.6,-10.5,-267.9,-179.4,0,726,0,108,0, 
0.4067,-97.5,-282.9,-138.0,-85.5,-101.4,-249.0,-132.6,-27.3,-47127.6,-229.2,-156.0,-183.0,-367.5,-216.3,-144.0,-391.5,-6.6,-6.0,-218.4,-133.8,-0.9,-35.1,-278.4,-176.7,0,732,0,109,0, 
0.4100,16.2,-324.3,-186.3,-117.6,-131.4,-273.0,-156.3,-58.2,-4890.6,-304.5,-218.4,-236.7,-407.1,-232.8,-169.2,-402.0,-6.9,-6.0,-283.2,-172.2,-0.9,-59.1,-293.1,-184.8,0,738,0,110,0, 
0.4133,65.1,-338.7,-199.8,-134.7,-158.4,-296.1,-169.8,-81.9,52092.3,-291.3,-234.9,-269.4,-406.2,-230.4,-171.3,-405.0,-6.9,-6.0,-283.2,-201.0,-1.2,-111.0,-300.6,-207.0,0,744,0,111,0, 
0.4167,-40.2,-325.2,-185.4,-136.2,-158.4,-289.8,-159.9,-75.9,46608.9,-240.3,-207.3,-245.1,-400.5,-232.8,-145.5,-357.0,-7.2,-6.0,-250.5,-191.1,-0.6,-87.3,-258.3,-207.9,0,750,0,112,0, 
0.4200,-136.2,-292.8,-147.6,-101.4,-117.0,-258.0,-136.8,-39.6,-13338.0,-236.4,-157.8,-178.8,-383.7,-213.3,-134.1,-381.9,-6.9,-5.7,-222.6,-137.4,-0.3,-30.3,-278.4,-201.0,0,756,0,113,0, 
0.4233,-110.7,-301.5,-162.0,-108.0,-121.5,-261.3,-136.2,-44.1,-43274.4,-265.2,-174.6,-196.2,-396.0,-224.1,-138.6,-367.8,-6.9,-5.7,-237.6,-153.3,-0.6,-38.7,-274.8,-198.0,0,762,0,114,0, 
0.4267,18.9,-324.6,-192.3,-127.5,-143.7,-283.2,-159.3,-67.8,-1778.4,-284.4,-213.0,-240.6,-405.9,-224.4,-156.3,-400.8,-6.6,-6.0,-261.9,-182.7,-0.9,-94.2,-305.7,-201.0,0,768,0,115,0, 
0.4300,56.7,-352.8,-225.3,-161.4,-184.2,-312.9,-174.0,-99.0,58390.8,-299.4,-259.2,-293.4,-425.7,-243.9,-174.6,-378.0,-7.2,-5.7,-300.3,-224.1,-0.3,-138.6,-300.3,-222.3,0,774,0,116,0, 
0.4333,-32.7,-333.6,-204.0,-142.8,-165.3,-300.0,-167.7,-78.0,54463.5,-283.2,-228.9,-250.8,-419.4,-223.5,-143.7,-389.7,-6.9,-6.3,-280.5,-188.1,-0.3,-94.2,-302.4,-212.4,0,780,0,117,0, 
0.4367,-150.0,-311.7,-174.9,-124.2,-135.3,-271.2,-138.9,-54.6,-6520.8,-267.0,-190.2,-204.9,-418.8,-236.1,-135.9,-360.3,-6.9,-6.0,-255.3,-147.6,-0.9,-44.1,-267.9,-192.9,0,786,0,118,0, 
0.4400,-118.2,-297.3,-162.0,-111.6,-130.8,-273.3,-141.0,-44.7,-39050.7,-223.8,-172.5,-218.1,-390.3,-217.8,-127.8,-360.3,-7.2,-5.7,-219.6,-158.7,-0.9,-70.8,-286.2,-197.7,0,792,0,119,0, 
0.4433,9.6,-321.6,-192.3,-132.3,-156.0,-293.4,-158.7,-72.3,2519.4,-254.1,-214.8,-262.2,-399.9,-228.0,-160.8,-368.7,-6.9,-6.0,-249.3,-195.3,-1.2,-123.3,-298.8,-205.8,0,798,0,120,0, 
0.4467,58.2,-357.0,-227.1,-155.7,-175.2,-313.2,-173.1,-97.5,64244.7,-327.0,-258.6,-278.4,-439.5,-240.0,-168.6,-363.9,-6.6,-5.4,-307.5,-202.8,-0.9,-121.8,-303.3,-210.6,0,804,0,121,0, 
0.4500,-29.4,-332.1,-197.1,-133.8,-150.0,-294.3,-162.9,-77.4,62318.1,-290.4,-213.3,-223.8,-423.3,-231.6,-147.9,-356.1,-6.9,-5.7,-264.9,-157.5,-1.2,-64.5,-291.3,-194.1,0,810,0,122,0, 
0.4533,-136.2,-289.2,-154.5,-107.4,-125.4,-276.9,-146.7,-45.0,296.4,-217.8,-164.1,-185.1,-389.7,-216.0,-129.3,-340.2,-7.5,-5.4,-210.6,-130.8,-0.9,-40.5,-289.8,-191.4,0,816,0,123,0, 
0.4567,-101.7,-273.3,-139.5,-92.4,-117.3,-267.9,-138.9,-37.8,-34234.2,-212.1,-147.6,-197.1,-370.8,-195.0,-116.7,-334.8,-6.9,-5.7,-185.7,-137.4,-0.6,-48.6,-285.9,-190.8,0,822,0,124,0, 
0.4600,16.5,-316.2,-181.8,-115.2,-137.1,-286.5,-154.2,-61.5,6891.3,-300.9,-199.8,-236.7,-412.8,-218.7,-150.0,-335.4,-6.9,-5.7,-251.1,-165.0,-0.9,-95.1,-301.8,-195.3,0,828,0,125,0, 
0.4633,65.7,-351.3,-215.4,-135.9,-159.6,-307.2,-172.8,-84.9,71654.7,-361.5,-251.1,-273.0,-446.1,-237.3,-171.6,-340.2,-6.9,-5.7,-307.2,-186.3,-0.6,-124.8,-304.8,-203.7,0,834,0,126,0, 
0.4667,-28.2,-321.6,-177.0,-111.0,-140.4,-294.6,-170.4,-62.7,72099.3,-282.9,-202.5,-231.9,-415.2,-227.4,-163.2,-342.6,-6.9,-5.1,-247.2,-157.5,-0.6,-91.2,-308.7,-198.6,0,840,0,127,0, 
0.4700,-142.8,-277.5,-122.4,-74.4,-105.3,-270.6,-142.5,-27.6,9558.9,-217.5,-132.3,-170.7,-378.6,-208.8,-137.7,-322.5,-6.9,-6.0,-171.3,-124.2,-0.6,-45.9,-281.4,-188.7,0,846,0,128,0, 
0.4733,-112.8,-270.0,-117.9,-63.3,-93.9,-263.1,-139.5,-19.8,-26379.6,-216.0,-134.1,-169.5,-371.7,-191.1,-136.8,-322.8,-6.9,-6.0,-170.7,-117.6,-0.6,-40.8,-287.4,-181.8,0,852,0,129,0, 
0.4767,23.7,-305.4,-159.9,-85.2,-117.3,-288.3,-163.2,-45.6,15264.6,-276.6,-196.8,-219.6,-395.1,-194.1,-155.4,-323.1,-6.9,-6.0,-231.3,-160.5,-1.2,-99.0,-313.2,-200.1,0,858,0,130,0, 
0.4800,75.3,-342.0,-191.7,-106.5,-139.2,-309.6,-182.4,-71.1,82176.9,-334.2,-227.4,-247.8,-433.2,-210.6,-172.2,-326.4,-6.9,-5.4,-267.0,-176.1,-0.9,-121.2,-309.6,-204.0,0,864,0,131,0, 
0.4833,-20.1,-323.7,-171.6,-98.1,-130.8,-303.0,-171.3,-57.0,83510.7,-300.0,-197.1,-222.3,-422.1,-194.7,-144.3,-307.5,-6.6,-6.0,-238.2,-153.6,-0.3,-89.1,-295.5,-194.4,0,870,0,132,0, 
0.4867,-138.3,-279.6,-128.1,-73.2,-106.8,-279.6,-144.6,-24.6,19414.2,-214.8,-139.5,-173.4,-381.6,-173.4,-117.6,-287.1,-7.2,-5.7,-173.4,-123.6,-0.9,-58.8,-272.4,-188.4,0,876,0,133,0, 
0.4900,-111.9,-281.1,-135.3,-68.7,-93.6,-269.1,-139.2,-16.5,-18080.4,-256.5,-150.9,-172.2,-391.8,-165.3,-113.7,-290.1,-7.2,-5.7,-196.2,-116.4,-0.6,-52.8,-273.9,-180.6,0,882,0,134,0, 
0.4933,25.2,-319.5,-178.2,-99.0,-122.4,-297.0,-159.6,-51.0,24897.6,-315.6,-209.7,-243.3,-418.2,-174.3,-137.7,-290.1,-7.2,-6.0,-247.8,-162.6,-0.6,-93.9,-294.0,-193.8,0,888,0,135,0, 
0.4967,84.9,-337.5,-198.9,-121.8,-148.2,-323.1,-187.5,-74.7,95144.4,-308.7,-228.9,-272.1,-417.6,-179.4,-147.3,-301.2,-6.9,-5.7,-249.3,-193.2,-0.6,-148.8,-328.2,-201.6,0,894,0,136,0, 
0.5000,-13.5,-321.9,-177.6,-110.4,-132.9,-314.1,-176.1,-62.7,98923.5,-287.7,-194.4,-236.4,-413.7,-174.3,-126.0,-285.0,-6.6,-5.7,-220.2,-157.8,-1.2,-111.0,-313.8,-194.4,0,900,0,137,0, 
0.5033,-141.0,-289.5,-142.5,-86.1,-103.2,-287.1,-150.6,-32.4,33937.8,-242.4,-150.0,-172.2,-390.0,-156.6,-95.7,-267.9,-6.9,-6.3,-184.2,-113.4,-0.6,-53.7,-288.6,-171.9,0,906,0,138,0, 
0.5067,-117.3,-280.2,-135.3,-79.5,-90.6,-274.8,-144.9,-28.5,-6150.3,-253.8,-138.0,-164.7,-383.1,-141.6,-93.0,-269.7,-6.6,-5.4,-177.0,-107.1,-0.9,-46.8,-292.8,-164.7,0,912,0,139,0, 
0.5100,21.3,-315.9,-174.6,-108.3,-125.7,-300.0,-165.6,-60.0,36086.7,-287.4,-195.6,-234.6,-396.6,-141.3,-112.2,-260.7,-6.6,-6.0,-222.3,-157.2,-0.9,-109.5,-309.9,-186.0,0,918,0,140,0, 
0.5133,98.4,-335.7,-190.2,-119.4,-141.9,-313.8,-177.0,-74.4,106926.3,-310.5,-212.4,-251.7,-406.8,-150.6,-129.0,-286.8,-7.2,-6.0,-227.7,-165.0,-0.9,-126.9,-324.6,-189.6,0,924,0,141,0, 
0.5167,-8.1,-324.9,-179.4,-117.0,-136.5,-308.4,-171.0,-64.2,110186.7,-288.0,-191.1,-230.7,-407.4,-144.0,-101.4,-272.7,-6.6,-6.0,-209.4,-147.0,-0.9,-93.6,-303.6,-184.8,0,930,0,142,0, 
0.5200,-128.4,-280.5,-129.3,-80.4,-92.7,-274.8,-143.7,-25.8,43719.0,-222.3,-134.1,-163.8,-373.2,-116.1,-66.6,-266.1,-6.6,-5.7,-158.4,-93.6,-0.9,-34.8,-288.9,-165.3,0,936,0,143,0, 
0.5233,-110.4,-279.6,-132.0,-80.1,-88.5,-269.7,-140.1,-20.4,2519.4,-234.0,-135.9,-168.0,-372.3,-117.9,-72.6,-257.7,-7.2,-6.0,-162.0,-95.7,-0.6,-33.0,-281.1,-162.3,0,942,0,144,0, 
0.5267,28.2,-318.0,-172.8,-105.0,-115.8,-292.5,-159.6,-50.1,44534.1,-305.1,-179.1,-220.8,-395.4,-126.3,-101.4,-265.5,-7.2,-6.0,-199.8,-128.7,-1.2,-86.1,-296.7,-172.8,0,948,0,145,0, 
0.5300,87.9,-354.0,-212.7,-138.3,-159.9,-322.5,-179.1,-86.7,116707.5,-328.2,-228.0,-271.2,-424.8,-143.7,-119.4,-243.6,-6.6,-6.0,-231.9,-173.1,-0.6,-150.6,-300.0,-201.9,0,954,0,146,0, 
0.5333,4.5,-326.7,-183.9,-119.7,-133.8,-308.4,-173.7,-69.0,121524.0,-293.7,-198.3,-217.8,-409.8,-117.3,-87.6,-270.6,-7.5,-6.0,-208.5,-122.4,-0.9,-89.7,-311.7,-185.1,0,960,0,147,0, 
0.5367,-122.7,-278.1,-133.5,-83.7,-91.8,-271.2,-140.1,-28.5,56390.1,-215.4,-135.3,-160.5,-372.6,-105.9,-75.6,-257.4,-6.9,-6.3,-146.1,-75.3,-0.6,-23.1,-275.4,-158.4,0,966,0,148,0, 
0.5400,-93.9,-262.8,-120.3,-69.9,-82.2,-263.7,-140.1,-19.2,18228.6,-205.8,-110.4,-157.8,-348.6,-93.3,-77.7,-273.3,-6.9,-5.7,-114.9,-72.6,-0.6,-42.6,-294.0,-157.2,0,972,0,149,0, 
0.5433,46.5,-306.0,-167.7,-108.0,-118.8,-288.6,-159.0,-56.1,62244.0,-264.3,-183.3,-232.2,-376.8,-97.8,-94.5,-263.7,-6.6,-6.3,-179.1,-132.3,-0.9,-123.9,-293.7,-181.5,0,978,0,150,0, 
0.5467,109.2,-342.0,-202.2,-126.6,-138.6,-306.9,-177.0,-78.6,136788.6,-336.0,-221.4,-262.8,-417.6,-111.6,-112.8,-274.5,-7.5,-5.7,-225.9,-146.7,-0.3,-135.3,-314.1,-171.6,0,984,0,151,0, 
0.5500,9.3,-323.1,-175.2,-115.5,-135.6,-309.9,-170.1,-68.4,143754.0,-285.3,-183.6,-214.2,-408.6,-102.3,-96.6,-256.2,-6.6,-5.4,-184.5,-112.2,-0.9,-90.0,-300.3,-188.1,0,990,0,152,0, 
0.5533,-112.8,-280.2,-127.8,-82.2,-89.4,-275.4,-142.8,-31.2,79805.7,-215.7,-123.3,-141.9,-373.2,-80.4,-62.1,-251.1,-6.9,-6.0,-128.7,-57.9,-0.9,-48.0,-279.3,-162.0,0,996,0,153,0, 
0.5567,-94.8,-270.6,-124.2,-74.4,-83.7,-269.1,-138.9,-24.3,41051.4,-214.2,-111.6,-156.3,-358.5,-71.4,-71.4,-251.7,-6.6,-5.4,-109.5,-68.1,-0.9,-51.6,-279.3,-162.9,0,1002,0,154,0, 
0.5600,42.6,-311.7,-168.3,-106.2,-114.3,-291.9,-157.5,-57.6,85956.0,-274.2,-183.9,-223.5,-383.7,-84.9,-106.2,-255.0,-7.2,-5.7,-165.3,-113.1,-0.6,-114.0,-294.0,-178.5,0,1008,0,155,0, 
0.5633,102.6,-346.2,-201.3,-131.7,-142.8,-315.0,-176.1,-87.0,160648.8,-318.0,-213.9,-244.2,-413.4,-94.8,-117.0,-254.1,-6.6,-6.0,-204.0,-133.2,-0.9,-146.4,-307.2,-194.7,0,1014,0,156,0, 
0.5667,6.3,-321.0,-169.8,-111.9,-119.1,-297.3,-161.1,-68.1,166132.2,-284.1,-175.2,-203.7,-404.1,-85.8,-97.8,-243.6,-7.2,-5.7,-168.6,-90.6,-0.6,-88.8,-289.8,-172.8,0,1020,0,157,0, 
0.5700,-120.6,-281.7,-129.3,-78.9,-82.5,-267.9,-138.3,-31.2,99590.4,-244.2,-109.5,-147.6,-371.4,-60.9,-61.2,-228.0,-6.6,-5.7,-114.0,-44.1,-0.9,-25.5,-282.3,-160.2,0,1026,0,158,0, 
0.5733,-101.7,-270.6,-120.0,-69.0,-72.0,-258.3,-133.8,-18.3,58687.2,-225.0,-114.9,-143.1,-357.0,-41.1,-57.6,-238.5,-7.2,-5.7,-109.2,-42.9,-0.6,-39.9,-280.5,-171.0,0,1032,0,159,0, 
0.5767,35.7,-310.8,-162.9,-89.1,-99.9,-276.9,-154.8,-45.6,101813.4,-291.9,-165.3,-199.2,-387.0,-52.5,-90.0,-239.4,-6.9,-5.7,-155.7,-85.5,-0.9,-117.9,-292.5,-189.9,0,1038,0,160,0, 
0.5800,108.9,-324.6,-176.4,-98.1,-109.2,-298.8,-171.3,-62.1,174209.1,-302.7,-183.9,-222.3,-393.9,-50.1,-112.5,-251.7,-7.2,-5.4,-166.5,-81.0,-0.6,-162.0,-304.5,-186.0,0,1044,0,161,0, 
0.5833,1.5,-322.2,-167.7,-96.0,-107.4,-286.8,-160.2,-56.4,178284.6,-290.1,-174.0,-200.1,-396.3,-48.3,-87.3,-215.1,-7.2,-5.7,-165.9,-76.2,-0.9,-103.8,-264.3,-167.1,0,1050,0,162,0, 
0.5867,-122.4,-268.2,-115.8,-62.1,-76.5,-269.1,-137.4,-18.9,110260.8,-202.5,-103.5,-134.4,-346.8,-4.5,-53.7,-202.8,-6.9,-6.0,-88.5,-19.2,-0.6,-50.4,-261.3,-162.0,0,1056,0,163,0, 
0.5900,-101.1,-262.5,-108.6,-48.3,-56.1,-246.6,-131.1,-2.7,67505.1,-225.0,-95.7,-138.0,-336.3,9.9,-51.9,-223.5,-6.9,-5.7,-85.2,-33.0,-0.9,-35.7,-276.9,-155.1,0,1062,0,164,0, 
0.5933,26.7,-304.5,-155.1,-78.3,-88.2,-265.5,-153.3,-31.5,107741.4,-284.4,-163.5,-201.9,-374.1,-12.0,-98.4,-252.0,-6.9,-6.0,-146.7,-73.5,-0.6,-82.5,-296.1,-169.8,0,1068,0,165,0, 
0.5967,95.7,-341.4,-191.1,-100.8,-120.0,-290.1,-171.9,-59.7,180581.7,-333.6,-197.1,-235.8,-404.4,-29.1,-97.5,-240.3,-6.9,-5.7,-180.9,-103.5,-0.9,-142.8,-305.4,-192.6,0,1074,0,166,0, 
0.6000,12.6,-313.5,-165.0,-93.6,-137.7,-315.3,-169.2,-51.3,185101.8,-252.6,-163.5,-205.2,-369.3,7.8,-63.9,-235.8,-6.6,-6.0,-142.8,-82.2,-0.9,-102.6,-297.3,-206.4,0,1080,0,167,0, 
0.6033,-121.5,-275.4,-120.3,-55.2,-85.2,-280.2,-144.0,-14.4,118856.4,-222.3,-105.3,-146.4,-354.3,24.6,-39.0,-211.5,-6.9,-5.4,-86.7,-14.1,-0.6,-69.0,-276.3,-183.0,0,1086,0,168,0, 
0.6067,-102.0,-269.1,-115.5,-49.5,-87.0,-277.5,-142.8,-6.9,77879.1,-209.7,-112.8,-157.5,-343.5,39.3,-51.3,-218.4,-6.6,-5.7,-88.2,-37.5,-0.9,-51.6,-273.3,-184.2,0,1092,0,169,0, 
0.6100,42.9,-308.1,-159.9,-70.8,-98.7,-282.3,-162.6,-35.4,121894.5,-281.7,-168.9,-213.9,-369.9,35.7,-70.5,-222.0,-6.9,-5.4,-137.4,-75.0,-0.9,-125.4,-287.4,-191.1,0,1098,0,170,0, 
0.6133,112.2,-343.8,-193.8,-86.4,-99.9,-277.8,-172.2,-58.2,197328.3,-319.2,-206.7,-238.8,-396.3,29.1,-92.4,-227.7,-7.2,-6.0,-179.4,-88.8,-0.9,-152.1,-286.5,-185.4,0,1104,0,171,0, 
0.6167,14.4,-319.2,-167.4,-83.7,-141.6,-317.7,-172.2,-51.0,204219.6,-276.3,-171.9,-202.2,-377.4,50.4,-62.4,-221.1,-6.9,-5.7,-141.9,-65.7,-0.9,-93.0,-285.6,-179.7,0,1110,0,172,0, 
0.6200,-117.6,-283.5,-127.2,-56.7,-107.7,-301.2,-149.7,-17.4,138418.8,-223.2,-117.0,-153.9,-354.0,80.1,-29.4,-199.2,-6.6,-5.7,-98.1,-42.9,-0.6,-32.7,-265.5,-204.0,0,1116,0,173,0, 
0.6233,-90.6,-273.9,-123.9,-47.4,-88.8,-282.0,-146.7,-10.8,98404.8,-223.2,-124.5,-161.4,-348.0,101.1,-11.1,-191.7,-6.9,-5.7,-97.8,-35.1,-0.9,-84.0,-268.2,-193.5,0,1122,0,174,0, 
0.6267,40.8,-317.1,-171.6,-74.1,-107.7,-275.7,-155.7,-39.0,142864.8,-306.0,-185.7,-230.7,-381.0,88.2,-50.1,-192.3,-6.9,-5.7,-155.1,-91.2,-0.6,-133.5,-258.3,-199.8,0,1128,0,175,0, 
0.6300,110.1,-346.8,-197.7,-97.2,-150.9,-311.1,-178.5,-66.9,218372.7,-343.8,-212.1,-268.5,-404.4,80.1,-68.1,-207.3,-6.9,-5.7,-174.9,-113.7,-0.6,-153.9,-285.6,-263.4,0,1134,0,176,0, 
0.6333,21.6,-318.3,-160.5,-73.5,-123.6,-311.1,-172.5,-48.9,225930.9,-272.4,-159.9,-216.9,-377.7,101.1,-62.7,-216.3,-6.9,-6.3,-125.4,-70.8,-0.6,-100.2,-288.0,-223.5,0,1140,0,177,0, 
0.6367,-117.6,-273.3,-110.1,-30.6,-64.2,-274.5,-148.8,-9.0,160574.7,-221.4,-102.6,-146.4,-354.3,110.1,-35.7,-206.4,-6.6,-6.0,-66.9,16.2,-0.9,-69.0,-259.8,-137.4,0,1146,0,178,0, 
0.6400,-102.0,-270.6,-110.4,-30.6,-78.3,-261.9,-139.2,-3.9,119152.8,-249.3,-104.7,-146.7,-354.0,120.6,-39.9,-207.3,-6.9,-6.0,-71.7,-27.9,-0.6,-47.4,-266.1,-171.9,0,1152,0,179,0, 
0.6433,32.7,-314.4,-163.2,-65.1,-104.1,-283.8,-163.8,-41.1,161463.9,-290.4,-169.5,-223.2,-380.1,112.2,-63.3,-210.0,-7.2,-5.4,-136.8,-72.6,-0.9,-107.1,-289.8,-181.5,0,1158,0,180,0, 
0.6467,98.7,-343.5,-194.4,-95.7,-145.2,-308.7,-175.5,-70.8,233711.4,-328.2,-203.4,-270.6,-402.6,99.9,-77.4,-202.5,-6.3,-5.7,-165.6,-123.3,-1.2,-151.2,-282.0,-207.9,0,1164,0,181,0, 
0.6500,2.1,-317.1,-161.1,-72.9,-118.8,-303.6,-168.0,-52.8,238527.9,-285.6,-173.7,-200.7,-383.4,107.1,-51.0,-197.4,-6.6,-5.7,-127.8,-42.3,-0.9,-114.3,-270.0,-195.3,0,1170,0,182,0, 
0.6533,-127.2,-265.2,-108.0,-39.3,-89.7,-272.4,-146.7,-9.9,168281.1,-201.6,-103.8,-150.9,-345.9,139.2,-14.1,-214.5,-6.9,-6.3,-67.2,-54.0,-0.6,-54.3,-270.3,-182.1,0,1176,0,183,0, 
0.6567,-108.6,-254.4,-101.1,-27.6,-67.8,-246.9,-136.2,5.1,122413.2,-222.0,-100.8,-146.4,-343.5,133.5,-17.4,-209.7,-6.9,-5.7,-64.2,-45.3,-0.9,-55.8,-259.2,-181.2,0,1182,0,184,0, 
0.6600,36.3,-294.0,-139.8,-47.7,-96.3,-269.7,-160.2,-22.2,163390.5,-274.2,-149.1,-181.2,-364.5,123.6,-54.9,-231.6,-6.6,-6.0,-110.1,-64.8,-0.6,-87.0,-291.3,-187.2,0,1188,0,185,0, 
0.6633,112.5,-318.0,-173.1,-71.7,-125.1,-304.5,-179.1,-50.4,235415.7,-308.4,-187.5,-229.5,-381.6,113.7,-67.2,-239.4,-6.9,-5.4,-140.7,-88.8,-0.9,-120.6,-314.1,-210.6,0,1194,0,186,0, 
0.6667,8.1,-305.7,-158.4,-67.8,-117.3,-297.6,-171.0,-43.8,239046.6,-273.6,-157.2,-200.4,-379.5,117.3,-50.7,-235.5,-6.6,-6.0,-123.3,-76.2,-0.6,-88.5,-295.8,-196.8,0,1200,0,187,0, 
0.6700,-123.9,-265.2,-117.0,-43.5,-92.1,-278.7,-146.7,-13.2,170355.9,-219.0,-104.7,-153.3,-350.1,129.0,-14.1,-220.5,-6.9,-5.7,-67.2,-57.9,-0.9,-36.9,-282.0,-197.7,0,1206,0,188,0, 
0.6733,-104.1,-260.7,-112.8,-35.7,-74.4,-266.4,-142.8,-4.5,124784.4,-209.1,-94.5,-153.6,-342.3,140.7,-19.8,-226.5,-6.9,-5.7,-51.6,-48.0,-0.3,-90.6,-279.9,-202.8,0,1212,0,189,0, 
0.6767,28.2,-297.9,-153.6,-62.1,-94.8,-282.0,-159.0,-34.2,164798.4,-288.9,-158.1,-192.3,-375.3,122.7,-49.5,-232.5,-6.9,-6.0,-121.2,-43.5,-0.6,-145.2,-298.5,-212.7,0,1218,0,190,0, 
0.6800,90.6,-333.0,-189.6,-94.5,-139.8,-303.9,-176.7,-62.4,234897.0,-324.9,-198.9,-241.8,-406.2,107.1,-81.0,-255.0,-6.9,-6.0,-162.0,-143.1,-0.6,-91.5,-305.4,-212.7,0,1224,0,191,0, 
0.6833,-8.7,-307.5,-153.9,-65.1,-103.8,-286.8,-165.0,-39.6,236749.5,-285.0,-143.7,-179.7,-382.5,113.1,-68.1,-267.3,-7.2,-6.0,-111.3,-58.8,-1.2,-66.3,-295.8,-208.8,0,1230,0,192,0, 
0.6867,-139.2,-267.9,-114.3,-49.8,-90.3,-267.9,-143.1,-13.8,166428.6,-210.9,-106.2,-150.9,-333.0,137.7,-18.0,-230.4,-7.2,-5.4,-63.3,-73.8,-1.2,-37.5,-277.2,-204.0,0,1236,0,193,0, 
0.6900,-125.4,-268.8,-119.4,-39.3,-79.2,-258.3,-139.5,-7.5,120412.5,-202.8,-95.4,-134.1,-354.0,138.9,-36.3,-249.3,-6.9,-6.3,-72.6,-31.8,-0.9,-45.3,-288.0,-197.7,0,1242,0,194,0, 
0.6933,12.6,-309.9,-159.9,-72.3,-113.4,-282.0,-157.5,-38.1,159981.9,-267.3,-162.6,-212.1,-375.9,126.0,-60.3,-249.3,-6.9,-5.7,-120.0,-122.1,-0.3,-90.9,-297.0,-218.7,0,1248,0,195,0, 
0.6967,77.4,-347.7,-201.3,-100.5,-155.1,-313.5,-172.2,-74.1,231488.4,-320.1,-208.5,-247.5,-411.0,114.9,-66.6,-242.1,-6.3,-5.4,-163.8,-144.3,-0.9,-134.4,-288.3,-250.5,0,1254,0,196,0, 
0.7000,-19.8,-317.7,-165.3,-78.9,-122.7,-293.7,-167.4,-54.6,234081.9,-281.1,-165.6,-203.7,-381.6,119.7,-55.5,-246.3,-6.9,-6.0,-125.4,-104.4,-0.6,-100.8,-287.1,-232.2,0,1260,0,197,0, 
0.7033,-154.8,-280.2,-125.1,-56.1,-101.1,-272.1,-138.0,-18.6,162649.5,-210.0,-117.9,-164.7,-366.0,129.0,-38.7,-241.5,-7.2,-6.0,-88.8,-88.5,-0.6,-33.0,-254.7,-209.7,0,1266,0,198,0, 
0.7067,-128.4,-261.3,-104.1,-36.3,-69.3,-254.4,-135.0,-3.6,115596.0,-227.4,-93.9,-147.9,-353.7,140.4,-37.8,-251.4,-7.2,-6.3,-66.6,-51.0,-0.9,-48.0,-285.6,-200.4,0,1272,0,199,0, 
0.7100,11.7,-297.9,-155.1,-76.5,-124.5,-290.4,-148.8,-42.3,154572.6,-297.3,-162.0,-225.9,-334.2,134.4,-57.3,-248.7,-6.9,-6.0,-124.8,-117.3,-0.6,-95.1,-279.3,-220.8,0,1278,0,200,0, 
0.7133,80.1,-336.3,-171.0,-82.2,-133.8,-299.4,-166.8,-59.1,223559.7,-313.5,-171.6,-237.0,-427.5,115.2,-83.1,-258.0,-6.9,-6.0,-128.7,-116.1,-0.9,-127.8,-297.6,-231.6,0,1284,0,201,0, 
0.7167,-15.0,-309.9,-156.6,-78.0,-122.1,-288.9,-160.8,-51.0,226449.6,-287.7,-164.1,-207.9,-379.5,127.2,-56.1,-246.6,-7.2,-5.4,-128.4,-100.2,-0.9,-105.6,-288.0,-226.5,0,1290,0,202,0, 
0.7200,-143.4,-263.1,-119.4,-54.0,-103.8,-264.3,-135.0,-18.0,156795.6,-206.4,-116.7,-173.7,-364.8,150.9,-24.3,-235.2,-6.9,-5.7,-85.5,-112.5,-0.9,-48.0,-264.0,-223.5,0,1296,0,203,0, 
0.7233,-122.4,-269.7,-126.0,-45.0,-87.3,-254.1,-136.2,-8.4,111075.9,-187.2,-107.4,-160.5,-348.9,152.1,-41.4,-264.0,-7.2,-5.7,-77.4,-88.5,-0.9,-12.9,-283.5,-202.8,0,1302,0,204,0, 
0.7267,14.1,-299.4,-158.1,-69.0,-115.5,-274.2,-147.3,-40.5,149978.4,-289.2,-171.9,-217.2,-384.0,138.6,-61.5,-257.4,-7.2,-5.7,-137.1,-124.5,-0.3,-89.4,-282.3,-218.7,0,1308,0,205,0, 
0.7300,85.5,-326.7,-186.9,-87.6,-130.8,-288.3,-170.7,-57.6,219113.7,-309.3,-190.2,-238.2,-392.4,127.8,-85.2,-288.3,-7.2,-6.0,-159.6,-141.9,-1.2,-86.1,-313.2,-220.2,0,1314,0,206,0, 
0.7333,-17.4,-300.3,-150.6,-74.7,-118.8,-278.7,-162.0,-46.5,219261.9,-283.2,-154.8,-198.6,-385.5,127.5,-74.4,-282.6,-6.6,-6.0,-115.2,-102.6,-0.9,-72.3,-300.3,-219.3,0,1320,0,207,0, 
0.7367,-147.9,-261.6,-119.4,-55.2,-87.9,-257.4,-138.6,-16.2,145606.5,-220.5,-94.8,-144.6,-334.2,149.4,-29.7,-258.3,-6.6,-6.3,-69.3,-72.0,-0.9,-41.1,-278.4,-216.9,0,1326,0,208,0, 
0.7400,-127.5,-222.0,-59.7,-23.4,-60.0,-244.2,-133.5,2.1,96181.8,-284.4,-77.4,-128.7,-354.9,144.6,-48.6,-272.7,-6.6,-5.7,-31.5,-46.2,-1.2,-75.6,-284.7,-217.2,0,1332,0,209,0, 
0.7433,6.3,-302.7,-168.0,-85.5,-118.2,-277.2,-150.3,-40.8,131601.6,-253.2,-170.1,-217.5,-379.8,129.3,-52.8,-258.3,-6.9,-6.0,-143.7,-154.8,-0.9,-67.8,-286.5,-225.0,0,1338,0,210,0, 
0.7467,86.7,-298.2,-165.6,-86.7,-125.1,-293.4,-170.1,-55.5,198810.3,-325.5,-183.3,-221.1,-390.0,119.1,-85.2,-275.7,-7.2,-5.7,-128.1,-124.8,-1.2,-130.5,-300.0,-233.1,0,1344,0,211,0, 
0.7500,-2.7,-234.0,-111.3,-66.0,-99.3,-253.5,-153.6,-34.8,200440.5,-295.5,-157.8,-195.3,-336.0,121.5,-65.1,-261.0,-6.6,-5.7,-125.4,-118.2,-0.6,-119.4,-288.3,-230.1,0,1350,0,212,0, 
0.7533,-148.5,-260.1,-114.9,-60.3,-107.7,-261.0,-134.7,-15.0,127674.3,-194.7,-98.4,-159.0,-398.4,135.9,-25.5,-256.5,-7.2,-6.0,-89.1,-114.9,-0.9,-12.9,-266.7,-225.6,0,1356,0,213,0, 
0.7567,-128.4,-227.4,-94.5,-52.2,-97.5,-269.7,-125.1,-9.3,78323.7,-212.1,-106.2,-170.4,-336.0,150.3,-24.9,-252.9,-6.9,-5.7,-57.6,-131.1,-0.9,-4.5,-257.1,-222.6,0,1362,0,214,0, 
0.7600,3.9,-291.0,-163.8,-83.1,-125.7,-283.8,-153.0,-45.3,114410.4,-263.7,-177.9,-218.7,-385.8,129.3,-71.1,-266.1,-6.9,-6.0,-140.7,-148.2,-0.9,-83.4,-297.6,-237.3,0,1368,0,215,0, 
0.7633,69.0,-336.0,-193.2,-106.5,-140.1,-300.6,-172.5,-73.8,183323.4,-302.7,-206.4,-253.2,-377.7,102.3,-90.9,-286.2,-6.9,-5.7,-156.3,-164.7,-0.9,-108.3,-303.6,-235.5,0,1374,0,216,0, 
0.7667,-4.8,-227.4,-133.5,-91.2,-147.3,-305.4,-169.8,-51.3,184434.9,-284.7,-163.5,-236.7,-467.1,127.8,-64.5,-287.1,-6.6,-6.3,-115.2,-192.9,-0.3,-85.2,-309.3,-252.0,0,1380,0,217,0, 
0.7700,-159.9,-266.4,-62.7,-34.5,-64.2,-246.3,-134.4,-11.7,111372.3,-246.6,-86.4,-131.4,-364.5,124.8,-33.9,-266.4,-6.9,-6.0,-79.8,-41.7,-0.6,-60.9,-291.0,-221.1,0,1386,0,218,0, 
0.7733,-135.9,-255.6,-128.4,-70.5,-114.9,-259.5,-128.7,-22.2,62095.8,-211.5,-111.6,-186.9,-261.9,145.5,-27.0,-249.9,-7.5,-6.0,-43.2,-172.2,-0.6,-15.3,-269.7,-228.9,0,1392,0,219,0, 
0.7767,0.9,-284.7,-125.1,-86.7,-122.4,-276.6,-144.3,-48.9,97737.9,-274.5,-208.2,-235.8,-406.5,133.2,-47.4,-261.0,-6.9,-6.0,-242.4,-170.1,-0.3,-82.2,-294.3,-254.4,0,1398,0,220,0, 
0.7800,111.9,-96.9,-87.9,-80.7,-144.0,-287.7,-167.7,-45.9,166502.7,-349.5,-206.4,-265.8,-482.1,123.6,-89.7,-311.7,-6.9,-5.7,-123.3,-224.7,-0.6,-144.3,-324.3,-280.8,0,1404,0,221,0, 
0.7833,-23.7,-352.2,-177.3,-101.1,-125.1,-257.4,-148.5,-63.3,167540.1,-242.7,-180.3,-229.5,-415.2,131.1,-59.7,-279.6,-6.9,-5.4,-144.0,-155.4,-0.6,-68.1,-291.3,-235.2,0,1410,0,222,0, 
0.7867,-191.1,-422.7,-252.3,-106.2,-121.5,-274.2,-121.2,-56.4,94773.9,-120.0,-146.4,-168.6,-366.3,134.4,-8.7,-233.1,-6.6,-5.4,-212.7,-125.4,-0.9,20.1,-244.2,-215.4,0,1416,0,223,0, 
0.7900,-142.5,-246.0,-60.9,-40.8,-65.7,-232.5,-119.7,-16.5,44311.8,-222.6,-117.6,-174.6,-307.5,143.4,-27.0,-252.3,-6.9,-6.0,-101.7,-141.0,-0.6,-31.2,-266.1,-222.6,0,1422,0,224,0, 
0.7933,-8.4,-335.4,-206.1,-105.9,-148.8,-282.9,-140.1,-59.7,79138.8,-240.0,-177.3,-231.3,-363.0,152.1,-51.0,-265.5,-6.6,-5.7,-150.9,-206.7,-0.6,-52.8,-268.2,-242.7,0,1428,0,225,0, 
0.7967,82.2,-307.5,-164.4,-112.2,-162.6,-299.7,-159.3,-79.5,148051.8,-292.8,-225.0,-280.8,-396.9,140.7,-45.9,-259.5,-7.2,-5.7,-231.6,-220.8,-0.9,-105.3,-291.6,-258.9,0,1434,0,226,0, 
0.8000,-18.0,-276.0,-151.2,-92.4,-128.4,-278.1,-149.7,-57.9,149311.5,-201.6,-181.8,-234.6,-379.5,145.2,-45.6,-275.4,-6.9,-5.4,-211.2,-168.3,-0.9,-60.6,-279.6,-241.2,0,1440,0,227,0, 
0.8033,-149.4,-270.6,-74.1,-42.6,-80.1,-241.2,-121.2,-17.7,76323.0,-196.8,-97.8,-164.4,-346.8,151.5,-14.7,-255.0,-6.6,-5.7,-81.3,-142.2,-0.6,-12.6,-258.3,-221.4,0,1446,0,228,0, 
0.8067,-124.2,-199.8,-146.7,-72.0,-98.1,-249.3,-117.0,-15.3,26083.2,-196.2,-155.7,-187.8,-381.0,160.2,-14.7,-243.3,-6.6,-6.3,-238.5,-122.4,-0.9,-19.8,-259.5,-232.8,0,1452,0,229,0, 
0.8100,3.3,-329.1,-180.3,-96.0,-126.6,-265.5,-132.9,-53.4,62392.2,-229.5,-188.1,-242.7,-377.1,158.4,-33.9,-247.5,-6.9,-5.7,-209.1,-201.0,-0.6,-54.0,-266.1,-240.9,0,1458,0,230,0, 
0.8133,75.3,-342.0,-189.6,-90.0,-110.1,-267.3,-147.9,-69.9,130490.1,-304.5,-174.0,-230.7,-383.4,146.7,-63.0,-285.9,-6.6,-5.7,-208.2,-172.5,-0.9,-97.5,-283.8,-235.2,0,1464,0,231,0, 
0.8167,-6.9,-220.8,-66.3,-63.3,-120.3,-243.3,-136.5,-35.7,130267.8,-258.3,-171.6,-234.3,-363.6,149.4,-48.0,-288.9,-6.9,-6.0,-223.2,-225.0,-0.6,-67.2,-285.3,-247.5,0,1470,0,232,0, 
0.8200,-160.5,-287.4,-123.6,-42.3,-39.3,-226.8,-114.6,-18.9,54759.9,-184.5,-96.6,-107.1,-358.8,168.6,-13.2,-275.1,-7.2,-5.7,-161.4,-18.0,-0.6,-40.2,-267.3,-216.3,0,1476,0,233,0, 
0.8233,-133.5,-226.2,-47.4,-41.4,-86.4,-226.2,-104.1,-3.9,3334.5,-193.8,-108.3,-184.8,-329.7,172.8,-13.8,-264.9,-6.9,-6.0,-152.1,-226.2,-0.6,27.9,-260.1,-210.3,0,1482,0,234,0, 
0.8267,5.7,-294.0,-155.1,-89.7,-132.6,-268.2,-125.4,-41.7,38754.3,-168.0,-195.0,-223.2,-399.6,170.7,-32.1,-267.0,-6.9,-5.7,-301.5,-172.2,-0.6,-18.9,-271.5,-226.5,0,1488,0,235,0, 
0.8300,91.8,-240.9,-22.8,-60.9,-127.5,-269.4,-141.3,-47.7,107074.5,-300.0,-169.5,-257.1,-416.1,154.5,-53.4,-279.6,-6.9,-5.7,-190.8,-261.3,-0.6,-75.3,-286.2,-246.9,0,1494,0,236,0, 
0.8333,-29.4,-357.0,-251.4,-104.4,-111.6,-252.3,-125.7,-56.7,106333.5,-187.2,-152.4,-189.3,-367.5,157.5,-38.1,-260.7,-6.6,-6.0,-234.3,-125.1,-1.2,-22.8,-254.4,-221.7,0,1500,0,237,0, 
0.8367,-158.4,-255.3,-91.8,-38.7,-60.9,-221.4,-104.1,-6.3,30529.2,-175.8,-109.2,-122.7,-362.4,159.0,-12.9,-258.9,-6.9,-6.0,-246.6,-105.0,-0.9,-8.7,-244.5,-205.5,0,1506,0,238,0, 
0.8400,-138.9,-247.5,-108.0,-53.4,-96.3,-226.5,-102.6,-3.6,-21192.6,-175.2,-95.1,-178.2,-347.7,166.8,0.3,-252.6,-6.9,-5.7,-198.9,-200.7,-0.6,40.2,-239.4,-200.7,0,1512,0,239,0, 
0.8433,7.2,-231.9,-57.6,-17.7,-31.2,-216.0,-123.3,-9.0,13263.9,-273.0,-98.1,-141.9,-358.8,141.9,-56.1,-282.3,-6.9,-6.0,-121.8,-86.4,-0.6,-99.9,-272.1,-221.4,0,1518,0,240,0, 
0.8467,72.6,-346.8,-223.2,-103.5,-106.2,-231.9,-138.9,-60.9,80546.7,-213.9,-227.1,-261.9,-381.9,139.8,-52.2,-268.2,-7.2,-5.4,-380.1,-201.6,-0.3,-23.7,-264.6,-224.4,0,1524,0,241,0, 
0.8500,-6.6,-143.1,-30.0,-57.0,-138.6,-276.9,-136.2,-27.6,79583.4,-240.9,-183.3,-247.5,-414.0,141.6,-35.7,-264.9,-6.9,-5.7,-294.0,-222.3,-0.6,-26.1,-252.6,-231.0,0,1530,0,242,0, 
0.8533,-157.2,-256.8,-133.2,-56.1,-88.2,-218.7,-102.0,-14.4,2741.7,-152.7,-70.8,-164.7,-361.8,164.7,-5.1,-259.5,-7.2,-5.7,-151.5,-181.8,-0.3,48.9,-221.4,-196.8,0,1536,0,243,0, 
0.8567,-156.0,-276.9,8.7,-14.7,-78.0,-230.4,-97.5,6.9,-50980.8,-131.1,-81.3,-158.1,-348.0,152.7,-12.0,-265.5,-6.9,-6.0,-190.2,-205.2,-0.9,32.1,-225.9,-190.8,0,1542,0,244,0, 
0.8600,-22.2,-336.9,-272.4,-96.0,-72.6,-232.2,-115.8,-41.1,-18080.4,-107.4,-225.0,-166.5,-325.8,154.8,-31.2,-265.5,-6.9,-5.7,-467.7,-9.3,-0.6,-11.7,-236.7,-206.1,0,1548,0,245,0, 
0.8633,61.8,-314.1,-84.0,-54.0,-110.1,-254.7,-133.5,-43.2,49054.2,-283.5,-160.2,-213.6,-396.0,129.0,-64.8,-287.1,-6.6,-5.7,-281.1,-205.5,-0.9,-60.6,-255.0,-222.0,0,1554,0,246,0, 
0.8667,-18.6,-211.8,-67.8,-43.2,-87.3,-246.9,-125.4,-20.7,47868.6,-192.9,-141.0,-185.1,-328.8,141.9,-47.4,-283.5,-6.9,-5.4,-298.8,-148.2,-0.9,-45.3,-252.0,-231.9,0,1560,0,247,0, 
0.8700,-180.6,-298.2,-239.1,-81.9,-93.9,-226.2,-93.0,-15.9,-28973.1,-95.1,-109.8,-136.2,-363.0,159.6,-3.6,-246.9,-6.9,-6.3,-253.5,-168.9,-0.6,34.2,-204.0,-205.5,0,1566,0,248,0, 
0.8733,-139.2,-95.1,46.2,3.9,-60.6,-207.9,-90.0,38.1,-83214.3,-241.5,-60.9,-148.8,-349.8,151.5,-26.7,-282.0,-7.2,-5.7,-182.1,-165.9,-0.9,27.9,-234.6,-204.6,0,1572,0,249,0, 
0.8767,-15.6,-335.4,-227.4,-108.6,-141.3,-244.8,-104.4,-42.6,-50388.0,-132.6,-218.4,-268.5,-323.1,160.2,-24.6,-241.5,-6.9,-6.3,-454.8,-330.3,-0.9,-2.1,-221.7,-216.6,0,1578,0,250,0, 
0.8800,66.3,-286.2,-122.7,-78.3,-127.8,-259.5,-127.5,-46.5,16227.9,-229.8,-192.6,-268.8,-378.9,120.0,-56.1,-274.2,-6.6,-5.7,-329.4,-249.9,-0.9,-48.3,-250.2,-222.6,0,1584,0,251,0, 
0.8833,-25.8,-213.3,0.6,-23.4,-93.0,-239.1,-119.1,-18.6,12745.2,-209.7,-105.9,-204.0,-421.2,121.8,-49.2,-264.9,-6.9,-6.0,-204.0,-243.6,-1.2,4.8,-258.9,-218.7,0,1590,0,252,0, 
0.8867,-125.1,-55.8,67.2,9.9,-41.7,-212.4,-93.9,26.7,-62318.1,-182.7,-106.5,-119.4,-324.6,153.3,-28.8,-283.5,-6.9,-6.0,-311.7,-55.2,-0.6,44.4,-226.2,-200.1,0,1596,0,253,0, 
0.8900,-139.2,-323.7,-91.2,-8.4,-10.2,-153.6,-75.6,13.8,-112113.3,-65.1,-24.0,-103.5,-322.8,161.7,-5.4,-293.4,-6.9,-6.0,7.2,-66.0,-0.9,35.4,-219.9,-180.3,0,1602,0,254,0, 
0.8933,0.0,-337.2,-291.3,-124.8,-154.8,-268.5,-111.3,-50.1,-79212.9,-129.9,-255.9,-266.7,-315.9,161.7,-17.1,-268.5,-7.2,-5.4,-618.9,-376.5,-0.6,28.5,-227.4,-218.7,0,1608,0,255,0, 
0.8967,76.8,-283.5,-78.3,-21.3,1.2,-178.8,-111.9,-27.6,-13634.4,-249.0,-144.3,-157.5,-381.6,107.1,-75.0,-296.4,-6.9,-6.0,-246.6,-5.1,-0.6,-78.0,-255.9,-220.8,0,1614,0,0,0, 
0.9000,-3.9,-201.3,36.3,-24.3,-116.7,-258.0,-117.0,-19.5,-16005.6,-207.6,-114.3,-201.0,-393.0,136.5,-36.9,-292.8,-7.2,-5.7,-155.7,-273.6,-0.6,-10.5,-245.4,-238.2,0,1620,0,1,0, 
0.9033,-145.2,-206.1,-130.5,-33.0,-67.2,-215.7,-95.1,-1.2,-89512.8,-140.7,0.9,-121.8,-326.4,141.3,-20.1,-294.6,-6.9,-6.0,116.4,-233.7,-0.9,18.6,-228.9,-202.2,0,1626,0,2,0, 
0.9067,-135.3,-282.0,-199.8,-93.0,-135.3,-241.5,-86.1,-24.6,-138122.4,-95.4,-198.6,-199.8,-294.6,162.0,18.6,-261.6,-6.9,-5.7,-449.1,-192.3,-0.9,86.1,-196.8,-192.6,0,1632,0,3,0, 
0.9100,24.0,-171.3,42.0,20.7,3.9,-207.6,-101.1,6.6,-102702.6,-212.7,-78.0,-175.8,-350.1,123.0,-68.4,-314.7,-7.2,-5.7,-79.5,-220.8,-0.9,-45.0,-239.1,-200.7,0,1638,0,4,0, 
0.9133,88.8,-261.6,-120.3,-66.3,-75.6,-224.1,-127.5,-41.7,-36679.5,-224.1,-267.6,-255.6,-380.1,134.1,-64.8,-309.3,-7.2,-5.7,-492.0,-210.9,-0.9,-37.5,-261.0,-232.2,0,1644,0,5,0, 
0.9167,-27.6,-405.0,-360.3,-138.9,-160.2,-226.8,-122.7,-65.7,-36086.7,-83.1,-200.4,-250.2,-308.1,138.9,-44.4,-307.8,-6.9,-5.7,-321.0,-287.4,-0.6,5.4,-240.6,-199.8,0,1650,0,6,0, 
0.9200,-144.6,-255.3,-46.8,-33.3,-108.0,-263.4,-100.2,-8.7,-107370.9,-113.1,-93.9,-159.6,-305.1,145.2,-21.6,-279.0,-6.9,-5.7,-169.8,-228.9,-0.6,70.5,-220.5,-204.0,0,1656,0,7,0, 
0.9233,-129.0,-248.1,-205.5,-65.4,-78.0,-198.3,-87.9,-4.5,-155684.1,-101.4,-185.4,-198.9,-320.7,149.1,-27.6,-273.0,-6.6,-6.3,-379.2,-204.9,-0.6,51.9,-207.0,-183.3,0,1662,0,8,0, 
0.9267,21.3,-240.6,-60.9,-43.2,-146.7,-268.2,-117.3,-20.7,-119301.0,-237.6,-132.0,-238.8,-336.0,136.5,-61.5,-294.9,-6.6,-5.7,-128.7,-307.5,-0.6,11.1,-248.4,-210.9,0,1668,0,9,0, 
0.9300,82.8,-279.0,-97.5,-41.4,-81.3,-240.6,-127.2,-42.0,-49721.1,-227.4,-148.2,-215.1,-387.0,105.6,-83.1,-304.2,-7.2,-5.7,-147.6,-208.5,-0.6,-44.4,-248.4,-217.8,0,1674,0,10,0, 
0.9333,-10.2,-291.9,-162.9,-69.9,-109.2,-251.4,-121.2,-43.2,-46534.8,-138.9,-189.9,-201.3,-322.5,134.7,-48.6,-299.4,-6.9,-5.7,-317.7,-190.2,-0.6,29.7,-242.4,-212.1,0,1680,0,11,0, 
0.9367,-138.0,-187.2,54.3,14.7,-74.7,-225.6,-93.6,13.2,-117893.1,-170.4,-53.4,-127.8,-371.7,127.5,-35.7,-281.7,-6.6,-5.7,-78.0,-176.1,-0.6,6.6,-222.6,-199.5,0,1686,0,12,0, 
0.9400,-106.8,-171.3,93.9,44.7,-15.3,-193.8,-83.7,25.8,-166206.3,-117.9,-58.2,-81.6,-297.9,137.7,-33.0,-279.9,-6.9,-6.3,-72.3,-91.8,-0.9,-12.3,-222.0,-220.2,0,1692,0,13,0, 
0.9433,0.9,-388.2,-397.8,-150.3,-162.6,-246.6,-110.1,-58.5,-129526.8,-95.1,-265.2,-307.8,-322.2,133.5,-45.3,-276.6,-6.6,-5.4,-422.4,-462.9,-0.6,73.2,-220.5,-183.0,0,1698,0,14,0, 
0.9467,114.9,-184.2,-29.1,-28.5,-102.9,-248.4,-127.2,-21.6,-58390.8,-203.4,-186.6,-226.5,-410.4,113.1,-84.9,-330.6,-6.9,-5.7,-138.3,-148.2,-0.9,-56.1,-262.5,-220.2,0,1704,0,15,0, 
0.9500,-5.7,-285.0,-171.0,-61.5,-91.8,-228.9,-117.9,-29.4,-54537.6,-166.2,-162.9,-243.3,-356.4,119.1,-59.7,-309.3,-6.9,-5.7,-242.7,-375.0,-0.6,-3.0,-252.6,-209.4,0,1710,0,16,0, 
0.9533,-138.6,-228.9,-98.7,-21.9,-57.3,-201.0,-85.2,3.3,-126414.6,-114.9,-96.0,-135.3,-304.5,144.0,-26.4,-288.0,-6.6,-6.0,-119.1,-180.3,-0.9,55.2,-222.3,-199.5,0,1716,0,17,0, 
0.9567,-128.7,-253.8,-95.1,-18.0,-22.2,-194.1,-80.1,5.4,-174283.2,-63.6,-119.7,-153.9,-277.2,145.2,-19.5,-275.1,-6.9,-5.7,-172.2,-111.0,-0.3,70.2,-215.1,-162.0,0,1722,0,18,0, 
0.9600,20.1,-298.2,-145.2,-46.5,-86.4,-218.1,-98.7,-21.3,-135528.9,-119.1,-159.6,-181.8,-292.2,134.1,-53.4,-291.3,-6.9,-6.0,-181.8,-224.4,-0.6,-5.4,-242.7,-204.6,0,1728,0,19,0, 
0.9633,118.8,-170.1,5.7,-31.2,-132.0,-254.7,-118.8,-24.0,-60984.3,-297.3,-144.6,-277.8,-395.1,106.8,-83.4,-319.5,-6.9,-5.7,-57.0,-422.4,-0.6,-49.2,-261.9,-232.2,0,1734,0,20,0, 
0.9667,13.8,-249.6,-88.8,-26.7,-38.4,-219.9,-105.3,-25.2,-53722.5,-202.8,-148.8,-204.9,-372.3,119.4,-60.6,-293.7,-6.9,-6.0,-107.1,-225.0,-0.9,-5.7,-240.6,-222.9,0,1740,0,21,0, 
0.9700,-142.2,-366.0,-292.2,-112.5,-147.3,-225.3,-77.4,-37.5,-122709.6,60.9,-222.6,-232.2,-278.7,154.2,-3.9,-254.7,-6.9,-5.7,-313.5,-294.6,-0.6,99.0,-201.9,-160.2,0,1746,0,22,0, 
0.9733,-92.7,-125.1,17.1,6.9,-60.3,-196.2,-83.1,23.1,-168799.8,-156.0,-99.6,-165.6,-325.8,140.7,-33.9,-291.3,-6.6,-6.0,-94.2,-249.9,-0.9,28.8,-242.7,-196.8,0,1752,0,23,0, 
0.9767,22.8,-338.7,-69.6,-15.3,-52.8,-201.0,-102.0,-18.0,-128044.8,-163.2,-100.5,-164.1,-326.4,120.6,-61.5,-309.3,-6.9,-5.7,-21.9,-204.9,-1.2,-12.0,-258.3,-192.0,0,1758,0,24,0, 
0.9800,117.0,-315.3,-210.3,-48.9,-29.4,-221.4,-122.4,-45.9,-51795.9,-184.8,-183.9,-150.0,-356.4,125.4,-78.6,-324.6,-7.2,-5.7,-130.2,-37.5,-0.6,-87.9,-280.5,-230.1,0,1764,0,25,0, 
0.9833,17.4,-279.0,-196.2,-99.0,-122.7,-220.2,-114.6,-50.7,-44015.4,-123.9,-261.0,-309.0,-347.7,124.2,-56.7,-289.8,-6.6,-5.7,-424.5,-423.0,-0.6,64.2,-244.2,-195.6,0,1770,0,26,0, 
0.9867,-108.9,-205.5,-68.7,-38.7,-128.7,-222.9,-89.4,-3.6,-113447.1,-72.0,-89.7,-189.3,-327.6,137.4,-37.5,-279.3,-6.9,-5.7,31.5,-315.9,-0.9,55.8,-236.4,-199.2,0,1776,0,27,0, 
0.9900,-103.8,-189.9,2.7,9.9,-24.9,-177.0,-84.0,16.2,-159018.6,-142.8,-103.5,-92.7,-341.7,121.8,-41.1,-305.7,-6.6,-5.4,-96.0,-76.5,-0.9,6.9,-246.9,-221.1,0,1782,0,28,0, 
0.9933,57.3,-141.3,-80.4,-43.5,-66.9,-241.5,-112.2,-15.9,-117003.9,-193.5,-171.0,-303.9,-334.8,127.2,-74.1,-317.7,-6.9,-6.0,-78.3,-444.3,-0.6,1.5,-266.7,-231.6,0,1788,0,29,0, 
0.9967,92.1,-402.9,-330.3,-130.8,-119.1,-237.6,-128.7,-81.3,-42311.1,-175.5,-228.9,-241.5,-333.0,100.8,-80.1,-313.5,-6.6,-5.4,-183.3,-222.3,-0.6,-31.2,-266.1,-219.0,0,1794,0,30,0, 
1.0000,-1.5,-338.1,-187.8,-111.9,-180.9,-252.3,-117.6,-63.6,-36234.9,-148.5,-218.1,-271.2,-322.8,111.6,-63.0,-285.6,-7.2,-5.7,-164.1,-330.9,-0.9,20.1,-250.2,-207.6,0,1800,0,31,0, 
1.0033,-132.0,-228.9,-48.9,-33.3,-80.4,-225.0,-96.3,-5.4,-108111.9,-99.9,-94.5,-159.3,-324.6,120.9,-43.5,-307.5,-6.9,-5.4,-33.3,-225.3,-1.2,42.6,-255.6,-214.8,0,1806,0,32,0, 
1.0067,-111.3,-222.9,-174.0,-67.8,-66.6,-201.0,-92.4,-4.2,-155610.0,-69.6,-180.9,-187.5,-288.9,138.0,-38.1,-305.7,-7.2,-6.0,-208.5,-266.1,-0.6,40.8,-256.5,-209.1,0,1812,0,33,0, 
1.0100,29.7,-318.6,-170.7,-63.9,-96.6,-245.7,-115.5,-41.4,-114929.1,-179.4,-155.7,-124.2,-321.6,119.1,-63.0,-316.5,-6.6,-5.7,-52.8,25.2,-0.6,-29.1,-275.4,-237.9,0,1818,0,34,0, 
1.0133,124.8,-239.7,-98.7,-82.8,-127.5,-237.9,-122.1,-47.7,-39050.7,-169.8,-260.7,-328.2,-343.5,98.1,-107.7,-317.1,-7.2,-6.0,-247.5,-418.5,-0.6,-20.4,-273.6,-218.1,0,1824,0,35,0, 
1.0167,9.3,-309.3,-156.0,-98.7,-168.0,-270.6,-116.1,-55.2,-32233.5,-125.1,-172.2,-287.7,-335.4,114.9,-66.3,-311.7,-6.6,-5.7,-14.4,-412.2,-0.6,33.0,-257.1,-212.1,0,1830,0,36,0, 
1.0200,-122.4,-236.7,-135.9,-45.9,-24.6,-178.8,-88.2,-2.4,-104481.0,-51.6,-135.0,-151.2,-279.9,135.0,-36.6,-303.3,-6.9,-6.0,-73.8,-204.0,-0.6,50.4,-248.1,-211.8,0,1836,0,37,0, 
1.0233,-88.8,-124.8,104.4,40.2,-27.9,-198.6,-82.5,31.8,-152794.2,-205.8,-7.2,-94.2,-300.9,116.4,-56.1,-315.9,-6.9,-6.0,251.4,-125.7,-0.6,-17.7,-258.6,-203.4,0,1842,0,38,0, 
1.0267,35.1,-284.1,-203.1,-95.7,-119.1,-211.8,-95.1,-41.1,-112261.5,-131.4,-216.9,-288.0,-350.7,122.7,-53.7,-298.2,-6.9,-6.0,-226.5,-414.3,-1.2,49.2,-245.7,-204.3,0,1848,0,39,0, 
1.0300,134.4,-207.3,4.5,3.6,-16.8,-224.1,-118.5,-18.3,-37420.5,-242.7,-93.6,-174.6,-365.7,104.4,-102.0,-342.9,-6.6,-6.0,213.6,-137.7,-0.6,-64.8,-294.3,-231.6,0,1854,0,40,0, 
1.0333,21.6,-262.8,-287.1,-139.5,-168.3,-219.0,-107.7,-52.8,-32752.2,-35.7,-300.3,-324.0,-279.9,135.0,-44.1,-307.2,-7.2,-5.7,-372.6,-475.8,-0.9,66.0,-248.1,-197.1,0,1860,0,41,0, 
1.0367,-126.9,-304.8,-57.9,-29.7,-91.8,-198.3,-81.9,-0.6,-105444.3,-90.3,-96.6,-140.1,-265.2,139.2,-30.9,-305.4,-7.2,-5.7,-44.7,-193.5,-0.6,60.0,-238.2,-183.9,0,1866,0,42,0, 
1.0400,-82.8,-127.2,-10.2,0.9,-35.4,-195.6,-79.5,28.5,-153905.7,-20.7,-115.2,-110.7,-254.7,153.3,-30.6,-305.4,-6.9,-5.7,-31.8,-96.0,-0.6,33.6,-245.7,-220.2,0,1872,0,43,0, 
1.0433,30.0,-331.5,-207.0,-61.8,-35.7,-191.1,-93.3,-29.7,-112335.6,-138.0,-193.5,-210.0,-312.9,131.7,-61.2,-315.3,-6.9,-5.7,-130.2,-231.9,-0.6,10.5,-252.9,-207.9,0,1878,0,44,0, 
1.0467,126.0,-207.6,-78.3,-60.9,-120.0,-231.6,-119.4,-43.5,-35716.2,-191.7,-195.6,-283.2,-351.0,111.6,-89.4,-319.2,-6.9,-5.7,20.7,-361.2,-0.6,-17.1,-270.3,-213.0,0,1884,0,45,0, 
1.0500,-4.8,-350.4,-190.5,-62.1,-79.5,-224.4,-107.1,-42.0,-30232.8,-148.5,-133.8,-165.6,-282.6,116.1,-68.1,-311.7,-6.9,-5.7,-11.7,-173.7,-0.9,-25.2,-256.2,-187.8,0,1890,0,46,0, 
1.0533,-106.5,-84.9,143.4,45.3,6.6,-123.6,-79.2,41.7,-104629.2,-168.0,-72.6,-141.9,-350.4,117.3,-56.7,-320.7,-6.9,-6.3,19.2,-107.7,-0.6,29.4,-250.8,-204.6,0,1896,0,47,0, 
1.0567,-121.5,-257.7,-177.3,-59.4,-84.3,-212.7,-81.3,-10.8,-154869.0,-20.1,-140.1,-173.1,-268.8,134.4,-34.2,-289.5,-7.2,-5.7,-22.2,-246.6,-0.9,81.3,-229.2,-175.8,0,1902,0,48,0, 
1.0600,15.3,-327.3,-178.8,-86.7,-113.1,-203.1,-92.4,-44.1,-115225.5,-120.6,-194.1,-270.9,-307.8,114.9,-63.6,-295.8,-6.3,-6.3,6.3,-306.3,-0.6,21.9,-241.8,-212.7,0,1908,0,49,0, 
1.0633,103.5,-297.3,-216.6,-120.0,-146.1,-263.7,-121.8,-74.7,-40236.3,-147.6,-288.9,-342.6,-315.9,105.9,-80.1,-311.4,-6.9,-5.7,-225.0,-441.6,-0.9,-30.3,-272.1,-211.2,0,1914,0,50,0, 
1.0667,-5.1,-326.4,-212.7,-99.9,-121.5,-234.9,-103.8,-57.9,-35419.8,-168.9,-208.2,-233.1,-350.7,92.1,-58.8,-301.5,-6.9,-6.0,-93.3,-221.1,-1.2,29.4,-245.1,-203.7,0,1920,0,51,0, 
1.0700,-138.3,-254.7,-120.0,-51.3,-86.1,-217.5,-84.9,-9.3,-110705.4,-57.3,-107.1,-156.6,-288.6,108.6,-28.5,-299.1,-6.6,-5.7,62.7,-209.4,-0.6,23.7,-246.0,-200.4,0,1926,0,52,0, 
1.0733,-115.2,-146.1,95.4,30.6,-11.7,-157.8,-67.5,30.0,-162130.8,-159.6,-26.4,-157.5,-332.4,87.9,-51.6,-305.7,-6.9,-6.0,265.2,-213.3,-0.3,33.9,-232.8,-184.8,0,1932,0,53,0, 
1.0767,57.0,-121.8,-79.5,-58.8,-124.5,-228.0,-100.8,-6.0,-124191.6,-143.1,-196.8,-264.3,-348.6,108.0,-75.9,-341.4,-6.9,-5.7,-11.4,-260.1,-0.6,0.6,-282.3,-212.1,0,1938,0,54,0, 
1.0800,103.5,-330.9,-209.1,-113.4,-134.1,-246.9,-116.4,-67.8,-48831.9,-148.2,-288.6,-300.3,-362.7,92.4,-81.6,-326.1,-6.9,-5.7,-299.7,-313.5,-0.6,-42.3,-268.8,-222.9,0,1944,0,55,0, 
1.0833,-13.2,-398.7,-263.4,-114.9,-128.1,-227.7,-102.0,-62.4,-44608.2,-65.4,-207.3,-244.5,-267.0,107.1,-46.8,-321.3,-6.9,-6.0,-65.1,-248.4,-0.9,40.5,-245.4,-196.8,0,1950,0,56,0, 
1.0867,-129.0,-179.7,-135.0,-60.0,-93.3,-210.3,-87.6,-4.2,-120634.8,-105.6,-124.8,-189.6,-313.8,105.9,-29.7,-317.1,-6.6,-6.0,29.1,-250.2,-0.9,62.1,-254.7,-183.3,0,1956,0,57,0, 
1.0900,-113.4,-154.8,14.4,20.7,50.7,-156.0,-70.8,31.8,-172949.4,-146.1,-81.3,-116.1,-291.0,109.8,-41.7,-329.7,-6.9,-5.7,108.0,2.7,-0.9,43.5,-250.2,-180.0,0,1962,0,58,0, 
1.0933,19.5,-342.3,-237.9,-107.7,-138.6,-220.5,-99.0,-43.5,-133305.9,-112.8,-185.4,-263.7,-271.8,105.6,-60.0,-323.7,-7.2,-5.7,-48.9,-396.0,-0.6,35.1,-254.7,-191.7,0,1968,0,59,0, 
1.0967,120.6,-264.0,-98.7,-70.5,-119.4,-240.0,-120.3,-45.6,-55797.3,-149.1,-223.2,-229.5,-324.6,90.0,-84.3,-349.2,-6.9,-6.0,-37.8,-104.4,-0.3,-35.7,-283.2,-230.1,0,1974,0,60,0, 
1.1000,21.9,-216.9,-143.7,-63.0,-27.6,-186.3,-111.9,-22.8,-49943.4,-177.0,-197.1,-251.1,-316.2,85.2,-73.8,-353.7,-6.9,-6.0,-71.4,-244.5,-0.6,-1.5,-286.8,-219.3,0,1980,0,61,0, 
1.1033,-121.8,-196.5,66.6,-4.8,-78.0,-207.9,-90.3,9.6,-124413.9,-95.4,-60.9,-158.4,-302.4,99.0,-34.5,-338.1,-7.2,-5.7,188.4,-182.1,-0.9,65.4,-255.9,-181.2,0,1986,0,62,0, 
1.1067,-117.6,-281.1,-253.5,-110.1,-127.8,-216.6,-82.8,-21.9,-175617.0,49.8,-181.8,-214.8,-241.8,128.7,-16.2,-324.9,-6.9,-6.0,-114.9,-183.3,-0.6,110.4,-237.9,-162.9,0,1992,0,63,0, 
1.1100,34.8,-232.5,-42.6,-31.2,-72.9,-212.4,-100.8,-14.4,-135973.5,-173.7,-90.6,-213.9,-293.4,85.2,-73.2,-351.6,-7.2,-5.7,218.7,-262.5,-0.6,-34.2,-271.8,-206.1,0,1998,0,64,0, 
1.1133,115.8,-261.0,-239.1,-120.9,-140.4,-243.9,-122.4,-64.2,-58242.6,-115.5,-253.5,-306.0,-332.7,86.1,-80.1,-347.4,-6.9,-6.0,-133.2,-221.1,-0.9,16.5,-282.0,-203.7,0,2004,0,65,0, 
1.1167,12.6,-304.8,-123.9,-93.3,-139.2,-240.6,-114.0,-57.0,-51944.1,-129.6,-207.9,-275.4,-283.2,81.3,-60.6,-340.8,-6.9,-6.0,-74.1,-289.2,-0.9,28.2,-272.7,-201.6,0,2010,0,66,0, 
1.1200,-119.7,-179.4,-102.3,-38.7,-45.6,-181.5,-85.8,5.4,-125599.5,-106.8,-90.6,-139.2,-310.5,101.4,-43.5,-355.5,-6.9,-5.7,65.7,-29.1,-0.6,56.7,-266.7,-212.7,0,2016,0,67,0, 
1.1233,-117.0,-254.7,-146.1,-46.8,-68.1,-176.4,-80.7,-2.7,-176209.8,-73.8,-75.3,-124.2,-270.0,106.8,-40.5,-350.7,-7.2,-5.7,189.3,-66.9,-0.6,43.5,-260.1,-203.1,0,2022,0,68,0, 
1.1267,40.5,-203.7,-10.2,-23.7,-48.0,-156.0,-97.5,-11.7,-133454.1,-128.7,-171.6,-200.7,-303.3,84.9,-79.5,-361.5,-6.9,-5.4,-40.2,-60.6,-0.9,12.0,-277.8,-216.3,0,2028,0,69,0, 
1.1300,123.3,-273.3,-220.2,-117.3,-165.6,-279.6,-130.5,-65.1,-54018.9,-179.4,-208.2,-347.4,-321.3,83.4,-89.4,-367.2,-7.2,-5.7,52.8,-393.3,-0.6,-2.4,-284.7,-200.7,0,2034,0,70,0, 
1.1333,34.2,-212.4,115.5,9.0,-64.5,-212.7,-117.3,-12.6,-45867.9,-168.0,-134.4,-186.3,-322.5,77.1,-89.1,-379.8,-6.6,-6.0,12.9,-42.3,-0.6,10.5,-291.0,-211.8,0,2040,0,71,0, 
1.1367,-137.7,-349.8,-378.3,-131.4,-95.1,-217.8,-93.0,-43.2,-119893.8,14.4,-188.4,-227.4,-259.8,118.2,-17.4,-325.5,-6.9,-5.7,-39.9,-220.2,-0.6,110.4,-239.7,-194.7,0,2046,0,72,0, 
1.1400,-88.2,-87.6,58.8,24.9,-6.0,-165.6,-79.8,30.0,-169985.4,-100.8,-77.1,-151.5,-292.8,108.3,-50.4,-351.6,-6.6,-5.7,185.1,-106.5,-0.9,27.3,-257.1,-207.3,0,2052,0,73,0, 
1.1433,48.6,-296.7,-216.6,-91.8,-113.4,-223.8,-101.4,-41.7,-126859.2,-141.6,-189.3,-225.3,-279.6,104.7,-61.8,-342.6,-7.2,-6.0,-32.4,-53.4,-0.9,35.7,-256.2,-199.5,0,2058,0,74,0, 
1.1467,122.1,-342.0,-210.9,-96.0,-100.5,-233.7,-124.5,-62.1,-46534.8,-99.9,-242.1,-259.2,-324.6,91.2,-78.3,-357.3,-6.6,-5.7,-94.8,-155.7,-0.6,-51.6,-283.5,-222.0,0,2064,0,75,0, 
1.1500,29.4,-281.7,-110.7,-61.2,-84.6,-214.8,-114.0,-39.3,-37716.9,-173.1,-132.9,-256.2,-313.8,93.9,-61.5,-350.1,-6.9,-5.7,133.2,-210.6,-0.6,6.9,-271.8,-220.2,0,2070,0,76,0, 
1.1533,-127.8,-261.3,-163.2,-65.7,-72.9,-206.4,-91.5,-14.1,-112261.5,-42.6,-174.3,-178.5,-288.9,99.3,-25.5,-320.4,-6.9,-5.7,-72.6,-117.9,-0.6,95.1,-234.9,-188.1,0,2076,0,77,0, 
1.1567,-96.3,-117.3,108.9,28.5,-34.8,-187.8,-83.1,33.9,-164205.6,-121.2,-73.2,-183.0,-296.7,78.0,-60.0,-333.0,-6.9,-5.4,156.6,-116.1,-0.6,43.2,-250.8,-189.3,0,2082,0,78,0, 
1.1600,48.0,-270.0,-234.6,-80.7,-77.7,-218.1,-106.8,-34.5,-123598.8,-136.5,-229.2,-226.5,-340.5,99.3,-53.4,-329.1,-7.2,-5.7,-79.5,-83.4,-0.9,6.0,-265.2,-198.6,0,2088,0,79,0, 
1.1633,127.8,-301.2,-121.2,-51.3,-102.6,-226.8,-123.6,-44.1,-44830.5,-177.0,-150.3,-259.5,-297.6,60.6,-107.7,-358.2,-6.9,-6.0,222.3,-183.3,-0.6,-11.7,-281.7,-191.4,0,2094,0,80,0, 
1.1667,22.8,-326.1,-222.0,-72.3,-47.7,-222.9,-117.3,-47.1,-37494.6,-94.5,-247.5,-211.2,-293.4,79.2,-67.8,-339.0,-6.9,-6.0,-228.3,-15.0,-0.9,4.5,-266.4,-210.9,0,2100,0,81,0, 
1.1700,-116.7,-205.2,-55.8,-1.2,-25.5,-157.8,-84.6,11.4,-112557.9,-116.7,-93.6,-146.7,-300.3,78.3,-60.6,-343.2,-7.2,-5.7,132.9,-87.0,-1.2,47.7,-255.6,-176.1,0,2106,0,82,0, 
1.1733,-103.5,-234.3,-54.3,0.0,-30.0,-204.6,-86.7,8.4,-164576.1,-137.1,-95.4,-179.7,-276.0,82.8,-55.2,-344.1,-6.9,-6.0,78.0,-119.7,-0.9,66.3,-255.0,-185.4,0,2112,0,83,0, 
1.1767,50.1,-245.4,-141.9,-56.7,-90.0,-231.9,-107.7,-28.8,-122635.5,-111.6,-220.8,-236.4,-333.9,57.3,-96.9,-353.7,-7.2,-5.7,-35.4,-52.8,-0.9,0.9,-270.6,-206.7,0,2118,0,84,0, 
1.1800,121.5,-336.6,-263.4,-115.8,-126.9,-255.6,-136.2,-78.0,-42162.9,-158.7,-260.1,-360.6,-313.8,52.2,-100.8,-354.9,-6.9,-5.7,-6.0,-277.5,-0.9,-24.6,-288.6,-214.8,0,2124,0,85,0, 
1.1833,26.7,-254.1,-101.7,-63.9,-156.3,-258.6,-124.2,-46.5,-33493.2,-140.4,-199.5,-252.3,-333.9,45.9,-96.0,-359.4,-7.2,-6.0,64.2,-117.6,-0.3,-12.0,-275.7,-210.9,0,2130,0,86,0, 
1.1867,-128.7,-290.4,-148.8,-36.3,-48.3,-208.2,-94.2,-13.8,-108037.8,-105.6,-127.8,-153.9,-302.1,65.7,-69.9,-357.6,-7.2,-5.7,4.5,-24.9,-0.9,49.8,-254.4,-206.1,0,2136,0,87,0, 
1.1900,-113.1,-227.4,-114.6,-29.1,-45.9,-206.1,-87.6,-3.9,-158351.7,-77.4,-135.0,-210.9,-294.0,59.1,-71.1,-354.3,-6.6,-6.3,141.9,-146.4,-0.9,57.9,-257.4,-196.2,0,2142,0,88,0, 
1.1933,45.0,-281.4,-191.4,-86.4,-126.3,-235.8,-111.9,-45.3,-115521.9,-110.7,-247.2,-279.0,-306.9,66.0,-87.0,-374.7,-6.6,-6.0,-91.2,-119.4,-0.3,27.6,-288.6,-212.1,0,2148,0,89,0, 
1.1967,131.7,-270.3,-146.1,-68.1,-101.1,-244.2,-134.1,-56.1,-33196.8,-213.0,-228.9,-288.0,-353.4,31.5,-126.6,-390.3,-7.2,-5.7,-9.6,-170.4,-0.6,-63.0,-305.7,-221.1,0,2154,0,90,0, 
1.2000,36.6,-221.7,-60.9,-37.8,-96.9,-235.8,-122.1,-37.8,-23489.7,-168.9,-149.4,-212.7,-322.8,36.0,-111.6,-389.7,-7.2,-5.7,129.9,-29.1,-1.5,-3.0,-286.5,-236.1,0,2160,0,91,0, 
1.2033,-132.0,-331.8,-168.9,-46.8,-61.5,-201.0,-90.3,-22.2,-98182.5,-92.1,-128.7,-143.7,-281.1,59.1,-56.4,-357.6,-6.6,-5.7,98.4,-8.7,-0.9,90.9,-251.1,-189.9,0,2166,0,92,0, 
1.2067,-90.6,-136.8,-15.0,-5.1,-51.9,-197.1,-90.0,18.6,-150052.5,-75.0,-114.6,-194.4,-291.3,61.8,-71.4,-379.8,-6.6,-6.0,118.8,-108.9,-0.3,64.5,-277.5,-184.5,0,2172,0,93,0, 
1.2100,35.7,-360.6,-285.3,-93.9,-95.4,-217.2,-105.3,-47.1,-108037.8,-97.8,-246.6,-223.5,-279.6,58.8,-87.9,-384.6,-7.2,-5.7,-132.9,-63.3,-0.3,22.2,-278.7,-185.1,0,2178,0,94,0, 
1.2133,138.6,-285.3,-142.8,-73.2,-125.4,-243.0,-129.9,-57.0,-26083.2,-170.1,-222.9,-303.6,-348.3,38.4,-115.8,-397.5,-7.2,-5.4,-5.4,-205.8,-0.9,-24.3,-297.6,-216.0,0,2184,0,95,0, 
1.2167,27.0,-263.7,-95.7,-48.3,-100.2,-237.0,-120.9,-40.2,-17339.4,-149.7,-177.6,-233.1,-308.4,29.1,-104.7,-396.6,-6.6,-5.4,94.5,-74.1,-0.6,-0.6,-286.2,-210.6,0,2190,0,96,0, 
1.2200,-123.9,-254.7,-137.1,-41.4,-60.9,-179.7,-90.3,-10.8,-92106.3,-57.3,-120.0,-177.3,-292.8,50.1,-64.5,-376.8,-6.9,-6.0,85.5,-25.8,-0.9,87.6,-254.7,-191.7,0,2196,0,97,0, 
1.2233,-99.6,-234.0,-129.3,-24.0,-27.0,-187.2,-90.0,2.1,-144346.8,-70.8,-116.1,-116.7,-265.2,63.6,-61.8,-387.9,-6.9,-6.0,78.3,101.7,-0.9,36.9,-281.4,-199.5,0,2202,0,98,0, 
1.2267,43.2,-304.8,-180.0,-72.9,-97.8,-232.2,-112.2,-39.3,-103369.5,-116.1,-199.2,-272.1,-304.8,52.2,-83.4,-409.8,-6.6,-5.7,-33.9,-198.6,-0.3,46.5,-281.1,-183.9,0,2208,0,99,0, 
1.2300,141.0,-256.2,-131.7,-58.5,-103.8,-240.0,-134.4,-49.5,-21933.6,-198.3,-183.6,-204.9,-339.6,33.3,-123.9,-416.4,-6.9,-5.7,120.9,144.0,-0.9,-36.3,-302.4,-216.0,0,2214,0,100,0, 
1.2333,44.1,-212.4,-60.0,-46.8,-107.4,-237.6,-127.8,-33.6,-11781.9,-181.2,-155.1,-302.1,-309.3,40.2,-107.1,-424.2,-6.9,-6.0,87.9,-305.4,-0.9,-12.0,-299.7,-210.6,0,2220,0,101,0, 
1.2367,-124.5,-305.1,-218.7,-65.7,-52.2,-206.7,-95.7,-20.4,-86474.7,-29.4,-145.8,-130.5,-261.0,66.6,-51.9,-380.1,-6.9,-6.0,47.7,96.6,-0.9,79.2,-254.4,-183.0,0,2226,0,102,0, 
1.2400,-106.8,-225.3,-87.6,-23.7,-45.9,-196.8,-87.0,4.8,-138418.8,-86.4,-112.5,-147.3,-283.5,65.1,-66.9,-391.2,-6.9,-6.0,115.2,-9.0,-0.6,59.7,-258.9,-192.6,0,2232,0,103,0, 
1.2433,47.7,-305.4,-210.6,-93.9,-123.3,-229.8,-104.7,-43.8,-96700.5,-80.1,-213.0,-287.1,-279.3,65.4,-79.8,-387.3,-6.9,-5.7,26.1,-177.3,-0.3,40.2,-260.4,-184.5,0,2238,0,104,0, 
1.2467,142.5,-258.0,-121.8,-64.5,-109.5,-239.7,-127.5,-47.7,-14968.2,-223.8,-207.3,-262.8,-336.0,35.1,-123.6,-429.3,-6.9,-6.0,2.1,-83.1,-0.6,-34.2,-296.4,-207.9,0,2244,0,105,0, 
1.2500,27.6,-286.5,-157.5,-64.2,-100.2,-231.6,-115.5,-39.6,-5483.4,-150.3,-159.6,-226.8,-315.6,36.6,-99.0,-406.2,-6.9,-6.0,138.6,-70.2,-0.9,10.5,-267.0,-190.5,0,2250,0,106,0, 
1.2533,-123.3,-262.5,-152.4,-46.8,-66.0,-204.0,-85.2,-7.8,-81287.7,-80.7,-118.8,-179.7,-280.8,66.6,-52.2,-390.0,-6.6,-6.0,49.5,-17.4,-0.6,80.7,-244.8,-174.6,0,2256,0,107,0, 
1.2567,-107.1,-233.7,-121.8,-37.2,-66.9,-205.2,-85.5,2.7,-135528.9,-58.5,-135.0,-175.8,-268.5,72.6,-53.1,-387.3,-6.6,-5.7,72.3,-22.8,-0.9,68.7,-258.3,-188.4,0,2262,0,108,0, 
1.2600,42.0,-272.4,-145.5,-57.3,-90.0,-221.1,-105.3,-27.3,-94329.3,-135.9,-189.9,-233.7,-290.1,57.6,-93.9,-419.1,-6.3,-6.0,19.2,-94.8,-0.9,14.7,-279.0,-191.4,0,2268,0,109,0, 
1.2633,142.8,-206.7,-66.0,-49.8,-108.0,-244.5,-125.7,-36.9,-12300.6,-219.9,-213.0,-292.2,-383.1,27.6,-126.9,-424.2,-6.9,-5.7,40.5,-102.9,-0.6,-48.9,-291.3,-211.2,0,2274,0,110,0, 
1.2667,20.4,-338.1,-283.5,-108.9,-108.0,-237.3,-113.7,-62.1,-2148.9,-111.3,-222.9,-255.6,-306.9,44.4,-84.0,-382.2,-7.2,-6.0,-25.8,-55.8,-0.6,38.7,-263.7,-180.3,0,2280,0,111,0, 
1.2700,-119.7,-174.6,-30.6,-12.3,-58.5,-213.9,-91.5,4.5,-77879.1,-124.2,-93.6,-171.3,-302.4,57.6,-73.2,-396.0,-6.6,-6.0,211.8,-14.4,-0.6,67.5,-264.9,-185.4,0,2286,0,112,0, 
1.2733,-126.3,-246.6,-142.8,-52.8,-71.4,-211.2,-83.7,-11.4,-132713.1,-74.7,-146.7,-186.0,-290.4,42.3,-62.7,-373.2,-6.6,-5.7,51.9,-49.2,-0.9,67.2,-243.9,-183.6,0,2292,0,113,0, 
1.2767,39.6,-325.5,-173.4,-62.1,-78.3,-221.1,-102.9,-37.2,-91735.8,-174.0,-188.4,-212.1,-306.6,51.6,-92.1,-408.0,-6.9,-5.7,27.0,19.5,-0.6,5.4,-267.6,-204.3,0,2298,0,114,0, 
1.2800,126.0,-329.1,-206.4,-90.0,-114.6,-246.9,-128.4,-68.7,-8966.1,-174.0,-234.9,-280.5,-341.7,11.7,-118.5,-396.9,-7.2,-5.7,-36.3,-88.8,-0.9,-33.6,-294.0,-215.1,0,2304,0,115,0, 
1.2833,29.7,-296.4,-191.4,-76.5,-108.0,-241.8,-115.8,-50.4,1852.5,-126.3,-181.5,-246.6,-304.8,38.4,-100.5,-402.9,-6.6,-6.0,37.8,-80.1,-0.6,19.2,-287.7,-192.0,0,2310,0,116,0, 
1.2867,-112.8,-208.2,-33.3,6.0,-24.6,-187.8,-87.6,13.5,-75359.7,-118.5,-59.1,-123.6,-275.7,43.5,-70.8,-422.7,-7.2,-5.7,198.6,54.9,-0.6,70.5,-273.0,-172.2,0,2316,0,117,0, 
1.2900,-112.5,-199.5,-54.6,-8.4,-45.6,-179.7,-78.9,15.9,-130934.7,-68.1,-99.0,-169.2,-287.1,54.3,-67.5,-405.3,-6.6,-5.4,134.7,-22.8,-0.3,82.8,-269.4,-184.5,0,2322,0,118,0, 
1.2933,42.3,-288.3,-185.7,-54.9,-74.1,-233.4,-108.0,-27.9,-89661.0,-127.2,-175.5,-212.7,-280.5,42.3,-95.7,-416.4,-6.3,-5.7,29.4,-21.9,-0.9,27.9,-292.2,-184.8,0,2328,0,119,0, 
1.2967,148.5,-238.5,-104.1,-48.6,-90.6,-238.2,-124.2,-41.7,-5261.1,-220.5,-189.3,-237.6,-326.7,31.2,-121.5,-423.9,-6.3,-6.0,41.1,-36.9,-0.3,-48.0,-309.3,-209.4,0,2334,0,120,0, 
1.3000,22.2,-330.3,-215.7,-79.8,-94.5,-236.1,-112.5,-50.7,6298.5,-117.3,-192.3,-228.9,-318.3,22.2,-92.7,-384.9,-6.9,-5.4,-4.8,-54.3,-1.2,51.3,-267.3,-183.3,0,2340,0,121,0, 
1.3033,-113.1,-227.7,-81.0,-16.5,-49.5,-204.9,-88.5,6.3,-70617.3,-68.1,-83.4,-146.4,-275.4,53.4,-59.7,-404.1,-6.9,-6.0,158.4,31.5,-0.6,72.6,-270.6,-177.6,0,2346,0,122,0, 
1.3067,-99.6,-235.2,-108.3,-23.1,-39.3,-195.3,-84.0,11.1,-126044.1,-62.7,-99.9,-158.1,-258.0,54.0,-61.8,-417.0,-7.2,-5.7,115.5,16.2,-0.9,81.9,-270.9,-173.1,0,2352,0,123,0, 
1.3100,53.1,-265.8,-148.2,-56.4,-75.3,-222.6,-109.2,-22.5,-83584.8,-153.9,-177.3,-215.1,-298.2,35.1,-102.6,-433.2,-6.9,-5.7,4.5,2.7,-0.6,7.2,-300.9,-192.6,0,2358,0,124,0, 
1.3133,151.2,-314.4,-192.6,-84.3,-107.1,-247.8,-129.6,-52.5,1630.2,-180.0,-211.2,-267.3,-331.8,18.6,-115.2,-444.3,-6.6,-5.7,21.6,-85.2,-0.6,-22.2,-312.3,-200.7,0,2364,0,125,0, 
1.3167,46.2,-268.8,-144.9,-68.4,-96.0,-241.5,-121.2,-35.7,14375.4,-161.4,-169.5,-239.4,-296.4,19.8,-102.9,-435.9,-6.9,-5.7,36.6,-29.4,-0.6,14.7,-294.3,-201.3,0,2370,0,126,0, 
1.3200,-108.9,-237.6,-116.7,-38.7,-47.7,-207.0,-92.1,0.9,-61058.4,-101.1,-118.5,-144.3,-290.4,38.4,-68.4,-423.3,-7.2,-6.0,78.0,59.4,-0.9,43.8,-273.6,-190.8,0,2376,0,127,0, 
1.3233,-99.9,-210.0,-80.1,-16.2,-34.5,-196.5,-88.5,21.6,-115818.3,-114.0,-89.7,-141.9,-276.9,39.6,-83.4,-441.9,-6.9,-6.0,98.1,50.4,-0.6,57.6,-286.2,-183.3,0,2382,0,128,0, 
1.3267,52.2,-272.7,-135.3,-57.0,-81.6,-230.1,-113.1,-19.8,-71951.1,-165.3,-167.7,-219.9,-307.5,24.3,-109.5,-442.8,-6.9,-5.4,63.9,-23.1,-0.6,0.3,-304.2,-207.0,0,2388,0,129,0, 
1.3300,156.3,-285.6,-177.0,-84.0,-114.3,-251.7,-129.9,-48.9,16005.6,-203.7,-216.0,-268.2,-334.8,10.8,-129.3,-435.9,-6.9,-5.4,-21.9,-62.1,-0.6,-12.6,-309.0,-207.9,0,2394,0,130,0, 
1.3333,48.0,-296.7,-135.9,-68.1,-99.9,-247.2,-119.1,-37.2,30603.3,-136.2,-175.5,-219.9,-310.2,15.3,-102.9,-424.2,-6.9,-5.7,38.7,-4.5,-0.6,18.3,-288.6,-202.5,0,2400,0,131,0, 
1.3367,-112.5,-243.9,-122.4,-43.2,-58.8,-218.1,-96.9,0.9,-44756.4,-77.1,-112.5,-146.1,-287.4,34.8,-68.4,-413.1,-6.6,-5.7,80.7,36.9,-0.9,73.8,-275.1,-190.5,0,2406,0,132,0, 
1.3400,-95.4,-199.8,-54.3,-12.0,-36.9,-208.2,-90.3,18.3,-98182.5,-110.4,-94.8,-138.0,-272.7,37.2,-78.3,-424.8,-7.2,-5.7,117.0,64.2,-0.6,58.5,-275.7,-190.8,0,2412,0,133,0, 
1.3433,56.1,-264.9,-127.5,-57.3,-81.6,-234.6,-109.2,-15.6,-54018.9,-159.6,-173.7,-231.9,-303.9,17.4,-106.2,-423.3,-6.9,-5.7,-2.7,-42.3,-0.6,-5.1,-295.2,-210.0,0,2418,0,134,0, 
1.3467,148.8,-327.3,-222.6,-97.2,-108.3,-253.5,-129.9,-54.3,35123.4,-182.4,-222.0,-266.1,-318.6,5.7,-138.9,-424.8,-6.9,-5.7,-8.7,-37.2,-0.6,-29.4,-301.5,-212.1,0,2424,0,135,0, 
1.3500,42.9,-286.8,-152.1,-70.8,-96.0,-245.4,-123.3,-33.9,50165.7,-162.3,-175.8,-216.9,-312.0,9.3,-115.5,-426.6,-6.9,-5.7,15.6,11.4,-0.9,4.8,-293.4,-218.7,0,2430,0,136,0, 
1.3533,-114.3,-235.5,-95.1,-39.6,-56.1,-212.4,-96.6,3.9,-25119.9,-105.6,-101.1,-171.9,-287.4,31.5,-73.8,-409.5,-6.6,-5.7,118.2,36.3,-1.2,58.5,-268.5,-198.3,0,2436,0,137,0, 
1.3567,-105.9,-226.8,-94.8,-34.8,-53.1,-201.3,-84.3,14.1,-79953.9,-95.1,-104.7,-164.4,-271.8,33.0,-77.4,-403.8,-6.9,-6.0,79.5,33.6,-0.6,61.2,-260.4,-183.0,0,2442,0,138,0, 
1.3600,59.4,-261.6,-119.1,-52.2,-75.0,-222.9,-104.7,-16.5,-36753.6,-168.9,-140.7,-208.5,-300.0,24.9,-103.2,-448.5,-6.6,-6.0,87.9,20.4,-0.6,16.5,-280.2,-186.3,0,2448,0,139,0, 
1.3633,146.4,-315.3,-192.6,-90.0,-100.2,-252.9,-134.1,-55.5,53277.9,-208.2,-219.3,-250.2,-333.3,-0.3,-129.6,-447.3,-7.2,-6.0,-30.6,15.6,-0.6,-50.7,-301.2,-210.0,0,2454,0,140,0, 
1.3667,42.0,-291.0,-158.4,-78.9,-104.4,-256.5,-127.8,-45.3,67653.3,-177.6,-170.1,-224.4,-326.4,9.9,-105.9,-440.4,-6.3,-6.0,25.5,-20.1,-1.5,-9.6,-295.8,-206.7,0,2460,0,141,0, 
1.3700,-113.4,-243.0,-114.3,-56.4,-78.6,-232.2,-104.1,-14.7,-8743.8,-106.2,-118.5,-176.1,-290.4,33.3,-48.0,-414.3,-6.6,-5.4,71.4,23.1,-0.6,60.9,-268.5,-200.7,0,2466,0,142,0, 
1.3733,-112.5,-231.9,-98.4,-35.7,-45.9,-213.3,-93.9,2.7,-64689.3,-107.7,-88.2,-145.5,-294.0,27.6,-70.5,-435.9,-6.9,-5.7,84.6,51.0,-0.6,55.2,-268.8,-188.1,0,2472,0,143,0, 
1.3767,53.4,-264.3,-147.0,-66.9,-79.5,-232.8,-112.2,-27.0,-21785.4,-166.2,-169.2,-215.7,-291.9,17.4,-122.4,-445.8,-7.2,-6.0,17.7,-5.1,-0.6,10.8,-281.1,-195.0,0,2478,0,144,0, 
1.3800,144.6,-311.7,-184.2,-102.3,-116.1,-262.2,-137.7,-63.0,67060.5,-209.7,-213.0,-262.5,-350.1,-6.6,-150.3,-457.2,-6.9,-6.0,-29.1,-47.4,-1.2,-42.0,-294.9,-217.8,0,2484,0,145,0, 
1.3833,38.7,-286.8,-146.7,-79.5,-93.3,-247.2,-124.5,-45.3,81287.7,-175.8,-178.2,-220.2,-332.1,1.5,-122.7,-441.9,-6.6,-5.7,3.3,0.0,-0.6,-3.6,-275.1,-203.7,0,2490,0,146,0, 
1.3867,-115.8,-242.7,-100.8,-41.4,-54.6,-216.0,-98.7,2.7,3334.5,-94.5,-87.6,-149.1,-286.2,30.6,-89.1,-453.0,-6.9,-6.0,78.0,43.5,-0.6,67.2,-268.5,-186.0,0,2496,0,147,0, 
1.3900,-111.0,-219.9,-73.2,-35.1,-53.4,-213.0,-91.8,7.2,-55426.8,-133.5,-96.3,-152.1,-288.3,30.9,-78.3,-435.6,-6.9,-6.0,83.1,44.4,-0.6,39.3,-263.4,-193.8,0,2502,0,148,0, 
1.3933,48.0,-274.5,-138.3,-72.3,-81.6,-238.2,-118.5,-28.2,-13189.8,-178.8,-165.9,-213.9,-318.0,17.4,-124.2,-464.4,-6.9,-5.7,11.7,-9.9,-0.9,-15.9,-285.9,-205.8,0,2508,0,149,0, 
1.3967,150.6,-324.0,-212.1,-114.3,-123.9,-263.1,-141.6,-66.9,75582.0,-219.0,-227.7,-261.9,-343.8,6.9,-135.9,-468.9,-6.9,-6.0,-86.4,-39.6,-0.9,-56.7,-300.9,-222.0,0,2514,0,150,0, 
1.4000,52.2,-273.3,-141.6,-88.5,-113.4,-264.3,-137.1,-46.5,89883.3,-197.1,-168.3,-228.0,-334.2,14.1,-112.2,-468.6,-6.3,-5.7,-32.7,-34.5,-0.9,-33.9,-296.4,-229.5,0,2520,0,151,0, 
1.4033,-124.8,-252.6,-121.8,-65.4,-70.8,-225.9,-106.5,-10.5,10744.5,-133.2,-110.1,-158.4,-302.7,19.2,-91.2,-431.7,-6.9,-6.0,18.3,33.9,-1.2,37.2,-259.8,-214.2,0,2526,0,152,0, 
1.4067,-106.5,-231.9,-95.7,-52.8,-63.0,-216.0,-95.1,5.1,-48831.9,-117.9,-104.7,-166.8,-278.7,39.3,-84.3,-447.3,-6.9,-5.7,30.6,18.6,-0.3,53.4,-261.3,-206.4,0,2532,0,153,0, 
1.4100,53.4,-272.7,-146.1,-79.5,-92.4,-240.3,-117.6,-27.9,-7928.7,-189.0,-152.1,-222.6,-304.5,19.8,-115.8,-453.6,-6.6,-5.1,-13.5,-23.7,-0.6,-16.2,-286.5,-213.0,0,2538,0,154,0, 
1.4133,147.6,-314.4,-182.1,-111.0,-124.5,-264.6,-135.9,-60.6,80398.5,-223.8,-214.8,-286.8,-339.6,-4.8,-144.3,-458.7,-7.2,-5.7,-84.0,-64.5,-0.6,-36.9,-288.9,-213.0,0,2544,0,155,0, 
1.4167,48.3,-285.6,-148.5,-88.8,-98.4,-246.6,-128.7,-41.1,93069.6,-175.8,-170.4,-229.8,-312.6,6.6,-121.2,-471.6,-6.9,-5.7,-50.7,-17.1,-0.9,-12.6,-283.8,-205.2,0,2550,0,156,0, 
1.4200,-122.7,-236.7,-90.0,-47.7,-55.2,-218.7,-98.1,-2.7,12004.2,-118.2,-95.1,-141.0,-289.8,25.5,-78.6,-444.6,-6.9,-6.3,7.2,64.2,-0.9,45.6,-258.9,-186.0,0,2556,0,157,0, 
1.4233,-123.9,-237.9,-96.9,-50.1,-51.9,-214.2,-92.1,-0.3,-49572.9,-141.3,-105.0,-149.7,-293.7,28.2,-53.7,-429.0,-6.9,-6.0,-2.4,26.7,-0.6,44.1,-259.8,-193.8,0,2562,0,158,0, 
1.4267,42.3,-276.3,-138.3,-72.6,-82.5,-233.7,-111.3,-23.7,-9188.4,-190.5,-159.0,-214.2,-312.6,12.9,-120.9,-472.5,-7.2,-6.0,-66.0,-18.3,-0.9,3.3,-275.7,-192.3,0,2568,0,159,0, 
1.4300,141.0,-310.2,-171.0,-100.8,-116.1,-264.3,-138.6,-57.3,78101.4,-222.9,-202.2,-261.3,-333.3,-5.7,-146.7,-458.7,-7.2,-6.3,-98.7,-57.6,-0.6,-57.0,-288.6,-213.3,0,2574,0,160,0, 
1.4333,39.6,-278.4,-129.6,-73.5,-88.2,-245.4,-129.3,-34.2,90402.0,-195.6,-152.1,-196.5,-324.9,-3.3,-141.6,-460.2,-6.9,-6.0,-66.0,-10.8,-0.6,-29.7,-285.6,-201.0,0,2580,0,161,0, 
1.4367,-123.9,-232.2,-81.9,-38.7,-54.9,-211.5,-101.1,7.2,8373.3,-128.1,-86.4,-129.6,-276.9,30.3,-82.5,-451.8,-6.9,-5.7,-14.4,27.6,-0.6,61.8,-270.3,-178.2,0,2586,0,162,0, 
1.4400,-119.1,-218.4,-72.6,-32.1,-42.3,-195.3,-91.5,21.3,-54537.6,-104.7,-91.2,-135.0,-277.5,31.5,-87.3,-456.3,-7.2,-5.7,-20.7,36.3,-0.3,71.7,-260.4,-167.4,0,2592,0,163,0, 
1.4433,41.1,-261.6,-117.0,-56.7,-68.7,-221.1,-119.4,-17.4,-14523.6,-186.0,-139.5,-190.2,-304.2,11.7,-125.7,-489.9,-6.9,-6.0,-77.4,-9.6,-0.3,-10.2,-296.4,-188.1,0,2598,0,164,0, 
1.4467,142.2,-304.2,-164.7,-95.4,-104.4,-253.5,-143.4,-57.3,74025.9,-252.0,-195.9,-244.2,-348.3,-5.4,-154.8,-489.3,-6.6,-6.0,-122.4,-38.4,-0.6,-83.1,-314.7,-211.8,0,2604,0,165,0, 
1.4500,32.1,-301.2,-155.7,-100.8,-116.1,-253.2,-133.2,-50.1,86622.9,-192.0,-171.3,-224.1,-328.8,-4.2,-128.7,-475.8,-6.9,-5.4,-111.0,-51.0,-0.6,-12.3,-295.2,-200.4,0,2610,0,166,0, 
1.4533,-132.6,-239.4,-95.4,-56.4,-66.0,-217.5,-107.4,-4.8,4520.1,-129.0,-96.0,-134.1,-290.7,20.4,-101.4,-480.3,-6.9,-6.0,-48.6,21.0,-0.9,59.4,-281.7,-174.6,0,2616,0,167,0, 
1.4567,-133.2,-231.6,-82.8,-47.4,-57.9,-209.1,-100.2,3.6,-59131.8,-134.7,-81.3,-134.1,-281.7,23.1,-98.1,-477.0,-7.2,-5.4,-44.1,23.4,-0.9,32.7,-285.6,-180.6,0,2622,0,168,0, 
1.4600,36.0,-268.2,-138.6,-84.9,-90.9,-232.2,-117.3,-33.0,-19488.3,-205.8,-155.7,-213.3,-301.5,12.6,-129.3,-481.8,-7.2,-6.0,-118.2,-43.5,-0.6,-7.8,-292.5,-189.3,0,2628,0,169,0, 
1.4633,137.7,-307.2,-176.1,-114.6,-124.8,-260.7,-146.1,-71.7,69654.0,-245.7,-195.3,-252.3,-361.5,-1.5,-151.8,-499.8,-6.6,-5.7,-162.6,-69.9,-0.3,-56.1,-316.8,-202.2,0,2634,0,170,0, 
1.4667,30.0,-299.1,-160.8,-108.0,-116.1,-252.9,-134.7,-59.7,83140.2,-206.4,-160.8,-228.6,-332.4,5.4,-135.0,-485.4,-6.9,-6.3,-138.6,-49.2,-0.9,-27.9,-296.7,-195.3,0,2640,0,171,0, 
1.4700,-141.9,-253.2,-104.7,-66.9,-75.3,-222.6,-106.5,-17.4,-370.5,-137.1,-97.2,-157.8,-296.7,15.6,-95.4,-453.0,-6.9,-5.7,-68.7,16.5,-0.6,38.1,-273.3,-184.2,0,2646,0,172,0, 
1.4733,-136.5,-231.6,-92.7,-52.5,-49.2,-199.8,-95.1,1.8,-65578.5,-132.0,-83.1,-134.4,-290.7,27.0,-96.9,-464.7,-6.9,-6.0,-85.5,35.7,-0.6,45.3,-273.3,-170.4,0,2652,0,173,0, 
1.4767,27.6,-281.7,-142.8,-90.0,-98.4,-226.8,-119.1,-38.1,-25712.7,-192.9,-163.5,-220.2,-310.8,18.9,-114.3,-474.3,-6.9,-5.7,-146.4,-69.9,-0.9,-7.8,-291.6,-192.6,0,2658,0,174,0, 
1.4800,141.9,-310.8,-171.9,-113.7,-127.2,-258.3,-144.0,-70.2,64467.0,-242.7,-209.1,-251.1,-337.5,3.3,-156.0,-497.4,-6.9,-6.3,-196.2,-74.7,-0.9,-68.1,-311.4,-217.8,0,2664,0,175,0, 
1.4833,30.9,-292.8,-149.7,-103.5,-116.4,-245.4,-131.7,-60.3,78323.7,-212.7,-168.3,-220.8,-330.3,-0.6,-129.9,-483.9,-7.2,-6.0,-166.2,-56.1,-0.3,-17.1,-293.4,-214.2,0,2670,0,176,0, 
1.4867,-138.0,-253.5,-101.4,-68.4,-72.6,-217.2,-111.3,-21.9,-5335.2,-150.3,-91.8,-152.7,-303.9,20.7,-77.1,-468.6,-6.9,-6.3,-111.0,1.8,-0.9,46.5,-283.2,-191.1,0,2676,0,177,0, 
1.4900,-139.2,-232.2,-78.6,-49.2,-57.6,-201.3,-90.6,-2.7,-70543.2,-142.8,-91.2,-146.1,-286.8,22.5,-104.7,-459.0,-6.9,-5.7,-101.4,-1.8,-0.9,31.8,-263.4,-175.8,0,2682,0,178,0, 
1.4933,24.3,-289.8,-155.4,-91.5,-99.0,-228.0,-111.3,-44.4,-30825.6,-197.1,-168.0,-226.2,-328.5,4.8,-141.0,-466.2,-6.9,-5.7,-194.7,-61.5,-0.9,-17.7,-283.8,-185.4,0,2688,0,179,0, 
1.4967,141.0,-306.9,-158.1,-96.3,-111.0,-246.6,-140.7,-59.1,60243.3,-243.6,-184.5,-239.1,-338.4,-0.3,-175.2,-524.1,-6.6,-5.7,-201.9,-66.9,-0.6,-75.0,-322.2,-198.9,0,2694,0,180,0, 
1.5000,31.5,-300.0,-156.6,-96.3,-108.6,-243.6,-131.4,-52.2,75952.5,-220.5,-166.8,-211.8,-336.0,3.6,-148.8,-501.9,-7.2,-5.7,-198.9,-44.4,-0.6,-27.6,-303.3,-189.6,0,2700,0,181,0, 
1.5033,-136.2,-245.7,-104.7,-64.2,-79.2,-209.7,-98.4,-8.7,-7335.9,-138.9,-100.2,-156.6,-304.2,26.4,-97.5,-474.3,-6.9,-6.0,-144.9,-24.9,-1.5,54.6,-272.4,-173.7,0,2706,0,182,0, 
1.5067,-133.8,-232.2,-88.5,-41.7,-41.1,-185.7,-88.8,8.7,-73359.0,-155.7,-81.9,-134.4,-294.0,33.0,-95.4,-475.5,-6.9,-5.7,-134.7,43.5,-0.9,39.6,-270.3,-159.0,0,2712,0,183,0, 
1.5100,27.6,-274.5,-140.4,-84.6,-93.0,-219.3,-113.4,-28.5,-32974.5,-210.9,-162.6,-218.4,-320.1,23.7,-123.9,-488.4,-6.6,-5.7,-197.7,-79.8,-1.2,-7.8,-298.8,-182.7,0,2718,0,184,0, 
1.5133,137.1,-319.8,-180.0,-111.3,-130.2,-251.4,-143.1,-64.2,59428.2,-256.2,-213.0,-257.4,-347.4,0.9,-175.5,-516.0,-6.9,-6.6,-263.4,-100.8,-0.9,-65.7,-325.2,-201.6,0,2724,0,185,0, 
1.5167,30.3,-308.7,-160.8,-102.6,-117.9,-247.8,-135.9,-57.6,75656.1,-234.3,-172.5,-220.8,-343.2,9.0,-135.6,-508.8,-6.6,-5.7,-229.5,-60.0,-0.9,-38.7,-312.6,-199.8,0,2730,0,186,0, 
1.5200,-142.5,-250.8,-101.7,-61.5,-67.2,-210.0,-104.4,-10.8,-8669.7,-139.8,-95.7,-142.5,-303.0,24.6,-107.1,-503.7,-6.9,-5.7,-166.8,15.0,-0.3,36.6,-292.8,-176.1,0,2736,0,187,0, 
1.5233,-141.6,-235.5,-95.7,-63.3,-76.8,-211.2,-92.7,-5.7,-74989.2,-142.8,-99.6,-149.7,-286.2,37.2,-90.6,-464.1,-6.9,-5.7,-162.0,-33.3,-0.6,45.3,-285.3,-183.0,0,2742,0,188,0, 
1.5267,28.8,-284.7,-141.0,-87.3,-99.0,-231.3,-115.2,-37.2,-35197.5,-203.7,-156.3,-210.6,-317.7,21.6,-134.1,-488.7,-6.6,-5.4,-210.9,-57.6,-0.3,-20.4,-312.9,-189.9,0,2748,0,189,0, 
1.5300,146.1,-318.3,-175.8,-113.1,-129.0,-257.4,-140.7,-70.5,58687.2,-260.7,-200.7,-250.2,-331.5,14.7,-156.9,-521.4,-6.9,-5.7,-267.0,-92.7,-0.9,-74.4,-331.2,-208.8,0,2754,0,190,0, 
1.5333,34.5,-300.3,-144.0,-99.0,-120.6,-248.7,-132.3,-60.9,75952.5,-244.2,-174.0,-216.9,-342.3,3.0,-145.2,-502.2,-6.6,-5.7,-246.0,-74.1,-0.6,-42.6,-307.2,-202.8,0,2760,0,191,0, 
1.5367,-140.7,-244.5,-108.6,-71.1,-75.9,-211.5,-96.6,-16.8,-7410.0,-149.4,-114.0,-162.0,-314.7,27.3,-92.4,-461.7,-6.9,-5.7,-202.5,-12.9,-0.9,30.9,-279.3,-182.7,0,2766,0,192,0, 
1.5400,-143.7,-238.8,-96.3,-61.2,-70.5,-199.8,-83.7,-4.5,-74989.2,-134.7,-97.8,-160.5,-284.4,37.2,-93.0,-459.6,-6.9,-5.7,-184.5,-24.9,-0.6,39.3,-279.3,-179.1,0,2772,0,193,0, 
1.5433,32.7,-276.6,-134.7,-79.2,-85.8,-221.1,-110.4,-34.5,-34752.9,-210.9,-150.3,-202.5,-318.9,24.3,-129.3,-502.5,-6.6,-5.7,-234.3,-39.9,-0.3,-33.9,-312.0,-193.5,0,2778,0,194,0, 
1.5467,148.2,-314.7,-173.4,-110.4,-125.7,-247.2,-137.4,-69.9,60762.0,-263.7,-200.7,-256.8,-344.7,7.8,-151.8,-508.8,-6.6,-6.0,-278.1,-107.1,-0.6,-61.8,-326.7,-204.0,0,2784,0,195,0, 
1.5500,48.6,-289.5,-142.2,-96.9,-115.2,-239.7,-130.8,-55.8,78694.2,-219.3,-167.1,-209.7,-331.8,18.0,-133.2,-507.0,-6.9,-5.7,-249.0,-82.8,-0.6,-30.9,-315.6,-198.6,0,2790,0,196,0, 
1.5533,-138.0,-245.1,-95.4,-63.3,-72.0,-203.1,-100.5,-13.8,-5409.3,-155.1,-95.4,-132.9,-297.3,26.1,-97.5,-472.8,-7.2,-5.7,-192.3,-8.1,-0.6,40.5,-279.3,-175.5,0,2796,0,197,0, 
1.5567,-138.9,-227.7,-90.3,-57.9,-63.3,-192.9,-91.2,2.1,-73433.1,-135.6,-90.9,-136.2,-280.5,39.9,-90.3,-481.2,-7.2,-6.3,-182.1,-20.7,-0.6,54.9,-273.9,-171.9,0,2802,0,198,0, 
1.5600,29.4,-273.0,-137.4,-81.0,-82.2,-214.8,-112.5,-30.9,-33196.8,-205.8,-143.1,-192.0,-314.7,16.2,-136.5,-501.6,-7.2,-5.4,-236.7,-50.7,-0.6,-27.3,-310.5,-199.8,0,2808,0,199,0, 
1.5633,143.1,-317.7,-184.8,-118.5,-126.3,-246.9,-136.5,-72.3,62910.9,-264.6,-216.3,-249.3,-347.7,-1.5,-166.2,-512.7,-6.9,-6.0,-303.0,-108.6,-0.3,-59.4,-312.3,-216.9,0,2814,0,200,0, 
1.5667,39.3,-291.0,-151.8,-94.5,-109.8,-236.1,-131.7,-55.8,81658.2,-222.6,-158.1,-198.0,-333.3,6.9,-146.1,-522.6,-7.2,-5.7,-253.2,-73.5,-0.6,-30.9,-328.8,-207.3,0,2820,0,201,0, 
1.5700,-140.4,-242.7,-109.5,-71.7,-79.2,-209.7,-98.7,-18.0,-3630.9,-148.8,-98.4,-159.6,-297.9,27.6,-87.0,-471.3,-6.6,-5.7,-215.4,-32.7,-0.6,43.5,-285.3,-186.0,0,2826,0,202,0, 
1.5733,-142.2,-224.7,-85.8,-47.7,-52.2,-190.8,-87.6,3.3,-72988.5,-136.8,-79.8,-133.8,-295.8,32.7,-94.2,-478.8,-6.3,-5.7,-193.2,-13.5,-0.6,44.4,-288.9,-183.0,0,2832,0,203,0, 
1.5767,33.6,-263.1,-131.4,-75.6,-83.1,-214.2,-108.9,-26.1,-33789.6,-208.5,-143.1,-206.4,-304.2,21.9,-132.6,-492.9,-6.6,-6.3,-246.6,-77.1,-0.3,-17.7,-313.5,-202.2,0,2838,0,204,0, 
1.5800,153.9,-304.8,-169.2,-95.1,-107.1,-237.6,-132.9,-58.5,62392.2,-254.1,-183.3,-241.2,-338.4,6.3,-156.0,-512.7,-7.2,-5.7,-292.2,-94.2,-0.3,-68.7,-322.8,-210.0,0,2844,0,205,0, 
1.5833,51.9,-276.9,-134.7,-79.8,-94.2,-230.7,-126.9,-46.5,81954.6,-215.4,-134.1,-195.6,-318.0,14.7,-133.8,-502.2,-6.6,-5.7,-237.9,-68.1,-0.6,-24.3,-307.8,-201.9,0,2850,0,206,0, 
1.5867,-132.0,-225.9,-78.6,-42.9,-54.9,-198.3,-96.3,-5.1,-3927.3,-126.9,-75.9,-126.9,-281.4,37.8,-85.2,-475.5,-7.2,-5.7,-186.0,-25.5,-1.2,55.5,-279.6,-184.5,0,2856,0,207,0, 
1.5900,-131.1,-206.7,-64.8,-28.2,-35.1,-185.7,-82.2,14.4,-73877.7,-131.7,-72.3,-113.4,-268.5,43.5,-81.6,-464.7,-6.9,-5.7,-182.1,-19.8,-0.6,58.8,-268.2,-181.2,0,2862,0,208,0, 
1.5933,32.4,-251.1,-113.4,-57.0,-58.5,-207.0,-107.4,-22.8,-34086.0,-197.4,-130.5,-187.2,-299.7,26.4,-115.8,-477.0,-6.9,-5.7,-240.6,-52.8,-0.9,-8.4,-303.3,-191.1,0,2868,0,209,0, 
1.5967,159.3,-295.2,-158.1,-93.3,-114.9,-251.1,-136.8,-65.7,63726.0,-259.5,-183.6,-250.2,-333.6,13.2,-134.7,-483.3,-6.9,-5.7,-292.2,-112.2,-0.9,-75.6,-317.7,-215.7,0,2874,0,210,0, 
1.6000,56.1,-275.1,-127.8,-69.9,-98.7,-234.9,-132.0,-48.0,83733.0,-203.7,-139.2,-199.8,-315.3,16.2,-124.8,-502.5,-7.2,-5.7,-252.3,-82.5,-0.6,-11.7,-311.4,-198.6,0,2880,0,211,0, 
1.6033,-129.9,-218.7,-67.5,-36.9,-55.8,-201.0,-102.0,-0.9,-1926.6,-137.1,-65.4,-124.8,-276.9,25.5,-96.3,-474.6,-6.6,-5.7,-181.2,-24.6,-0.6,53.7,-279.0,-183.9,0,2886,0,212,0, 
1.6067,-137.4,-200.4,-55.8,-19.2,-38.1,-183.9,-93.0,16.5,-73062.6,-125.1,-55.2,-106.5,-271.5,38.1,-96.6,-486.3,-6.6,-6.0,-183.9,-21.9,-0.9,63.9,-282.0,-177.9,0,2892,0,213,0, 
1.6100,41.1,-245.4,-103.5,-52.8,-60.3,-211.5,-116.4,-20.4,-33122.7,-207.9,-129.3,-177.0,-299.4,24.0,-131.4,-500.7,-7.2,-5.4,-248.1,-48.3,-0.6,-35.7,-310.8,-198.3,0,2898,0,214,0, 
1.6133,167.4,-292.8,-149.7,-86.1,-102.9,-241.2,-142.5,-59.7,66097.2,-242.7,-179.7,-252.3,-324.0,5.7,-160.2,-519.6,-6.3,-5.4,-293.1,-108.6,-0.6,-44.1,-333.6,-201.6,0,2904,0,215,0, 
1.6167,61.8,-278.4,-127.5,-80.7,-96.9,-239.7,-135.0,-51.0,86252.4,-218.4,-149.1,-196.5,-312.9,19.8,-128.7,-502.8,-6.9,-5.7,-266.4,-96.3,-0.6,-20.4,-313.5,-201.0,0,2910,0,216,0, 
1.6200,-127.8,-221.1,-63.0,-35.1,-48.3,-203.4,-100.2,-3.9,592.8,-134.7,-60.6,-103.2,-276.9,35.1,-89.1,-480.0,-6.9,-5.4,-186.0,-9.6,-0.3,50.7,-287.4,-183.6,0,2916,0,217,0, 
1.6233,-137.4,-209.1,-57.6,-24.9,-27.6,-181.8,-87.6,12.0,-70617.3,-131.1,-62.4,-104.1,-268.5,45.3,-86.7,-475.2,-6.9,-6.0,-187.5,-8.4,0.0,57.9,-282.6,-175.5,0,2922,0,218,0, 
1.6267,38.4,-251.4,-106.2,-57.3,-70.5,-216.9,-110.7,-23.7,-30529.2,-200.4,-123.3,-183.9,-294.6,22.8,-132.9,-492.6,-6.9,-6.0,-244.5,-66.6,-1.2,-7.5,-300.0,-191.1,0,2928,0,219,0, 
1.6300,152.1,-303.6,-153.9,-92.1,-108.0,-246.3,-137.4,-63.6,69283.5,-274.2,-188.4,-237.3,-343.2,-9.0,-174.9,-503.1,-6.9,-6.0,-303.6,-101.4,-0.6,-70.5,-318.6,-209.4,0,2934,0,220,0, 
1.6333,51.0,-282.0,-127.2,-74.1,-94.8,-237.9,-130.2,-53.1,91217.1,-212.4,-146.4,-195.6,-315.9,4.5,-148.5,-509.1,-6.6,-6.0,-261.9,-87.3,-0.6,-38.4,-304.2,-208.8,0,2940,0,221,0, 
1.6367,-135.0,-230.7,-72.6,-41.4,-56.4,-201.9,-95.1,-7.5,4594.2,-148.5,-73.8,-127.5,-290.7,32.4,-95.1,-484.2,-6.6,-5.7,-203.1,-20.1,-0.3,42.9,-277.5,-183.0,0,2946,0,222,0, 
1.6400,-145.5,-212.7,-62.4,-33.9,-49.2,-194.7,-87.9,1.8,-68764.8,-133.5,-66.6,-123.0,-283.2,39.9,-90.3,-481.2,-7.2,-5.7,-195.9,-36.0,-0.9,45.0,-276.3,-182.4,0,2952,0,223,0, 
1.6433,33.0,-256.8,-111.6,-63.0,-76.5,-219.0,-110.7,-31.2,-29343.6,-217.8,-132.0,-187.8,-309.9,21.6,-135.9,-501.6,-6.9,-6.0,-257.1,-75.6,-0.9,-22.5,-300.0,-196.2,0,2958,0,224,0, 
1.6467,152.7,-312.9,-171.9,-108.3,-123.3,-255.6,-141.0,-84.0,70987.8,-269.7,-199.5,-255.9,-342.9,3.3,-143.1,-492.6,-7.2,-6.0,-316.5,-127.8,-0.6,-84.0,-311.1,-222.6,0,2964,0,225,0, 
1.6500,43.2,-291.3,-140.4,-88.2,-110.1,-246.0,-134.1,-66.9,92921.4,-220.8,-153.0,-207.6,-324.6,3.9,-153.3,-503.4,-6.9,-6.0,-276.0,-102.0,-0.3,-42.9,-303.0,-213.0,0,2970,0,226,0, 
1.6533,-139.2,-223.8,-74.1,-44.1,-62.1,-205.2,-100.2,-14.1,4223.7,-133.8,-74.1,-130.5,-278.7,33.9,-104.1,-488.4,-6.6,-5.7,-201.3,-42.3,-0.9,52.8,-281.1,-183.9,0,2976,0,227,0, 
1.6567,-149.4,-213.0,-62.1,-27.9,-35.4,-189.0,-89.7,1.5,-69802.2,-126.6,-63.3,-107.7,-269.4,41.1,-102.0,-489.0,-6.9,-6.0,-194.1,-19.5,-0.6,54.3,-284.4,-179.1,0,2982,0,228,0, 
1.6600,25.5,-257.1,-111.9,-58.8,-66.6,-216.9,-116.4,-34.8,-30529.2,-214.5,-127.8,-178.8,-300.6,25.5,-142.2,-504.0,-6.9,-5.7,-254.1,-72.3,-0.9,-18.3,-315.9,-204.3,0,2988,0,229,0, 
1.6633,146.7,-301.8,-157.2,-90.9,-106.2,-249.6,-145.2,-75.3,69431.7,-259.2,-186.6,-225.6,-330.3,4.5,-181.2,-516.3,-6.9,-6.0,-306.6,-105.9,-0.6,-72.6,-329.1,-227.4,0,2994,0,230,0, 
1.6667,40.2,-278.7,-127.8,-73.8,-90.6,-243.9,-135.6,-58.5,90476.1,-220.8,-138.3,-194.7,-314.1,7.5,-153.3,-508.2,-7.2,-6.0,-269.4,-68.7,-0.9,-44.1,-316.5,-213.0,0,3000,0,231,0, 
1.6700,-145.2,-225.0,-75.3,-42.0,-52.5,-210.0,-102.0,-14.7,741.0,-134.7,-68.4,-127.8,-275.4,34.2,-100.5,-477.3,-7.2,-6.0,-193.8,-34.5,-0.9,50.7,-280.8,-179.1,0,3006,0,232,0, 
1.6733,-157.8,-220.5,-72.0,-32.1,-36.0,-196.8,-95.4,-1.8,-74989.2,-132.9,-63.9,-119.1,-268.2,34.2,-102.3,-487.2,-6.3,-5.4,-194.7,-24.9,-0.6,42.0,-291.0,-186.6,0,3012,0,233,0, 
1.6767,24.3,-258.0,-120.0,-71.1,-83.1,-229.5,-120.9,-39.3,-36753.6,-218.4,-142.5,-197.7,-304.5,21.9,-123.9,-487.5,-7.2,-6.0,-261.3,-108.0,-0.6,-40.8,-311.4,-208.5,0,3018,0,234,0, 
1.6800,155.4,-298.5,-153.6,-100.2,-126.6,-264.0,-147.9,-78.0,63651.9,-264.3,-185.4,-253.8,-325.5,-0.6,-167.4,-511.5,-6.9,-6.0,-303.9,-136.8,-0.9,-82.2,-332.1,-225.6,0,3024,0,235,0, 
1.6833,46.8,-284.4,-130.8,-75.0,-91.5,-244.5,-134.4,-54.6,85140.9,-213.3,-131.7,-183.0,-324.6,1.2,-151.5,-503.4,-6.6,-5.7,-262.5,-76.2,-0.6,-46.5,-303.6,-210.0,0,3030,0,236,0, 
1.6867,-142.8,-226.5,-65.7,-33.6,-45.6,-206.4,-102.9,-10.2,-5779.8,-144.0,-57.0,-98.1,-282.3,26.7,-92.1,-484.5,-6.9,-5.7,-189.3,-2.1,-0.6,36.0,-290.1,-194.7,0,3036,0,237,0, 
1.6900,-152.7,-210.6,-63.6,-27.9,-42.6,-196.5,-87.9,3.6,-82917.9,-123.9,-57.3,-116.4,-268.2,28.2,-103.5,-480.0,-6.6,-5.4,-183.9,-43.5,-0.6,60.6,-275.7,-184.8,0,3042,0,238,0, 
1.6933,24.3,-259.8,-118.2,-66.0,-80.1,-230.4,-117.6,-37.8,-45052.8,-204.3,-132.6,-206.7,-303.9,4.5,-140.1,-490.8,-6.9,-6.3,-243.3,-104.7,-0.9,-15.3,-313.5,-210.3,0,3048,0,239,0, 
1.6967,157.5,-303.3,-157.5,-89.7,-104.4,-254.4,-144.6,-70.8,56167.8,-266.4,-186.6,-239.4,-332.1,-11.4,-169.8,-510.0,-6.9,-6.0,-295.8,-120.0,-0.9,-85.8,-334.2,-224.7,0,3054,0,240,0, 
1.7000,51.6,-283.8,-136.8,-82.8,-101.4,-250.8,-140.4,-61.5,78101.4,-223.8,-158.4,-211.5,-323.1,-5.1,-149.1,-504.3,-6.9,-6.0,-269.1,-104.4,-0.9,-45.6,-329.7,-220.8,0,3060,0,241,0, 
1.7033,-147.0,-228.3,-81.0,-48.0,-67.2,-214.8,-105.3,-16.2,-12597.0,-134.1,-96.3,-138.6,-282.0,20.4,-91.8,-478.5,-6.9,-5.7,-208.8,-63.3,-0.6,29.4,-291.0,-200.1,0,3066,0,242,0, 
1.7067,-157.2,-210.9,-61.5,-35.1,-43.2,-197.1,-93.0,3.6,-90179.7,-134.1,-68.1,-127.2,-275.7,28.8,-85.2,-477.6,-6.9,-5.4,-173.1,-51.9,-0.9,54.0,-288.0,-186.3,0,3072,0,243,0, 
1.7100,30.0,-251.7,-106.5,-60.6,-73.2,-221.7,-120.3,-29.7,-52462.8,-185.7,-116.7,-186.9,-288.3,16.8,-129.9,-495.9,-7.2,-6.3,-207.9,-96.6,-0.6,-18.6,-309.3,-199.5,0,3078,0,244,0, 
1.7133,161.1,-298.8,-151.2,-88.8,-110.4,-255.6,-150.3,-66.6,50165.7,-253.5,-176.7,-243.6,-322.8,2.1,-171.0,-523.5,-6.6,-6.0,-248.1,-140.1,-0.3,-72.9,-340.5,-215.7,0,3084,0,245,0, 
1.7167,46.2,-287.7,-128.7,-81.9,-101.1,-246.0,-140.1,-58.5,73581.3,-207.3,-145.2,-212.4,-316.8,2.1,-146.4,-500.4,-7.2,-6.0,-227.1,-116.1,-0.9,-36.0,-313.8,-209.1,0,3090,0,246,0, 
1.7200,-152.1,-231.9,-74.1,-41.7,-53.1,-211.5,-102.9,-13.8,-17413.5,-144.0,-69.0,-122.4,-284.1,18.0,-100.5,-475.2,-6.6,-6.0,-176.4,-45.3,-0.9,40.2,-284.1,-177.9,0,3096,0,247,0, 
1.7233,-163.8,-206.1,-53.4,-23.4,-39.6,-197.1,-91.8,5.7,-95811.3,-119.4,-53.1,-104.4,-264.0,31.5,-96.9,-472.5,-7.5,-6.0,-138.0,-28.5,-0.9,62.4,-277.5,-164.4,0,3102,0,248,0, 
1.7267,27.0,-253.8,-108.6,-56.4,-65.1,-219.3,-117.6,-28.8,-57723.9,-205.2,-124.8,-173.7,-296.7,21.0,-131.4,-488.4,-6.9,-6.0,-213.9,-82.2,-1.2,-30.0,-307.5,-184.2,0,3108,0,249,0, 
1.7300,157.2,-299.7,-149.1,-85.2,-103.2,-251.7,-149.4,-70.8,46016.1,-250.5,-172.5,-220.5,-326.1,-3.3,-169.2,-509.7,-7.2,-5.7,-241.5,-97.2,-0.3,-84.6,-323.1,-201.6,0,3114,0,250,0, 
1.7333,48.3,-285.9,-126.9,-81.3,-101.1,-245.7,-138.3,-59.4,70913.7,-200.1,-136.5,-200.7,-315.0,7.5,-146.1,-495.9,-6.9,-6.0,-216.9,-123.3,-0.9,-33.9,-306.9,-195.6,0,3120,0,251,0, 
1.7367,-143.7,-226.5,-63.9,-39.9,-47.1,-201.3,-102.3,-9.9,-20007.0,-118.5,-70.2,-122.4,-268.5,38.7,-95.4,-476.1,-6.9,-6.0,-141.0,-44.1,-0.3,64.8,-280.2,-170.7,0,3126,0,252,0, 
1.7400,-158.4,-206.1,-51.9,-23.1,-31.5,-189.6,-86.4,8.4,-97663.8,-115.2,-61.8,-104.7,-253.5,43.8,-84.9,-461.7,-7.2,-5.7,-132.3,-32.1,-0.9,63.3,-272.1,-170.1,0,3132,0,253,0, 
1.7433,33.3,-246.9,-97.8,-58.2,-69.6,-220.8,-115.2,-24.6,-58983.6,-192.6,-133.8,-187.8,-292.8,27.6,-124.8,-480.0,-7.2,-5.7,-198.0,-95.4,-0.6,-14.4,-300.0,-192.9,0,3138,0,254,0, 
1.7467,164.7,-295.5,-142.8,-86.4,-96.9,-247.5,-142.8,-64.5,46831.2,-249.0,-183.6,-240.6,-318.0,7.5,-160.2,-503.1,-6.9,-5.7,-243.6,-117.9,-0.9,-67.2,-324.6,-207.6,0,3144,0,255,0, 
1.7500,55.5,-283.2,-126.3,-80.4,-88.2,-244.8,-136.2,-57.9,72543.9,-198.3,-140.4,-204.6,-308.7,13.5,-137.4,-491.1,-6.6,-5.7,-200.4,-94.5,-0.9,-29.4,-305.1,-212.4,0,3150,0,0,0, 
1.7533,-140.7,-218.1,-52.8,-36.0,-41.1,-209.7,-105.9,-12.9,-18006.3,-133.2,-64.2,-115.8,-274.8,29.7,-93.6,-479.7,-7.5,-5.7,-117.3,-37.2,-0.6,51.6,-280.5,-196.2,0,3156,0,1,0, 
1.7567,-163.5,-206.7,-44.7,-20.4,-16.8,-192.0,-94.8,5.1,-96626.4,-135.6,-45.9,-98.4,-270.9,35.1,-89.7,-479.7,-6.9,-6.0,-107.1,-9.0,-0.9,40.8,-277.2,-177.3,0,3162,0,2,0, 
1.7600,27.0,-261.6,-116.1,-67.2,-65.4,-225.0,-120.0,-37.8,-57205.2,-202.5,-137.1,-189.3,-304.5,21.0,-120.6,-484.5,-6.9,-6.3,-194.7,-95.4,-0.6,-23.4,-300.3,-190.5,0,3168,0,3,0, 
1.7633,170.7,-294.6,-149.1,-95.4,-101.7,-254.7,-149.4,-75.3,49869.3,-247.5,-187.2,-243.0,-327.6,5.7,-162.3,-507.6,-6.9,-6.0,-234.0,-137.7,-0.9,-65.7,-318.0,-204.9,0,3174,0,4,0, 
1.7667,61.2,-287.4,-130.2,-86.4,-92.4,-246.9,-140.1,-64.2,75804.3,-213.9,-148.2,-203.1,-322.5,7.5,-136.5,-498.0,-7.2,-6.3,-205.8,-103.5,-0.6,-27.9,-302.4,-196.8,0,3180,0,5,0, 
1.7700,-138.9,-226.2,-64.8,-42.3,-36.9,-207.9,-106.2,-11.1,-14968.2,-132.0,-63.3,-105.9,-273.3,33.9,-94.8,-486.0,-6.6,-5.4,-130.5,-14.7,-0.9,34.5,-281.7,-177.3,0,3186,0,6,0, 
1.7733,-152.4,-205.5,-53.4,-37.5,-33.6,-198.0,-92.1,3.0,-94403.4,-123.9,-64.8,-111.9,-262.8,38.1,-84.0,-459.0,-6.6,-5.7,-114.6,-55.2,-0.6,64.2,-264.9,-168.0,0,3192,0,7,0, 
1.7767,36.0,-255.9,-105.0,-60.6,-52.2,-217.2,-117.6,-32.1,-54463.5,-198.0,-128.4,-171.0,-300.6,21.3,-130.2,-488.4,-6.9,-6.0,-178.8,-77.7,-0.6,-25.5,-294.3,-186.9,0,3198,0,8,0, 
1.7800,167.7,-306.6,-152.7,-102.0,-102.3,-257.4,-154.5,-77.4,53352.0,-269.1,-185.1,-248.4,-330.3,-4.2,-159.9,-502.2,-6.6,-6.3,-227.1,-139.8,-0.6,-78.0,-321.0,-208.2,0,3204,0,9,0, 
1.7833,62.1,-289.5,-138.9,-98.4,-95.7,-251.4,-144.6,-67.8,80028.0,-211.8,-165.3,-202.8,-325.2,-0.6,-142.2,-494.1,-6.9,-5.7,-208.8,-101.4,-0.9,-34.8,-303.3,-198.6,0,3210,0,10,0, 
1.7867,-147.9,-232.8,-69.0,-51.3,-46.8,-212.4,-108.9,-18.9,-11633.7,-129.9,-69.3,-103.8,-290.1,18.0,-95.7,-486.9,-6.6,-5.7,-125.4,-33.6,-0.6,43.8,-277.8,-177.6,0,3216,0,11,0, 
1.7900,-162.0,-216.3,-66.9,-51.9,-47.1,-201.3,-96.6,-7.8,-92032.2,-123.6,-78.6,-132.9,-269.4,30.6,-79.2,-469.5,-7.2,-5.4,-126.0,-41.7,-0.6,59.7,-279.0,-180.0,0,3222,0,12,0, 
1.7933,33.0,-262.8,-122.4,-83.1,-80.1,-225.6,-123.3,-40.2,-53574.3,-193.5,-156.6,-201.6,-306.6,8.7,-128.1,-493.8,-7.2,-6.3,-200.4,-98.1,-0.3,-26.7,-306.6,-192.9,0,3228,0,13,0, 
1.7967,178.5,-315.0,-177.3,-121.2,-129.9,-268.8,-150.3,-87.0,55130.4,-260.4,-218.4,-270.9,-344.7,-13.5,-159.9,-507.6,-6.6,-5.7,-255.3,-159.9,-0.6,-86.1,-322.8,-220.5,0,3234,0,14,0, 
1.8000,74.1,-290.7,-147.9,-109.5,-116.4,-262.2,-141.6,-72.9,82176.9,-220.8,-177.3,-229.5,-331.8,-9.9,-141.9,-486.6,-6.6,-6.3,-212.7,-120.3,-0.3,-39.9,-316.5,-222.6,0,3240,0,15,0, 
1.8033,-128.4,-231.9,-83.1,-61.2,-65.4,-217.8,-104.7,-18.0,-10299.9,-127.8,-85.2,-135.3,-290.4,17.7,-90.6,-482.4,-6.3,-6.0,-132.6,-45.6,-0.6,38.1,-282.6,-192.6,0,3246,0,16,0, 
1.8067,-137.1,-203.4,-62.4,-50.7,-53.7,-200.4,-88.2,5.7,-91661.7,-126.0,-71.7,-139.5,-275.4,27.0,-86.4,-480.3,-6.6,-6.0,-112.8,-74.4,-0.6,63.6,-271.2,-185.4,0,3252,0,17,0, 
1.8100,39.0,-258.3,-124.5,-85.2,-78.0,-223.2,-109.8,-36.0,-52833.3,-201.3,-160.5,-204.9,-315.6,11.7,-118.8,-481.8,-6.9,-5.7,-199.8,-93.0,-0.6,-29.4,-295.2,-197.4,0,3258,0,18,0, 
1.8133,179.1,-299.4,-159.9,-113.4,-114.9,-256.8,-144.9,-73.8,55797.3,-276.3,-209.1,-253.5,-353.1,-17.4,-165.3,-517.5,-6.9,-5.7,-250.5,-144.6,-0.6,-101.4,-327.3,-229.2,0,3264,0,19,0, 
1.8167,67.2,-285.0,-138.0,-107.7,-122.4,-263.1,-141.9,-66.9,83510.7,-222.0,-172.2,-231.3,-333.3,-7.2,-143.4,-504.6,-6.6,-5.7,-204.6,-149.1,-0.6,-46.5,-313.2,-228.0,0,3270,0,20,0, 
1.8200,-142.5,-230.4,-76.8,-57.9,-55.8,-210.9,-104.7,-16.8,-9336.6,-129.9,-82.8,-138.3,-294.9,17.1,-92.4,-476.7,-7.2,-5.4,-133.5,-55.8,-1.2,30.9,-287.7,-190.5,0,3276,0,21,0, 
1.8233,-152.4,-208.2,-61.5,-43.8,-49.5,-198.3,-85.5,2.4,-92476.8,-119.4,-67.5,-141.0,-273.6,29.1,-81.3,-473.7,-7.2,-6.0,-114.9,-75.9,-0.9,55.8,-279.9,-190.8,0,3282,0,22,0, 
1.8267,38.4,-258.0,-116.1,-77.1,-75.9,-219.3,-115.5,-36.6,-54018.9,-202.2,-154.2,-209.7,-313.8,3.3,-125.4,-492.0,-6.6,-6.0,-190.5,-112.2,-0.9,-25.5,-308.7,-207.3,0,3288,0,23,0, 
1.8300,174.0,-309.6,-168.0,-114.0,-117.0,-255.6,-150.9,-80.4,55797.3,-265.5,-212.4,-263.1,-342.9,-19.5,-168.6,-516.6,-7.2,-5.4,-246.3,-153.3,-0.9,-89.1,-332.4,-230.4,0,3294,0,24,0, 
1.8333,66.3,-292.5,-140.4,-97.5,-102.9,-249.0,-144.9,-67.8,83362.5,-223.8,-169.8,-211.5,-338.7,-17.4,-145.8,-513.3,-6.6,-5.7,-207.9,-116.7,-0.6,-52.2,-324.6,-222.9,0,3300,0,25,0, 
1.8367,-137.7,-229.2,-73.8,-49.8,-53.7,-213.0,-105.9,-13.8,-10596.3,-133.8,-80.7,-124.8,-292.2,14.4,-92.4,-489.0,-7.2,-6.0,-124.5,-57.9,-0.9,51.0,-291.9,-195.0,0,3306,0,26,0, 
1.8400,-156.9,-213.6,-58.5,-32.4,-31.2,-193.8,-91.5,2.7,-94181.1,-135.0,-64.5,-102.6,-282.6,17.7,-92.7,-470.7,-6.9,-5.7,-109.5,-39.9,-0.6,39.3,-284.4,-190.5,0,3312,0,27,0, 
1.8433,39.3,-256.2,-116.1,-71.7,-79.2,-225.3,-118.8,-35.4,-55500.9,-191.1,-145.2,-207.3,-304.5,10.5,-130.8,-502.8,-6.9,-5.7,-180.3,-126.6,-0.9,-8.4,-309.6,-205.2,0,3318,0,28,0, 
1.8467,181.2,-304.2,-159.0,-101.1,-111.6,-255.6,-150.3,-74.7,54537.6,-263.4,-202.8,-259.5,-341.7,-15.3,-169.5,-518.7,-6.3,-5.7,-226.5,-151.8,-0.9,-85.5,-336.0,-217.2,0,3324,0,29,0, 
1.8500,78.0,-285.9,-134.7,-91.2,-108.6,-252.9,-142.5,-66.3,83214.3,-223.2,-166.5,-217.8,-329.1,-8.1,-148.2,-509.7,-6.9,-6.0,-196.2,-130.8,-0.6,-43.5,-325.2,-210.6,0,3330,0,30,0, 
1.8533,-126.6,-219.3,-57.6,-39.3,-46.8,-205.8,-98.7,-11.4,-11707.8,-142.2,-72.3,-117.6,-287.4,18.3,-88.8,-477.9,-7.2,-6.3,-104.1,-39.9,-0.9,52.2,-278.1,-183.0,0,3336,0,31,0, 
1.8567,-147.6,-205.2,-56.1,-31.5,-36.0,-194.4,-86.7,4.8,-96107.7,-126.3,-69.6,-113.7,-282.6,23.7,-87.9,-477.6,-7.2,-6.3,-108.3,-53.7,-0.9,61.5,-285.6,-185.4,0,3342,0,32,0, 
1.8600,37.2,-256.5,-113.1,-65.7,-70.8,-223.8,-113.1,-34.5,-57575.7,-199.8,-147.0,-192.6,-309.0,5.1,-129.0,-496.8,-7.2,-6.0,-166.2,-104.1,-0.6,-6.3,-311.7,-189.0,0,3348,0,33,0, 
1.8633,185.4,-306.0,-165.3,-100.8,-105.6,-255.6,-143.1,-78.6,53944.8,-259.2,-207.9,-257.7,-340.8,-17.4,-170.1,-514.8,-6.9,-6.0,-226.5,-142.8,-0.9,-84.3,-328.8,-203.4,0,3354,0,34,0, 
1.8667,79.8,-297.0,-140.1,-93.9,-108.6,-257.7,-138.3,-70.8,82473.3,-220.2,-170.7,-212.7,-338.7,-13.5,-142.2,-504.0,-6.9,-5.7,-191.1,-120.6,-0.9,-28.2,-316.5,-197.7,0,3360,0,35,0, 
1.8700,-136.8,-231.3,-69.9,-48.3,-56.7,-217.8,-102.0,-15.9,-12522.9,-145.8,-84.9,-115.2,-296.1,5.1,-100.8,-485.1,-6.6,-5.7,-120.0,-56.1,-0.9,52.2,-292.8,-179.7,0,3366,0,36,0, 
1.8733,-146.4,-210.9,-52.5,-30.6,-24.0,-193.2,-86.7,3.9,-97441.5,-113.7,-61.8,-106.8,-277.2,18.3,-93.0,-495.9,-6.9,-6.0,-96.0,-32.1,-0.6,67.2,-293.7,-169.2,0,3372,0,37,0, 
1.8767,45.0,-257.1,-111.9,-69.0,-74.4,-226.2,-111.6,-37.8,-58835.4,-196.8,-140.4,-179.7,-306.3,2.7,-130.5,-499.5,-6.9,-5.7,-163.5,-91.8,-0.6,-6.3,-315.6,-192.9,0,3378,0,38,0, 
1.8800,182.4,-320.4,-165.9,-110.4,-116.4,-266.4,-141.9,-85.2,53352.0,-264.9,-216.9,-255.3,-348.3,-21.9,-170.7,-502.5,-7.2,-6.0,-229.8,-158.7,-0.6,-66.9,-329.1,-208.2,0,3384,0,39,0, 
1.8833,78.0,-294.9,-137.7,-89.7,-98.1,-252.6,-136.2,-68.1,83214.3,-217.5,-166.2,-200.4,-336.9,-15.3,-147.3,-520.5,-6.6,-5.4,-192.3,-90.9,-0.6,-36.9,-319.5,-199.8,0,3390,0,40,0, 
1.8867,-132.3,-230.7,-68.1,-47.7,-59.4,-212.7,-97.2,-14.7,-11707.8,-123.6,-78.0,-126.6,-286.5,9.3,-99.9,-479.4,-6.9,-5.7,-108.0,-63.0,-0.9,69.9,-280.5,-172.5,0,3396,0,41,0, 
1.8900,-146.7,-206.7,-50.1,-35.1,-37.8,-198.0,-82.8,4.5,-97589.7,-117.9,-63.6,-109.8,-275.4,24.6,-85.2,-477.0,-6.9,-5.7,-92.7,-43.8,-0.6,76.8,-278.4,-169.8,0,3402,0,42,0, 
1.8933,47.4,-258.3,-106.5,-61.5,-60.3,-220.2,-107.7,-30.0,-59205.9,-183.9,-132.6,-170.4,-308.4,2.7,-131.1,-503.1,-6.3,-5.7,-147.6,-86.4,-0.9,6.0,-304.8,-181.2,0,3408,0,43,0, 
1.8967,197.7,-305.7,-156.9,-100.2,-106.8,-253.8,-137.7,-75.6,53277.9,-241.2,-195.6,-250.5,-334.2,-14.7,-167.4,-511.8,-6.9,-6.0,-205.5,-129.3,-0.9,-54.0,-321.0,-198.9,0,3414,0,44,0, 
1.9000,84.9,-289.5,-130.5,-88.8,-102.6,-251.4,-132.0,-68.7,82695.6,-216.0,-168.6,-222.9,-327.3,-9.6,-132.0,-487.8,-6.9,-6.0,-174.3,-113.4,-0.6,-27.3,-305.7,-201.3,0,3420,0,45,0, 
1.9033,-133.8,-226.8,-63.6,-44.7,-47.1,-204.9,-97.2,-12.9,-13338.0,-123.9,-74.7,-116.7,-286.8,14.7,-85.5,-475.8,-6.9,-5.7,-104.7,-45.6,-0.9,48.9,-286.2,-178.2,0,3426,0,46,0, 
1.9067,-146.7,-199.2,-42.0,-24.0,-16.5,-180.9,-77.7,12.3,-99738.6,-102.9,-51.6,-91.8,-255.3,30.6,-84.0,-483.9,-6.9,-5.7,-83.4,-24.9,-0.6,83.4,-283.2,-160.8,0,3432,0,47,0, 
1.9100,52.2,-247.5,-99.0,-58.8,-61.8,-211.8,-104.4,-23.7,-60910.2,-176.7,-135.6,-179.4,-298.8,19.5,-114.3,-487.5,-6.9,-6.0,-148.5,-93.0,-0.6,17.4,-303.6,-177.9,0,3438,0,48,0, 
1.9133,197.7,-292.8,-138.3,-86.4,-93.6,-243.3,-139.2,-66.3,52536.9,-249.3,-187.8,-236.4,-328.5,-9.9,-157.5,-501.9,-7.2,-5.7,-197.1,-117.3,-0.6,-60.0,-326.7,-197.1,0,3444,0,49,0, 
1.9167,89.4,-279.3,-123.6,-78.6,-90.3,-239.7,-131.7,-56.4,82843.8,-205.2,-156.3,-201.9,-326.1,-8.7,-134.1,-493.5,-6.6,-6.0,-172.2,-102.9,-0.9,-25.2,-306.0,-193.5,0,3450,0,50,0, 
1.9200,-122.7,-210.6,-44.1,-26.7,-31.5,-197.1,-96.3,0.3,-12893.4,-117.6,-53.4,-102.6,-268.5,17.1,-93.3,-486.0,-6.6,-5.7,-80.7,-39.9,-0.9,60.0,-280.2,-171.0,0,3456,0,51,0, 
1.9233,-145.8,-197.7,-39.6,-13.2,-10.8,-177.3,-84.0,19.2,-99960.9,-100.8,-53.7,-92.1,-251.1,31.2,-72.9,-469.5,-6.9,-6.0,-78.3,-13.5,-0.9,80.4,-271.5,-159.3,0,3462,0,52,0, 
1.9267,53.4,-244.8,-102.6,-59.7,-62.7,-212.7,-110.7,-24.9,-61354.8,-172.8,-139.2,-178.5,-286.5,19.2,-114.0,-488.1,-6.9,-5.7,-152.1,-94.8,-0.6,7.8,-294.9,-184.5,0,3468,0,53,0, 
1.9300,204.6,-300.9,-155.7,-102.9,-112.2,-261.3,-148.5,-78.9,52833.3,-240.0,-200.1,-254.7,-328.5,-4.8,-147.0,-495.0,-6.9,-5.4,-202.2,-155.1,-0.9,-62.4,-324.9,-210.3,0,3474,0,54,0, 
1.9333,102.0,-277.5,-124.2,-83.4,-94.8,-254.4,-141.0,-62.7,83881.2,-207.0,-149.4,-203.7,-315.9,-3.0,-136.5,-500.7,-6.6,-5.7,-154.8,-103.5,-0.6,-20.7,-319.8,-201.3,0,3480,0,55,0, 
1.9367,-115.8,-207.9,-52.8,-38.7,-37.8,-213.9,-103.8,-8.1,-12448.8,-116.4,-78.0,-120.6,-270.6,30.0,-81.0,-477.3,-7.2,-6.0,-85.2,-22.5,-0.9,71.7,-285.0,-179.1,0,3486,0,56,0, 
1.9400,-138.9,-194.4,-44.7,-28.8,-25.2,-193.5,-85.5,10.5,-100850.1,-99.3,-57.6,-110.4,-261.6,37.8,-68.4,-466.2,-6.3,-6.0,-74.7,-37.8,-0.6,80.7,-275.1,-174.3,0,3492,0,57,0, 
1.9433,50.4,-236.4,-90.6,-54.3,-54.9,-218.4,-112.5,-23.4,-62095.8,-192.9,-128.4,-171.6,-290.7,8.7,-131.1,-490.5,-7.2,-6.0,-138.0,-85.8,-0.6,-8.1,-311.1,-193.2,0,3498,0,58,0, 
1.9467,207.3,-290.4,-142.2,-92.1,-99.9,-252.9,-145.5,-68.7,52833.3,-256.8,-201.3,-240.3,-329.7,-13.8,-165.9,-522.6,-6.9,-5.7,-201.3,-141.0,-0.3,-64.8,-340.2,-212.4,0,3504,0,59,0, 
1.9500,96.9,-278.7,-128.4,-85.8,-85.2,-242.4,-136.8,-59.4,83881.2,-202.2,-167.7,-204.6,-318.9,-3.6,-140.1,-500.4,-6.6,-6.3,-178.5,-84.9,-0.3,-36.3,-311.1,-197.7,0,3510,0,60,0, 
1.9533,-121.2,-217.5,-59.7,-46.5,-49.5,-210.6,-104.4,-12.0,-12967.5,-114.0,-75.6,-123.6,-277.5,22.8,-78.0,-474.0,-6.9,-6.0,-91.5,-55.8,-0.3,64.5,-284.4,-192.0,0,3516,0,61,0, 
1.9567,-135.3,-195.3,-44.1,-29.4,-25.5,-188.4,-86.7,9.3,-101517.0,-111.0,-65.1,-99.6,-263.1,41.4,-55.8,-458.7,-6.9,-5.7,-78.3,-39.9,-0.9,64.8,-280.2,-189.0,0,3522,0,62,0, 
1.9600,58.8,-236.1,-87.3,-49.5,-45.0,-203.1,-104.7,-20.1,-63207.3,-184.8,-123.9,-163.2,-295.5,3.6,-139.2,-485.1,-7.2,-6.0,-134.7,-72.3,-0.6,8.4,-290.1,-180.6,0,3528,0,63,0, 
1.9633,215.1,-292.2,-143.7,-87.6,-91.8,-243.6,-143.7,-68.1,52240.5,-254.4,-182.1,-225.6,-331.8,-9.3,-167.4,-514.2,-6.3,-5.4,-192.6,-125.7,-0.6,-69.9,-338.7,-194.4,0,3534,0,64,0, 
1.9667,94.2,-292.5,-136.5,-90.3,-97.8,-251.4,-136.8,-69.3,84548.1,-213.0,-166.2,-203.4,-329.4,-8.7,-136.5,-486.3,-7.2,-6.0,-176.4,-97.8,-0.9,-20.1,-316.2,-194.7,0,3540,0,65,0, 
1.9700,-117.9,-216.0,-56.7,-39.9,-39.3,-203.1,-97.8,-10.2,-12300.6,-107.7,-63.3,-107.4,-273.9,21.0,-87.3,-465.9,-6.9,-5.7,-87.9,-38.7,-1.2,65.1,-288.3,-174.9,0,3546,0,66,0, 
1.9733,-142.5,-196.5,-44.1,-25.8,-21.9,-186.6,-80.7,11.4,-101739.3,-93.0,-57.0,-106.5,-261.0,34.5,-80.7,-470.7,-6.9,-5.7,-80.4,-41.7,-1.2,80.7,-279.0,-165.3,0,3552,0,67,0, 
1.9767,52.8,-243.3,-100.2,-61.8,-58.5,-210.3,-107.1,-25.8,-63429.6,-177.9,-140.1,-184.2,-286.2,17.7,-116.1,-489.0,-6.3,-6.0,-153.3,-96.0,-0.6,-12.3,-301.5,-183.6,0,3558,0,68,0, 
1.9800,208.5,-308.4,-159.0,-101.1,-105.0,-249.6,-143.7,-77.4,52981.5,-261.6,-207.3,-242.7,-343.2,-10.5,-155.4,-513.9,-6.9,-6.0,-217.5,-139.8,-0.3,-83.4,-337.8,-208.5,0,3564,0,69,0, 
1.9833,98.4,-279.6,-126.3,-86.1,-96.0,-237.6,-140.1,-60.6,85511.4,-206.4,-165.0,-205.2,-324.0,-4.2,-138.6,-507.9,-6.6,-6.0,-181.5,-128.7,-1.2,-34.2,-328.2,-197.7,0,3570,0,70,0, 
1.9867,-125.1,-223.2,-63.9,-43.5,-53.4,-205.2,-96.6,-8.7,-12004.2,-124.5,-77.4,-120.0,-282.9,17.4,-89.4,-480.6,-6.9,-5.7,-99.0,-70.5,-0.6,67.2,-292.8,-173.7,0,3576,0,71,0, 
1.9900,-147.6,-204.9,-46.8,-28.2,-24.0,-178.2,-81.9,13.5,-102035.7,-120.3,-61.8,-106.8,-267.6,21.9,-81.6,-475.5,-6.9,-6.0,-86.7,-41.7,-0.9,65.7,-285.3,-170.4,0,3582,0,72,0, 
1.9933,54.9,-250.8,-105.3,-58.8,-57.3,-200.4,-103.8,-21.6,-63874.2,-183.3,-135.3,-182.7,-296.7,6.0,-125.7,-492.6,-6.9,-6.3,-161.7,-109.5,-0.6,-4.2,-305.7,-178.8,0,3588,0,73,0, 
1.9967,205.5,-305.1,-161.4,-97.8,-90.9,-239.4,-143.1,-72.3,53648.4,-267.0,-208.2,-236.7,-345.9,-28.5,-166.5,-514.5,-6.9,-5.7,-226.5,-102.0,-0.9,-95.4,-337.2,-205.5,0,3594,0,74,0, 
2.0000,97.2,-289.5,-141.0,-93.6,-103.2,-244.5,-138.9,-66.6,86845.2,-222.3,-167.4,-211.2,-330.6,-12.9,-139.8,-510.3,-6.6,-6.0,-189.0,-141.9,-0.9,-40.5,-327.3,-197.1,0,3600,0,75,0, 
2.0033,-123.3,-233.1,-78.3,-53.7,-55.8,-206.4,-99.9,-16.5,-11189.1,-121.8,-87.3,-131.1,-294.9,-3.6,-90.9,-478.5,-6.9,-5.7,-108.3,-87.6,-0.6,59.7,-290.7,-180.3,0,3606,0,76,0, 
2.0067,-147.0,-201.3,-45.6,-18.0,-8.7,-170.1,-80.1,16.8,-101813.4,-119.7,-48.6,-92.7,-268.5,7.2,-96.3,-487.2,-6.9,-5.7,-92.7,-30.9,-0.9,73.5,-281.7,-158.1,0,3612,0,77,0, 
2.0100,54.0,-251.1,-103.8,-57.0,-48.3,-205.2,-108.3,-26.1,-62688.6,-195.9,-139.2,-175.2,-301.5,-4.8,-125.7,-484.5,-6.9,-5.7,-150.3,-94.2,-0.6,-20.1,-306.0,-185.1,0,3618,0,78,0, 
2.0133,214.2,-295.2,-153.6,-95.1,-99.6,-246.6,-141.3,-73.8,55575.0,-255.3,-205.2,-255.6,-337.2,-27.3,-166.8,-507.9,-6.6,-5.4,-216.6,-164.1,-0.3,-71.1,-332.1,-201.3,0,3624,0,79,0, 
2.0167,96.9,-298.5,-126.3,-72.6,-70.8,-231.3,-132.9,-57.6,90402.0,-223.8,-159.0,-198.6,-343.2,-33.9,-151.2,-493.5,-6.9,-6.0,-187.2,-93.0,-0.3,-46.2,-307.8,-195.3,0,3630,0,80,0, 
2.0200,-117.6,-213.9,-51.0,-24.3,-28.2,-189.9,-98.1,1.2,-7854.6,-125.1,-59.4,-106.5,-275.7,2.7,-87.0,-494.1,-6.6,-6.0,-91.5,-63.3,-0.6,50.7,-294.0,-175.5,0,3636,0,81,0, 
2.0233,-148.8,-198.3,-39.9,-16.5,-15.6,-174.0,-77.1,18.6,-99738.6,-119.7,-64.5,-103.5,-282.0,12.9,-85.5,-473.7,-6.9,-5.7,-88.8,-49.5,-0.3,82.5,-273.9,-165.6,0,3642,0,82,0, 
2.0267,59.4,-236.7,-94.8,-54.3,-54.6,-202.2,-108.0,-21.3,-60613.8,-196.5,-141.3,-178.2,-286.5,3.3,-120.9,-490.5,-6.9,-5.7,-158.7,-108.9,-0.9,-20.7,-311.7,-205.5,0,3648,0,83,0, 
2.0300,218.7,-316.8,-168.9,-102.3,-104.7,-243.6,-146.4,-74.4,58464.9,-274.5,-222.0,-248.4,-363.9,-27.3,-154.2,-500.7,-6.6,-6.0,-246.0,-154.2,-1.2,-88.5,-332.7,-219.0,0,3654,0,84,0, 
2.0333,108.9,-287.7,-135.0,-86.4,-89.4,-231.3,-135.3,-61.2,93810.6,-222.3,-167.4,-209.4,-332.4,-27.3,-150.6,-505.5,-6.9,-6.3,-191.1,-129.3,-0.9,-41.7,-307.8,-193.8,0,3660,0,85,0, 
2.0367,-118.2,-225.6,-64.2,-40.2,-34.5,-188.4,-95.1,-8.4,-4223.7,-135.0,-75.0,-114.9,-291.3,5.1,-97.5,-484.5,-6.9,-6.0,-114.0,-45.3,-0.6,41.7,-280.2,-168.0,0,3666,0,86,0, 
2.0400,-143.4,-184.8,-42.3,-27.6,-27.6,-173.7,-79.8,13.8,-96330.0,-123.9,-63.0,-108.3,-273.3,16.2,-80.7,-472.2,-7.2,-6.0,-99.0,-42.9,-0.9,63.6,-275.7,-162.9,0,3672,0,87,0, 
2.0433,56.7,-247.8,-106.5,-66.6,-66.0,-203.4,-108.9,-28.8,-57649.8,-203.7,-139.5,-188.1,-309.0,-8.4,-129.3,-497.4,-7.2,-5.4,-165.6,-121.2,-0.6,-16.8,-311.7,-184.2,0,3678,0,88,0, 
2.0467,220.5,-307.5,-157.5,-96.3,-87.9,-229.8,-138.0,-68.4,63133.2,-266.4,-204.0,-237.0,-339.0,-34.5,-178.2,-520.2,-6.9,-5.7,-227.4,-118.2,-0.6,-109.2,-335.1,-198.0,0,3684,0,89,0, 
2.0500,109.2,-286.8,-139.8,-96.3,-97.5,-234.9,-132.9,-64.8,99516.3,-225.9,-178.8,-215.7,-344.4,-35.1,-146.1,-506.7,-6.6,-5.7,-197.4,-130.5,-0.9,-23.4,-314.7,-185.4,0,3690,0,90,0, 
2.0533,-114.9,-214.2,-59.1,-44.1,-42.3,-192.6,-93.0,-3.3,963.3,-135.3,-72.6,-114.9,-279.3,-2.7,-100.2,-489.6,-7.5,-5.7,-111.9,-69.9,-0.9,53.4,-286.8,-171.3,0,3696,0,91,0, 
2.0567,-144.3,-199.2,-46.2,-24.9,-15.9,-165.6,-73.8,18.6,-92402.7,-111.9,-54.3,-100.5,-275.1,12.6,-90.6,-472.8,-6.9,-5.4,-92.7,-46.2,-0.6,79.5,-272.1,-152.1,0,3702,0,92,0, 
2.0600,69.6,-228.9,-86.1,-50.4,-47.7,-195.6,-96.6,-11.1,-54908.1,-198.0,-129.3,-174.0,-295.5,-5.1,-133.2,-490.5,-6.6,-5.7,-152.7,-99.9,-0.6,-8.4,-299.7,-169.8,0,3708,0,93,0, 
2.0633,237.6,-291.9,-148.5,-93.9,-98.4,-235.2,-133.8,-62.1,67208.7,-269.1,-200.4,-238.8,-328.8,-30.9,-177.0,-513.9,-7.2,-6.0,-227.7,-159.9,-0.9,-84.6,-331.5,-195.3,0,3714,0,94,0, 
2.0667,122.1,-283.2,-130.5,-81.3,-82.8,-227.1,-126.3,-51.6,103665.9,-219.0,-166.2,-197.4,-328.8,-29.7,-150.3,-498.0,-6.9,-6.0,-189.3,-117.6,-0.9,-35.4,-311.1,-184.5,0,3720,0,95,0, 
2.0700,-108.6,-215.7,-48.6,-30.6,-34.2,-189.6,-87.3,6.6,3927.3,-120.6,-68.1,-99.9,-278.1,-2.4,-96.9,-481.5,-6.9,-6.0,-105.3,-66.9,-0.6,56.4,-283.8,-168.0,0,3726,0,96,0, 
2.0733,-134.7,-186.9,-34.2,-13.5,-4.2,-165.3,-69.9,29.4,-90550.2,-109.5,-53.4,-80.7,-264.9,9.0,-78.3,-479.1,-6.9,-6.0,-96.0,-14.4,-0.9,62.4,-272.4,-156.6,0,3732,0,97,0, 
2.0767,69.0,-230.7,-81.3,-53.7,-61.2,-201.3,-96.3,-13.5,-52462.8,-200.1,-135.6,-180.0,-294.9,-6.0,-131.7,-496.8,-6.9,-5.7,-156.0,-133.2,-0.6,-9.9,-301.5,-181.8,0,3738,0,98,0, 
2.0800,231.0,-318.0,-174.3,-111.0,-112.5,-245.1,-138.6,-75.0,69802.2,-254.1,-213.6,-262.2,-342.6,-38.4,-161.7,-507.6,-6.9,-5.7,-237.9,-165.9,0.0,-83.4,-325.8,-201.0,0,3744,0,99,0, 
2.0833,123.9,-278.7,-129.9,-87.9,-93.6,-237.0,-133.5,-60.9,107074.5,-229.5,-169.2,-208.5,-330.9,-36.3,-155.1,-514.2,-6.9,-6.0,-201.6,-139.5,-0.9,-36.6,-319.2,-196.5,0,3750,0,100,0, 
2.0867,-111.6,-234.3,-75.0,-48.6,-48.0,-192.0,-90.9,-8.7,7410.0,-115.2,-81.0,-112.2,-281.4,-7.2,-85.2,-471.9,-6.6,-6.0,-124.8,-46.2,-0.3,57.0,-277.5,-168.0,0,3756,0,101,0, 
2.0900,-139.5,-199.2,-43.2,-24.0,-23.7,-175.5,-74.7,17.1,-88179.0,-121.2,-53.4,-89.7,-257.7,4.5,-79.8,-474.9,-6.6,-5.7,-98.4,-53.4,-0.6,81.3,-272.1,-164.1,0,3762,0,102,0, 
2.0933,66.3,-257.7,-102.0,-55.2,-45.6,-197.4,-102.3,-22.5,-50239.8,-204.3,-123.9,-152.4,-318.6,-14.4,-120.6,-488.7,-6.6,-6.0,-158.7,-69.9,-0.9,-31.5,-304.5,-188.4,0,3768,0,103,0, 
2.0967,230.1,-312.6,-164.7,-104.4,-116.1,-248.1,-138.9,-78.0,72247.5,-266.4,-209.4,-263.1,-341.1,-37.5,-162.6,-509.7,-7.2,-6.3,-233.4,-181.2,-0.9,-73.8,-330.3,-216.6,0,3774,0,104,0, 
2.1000,113.1,-297.6,-138.0,-98.1,-114.6,-244.5,-138.0,-72.3,110779.5,-224.7,-173.7,-224.7,-344.4,-41.4,-148.5,-503.4,-6.9,-5.7,-201.0,-158.4,-0.6,-46.8,-319.2,-221.7,0,3780,0,105,0, 
2.1033,-118.8,-230.7,-70.5,-48.3,-51.0,-195.9,-95.1,-11.1,10374.0,-121.5,-77.4,-118.5,-283.5,-9.0,-96.3,-491.7,-6.9,-5.7,-113.4,-66.9,-0.9,52.2,-283.8,-193.8,0,3786,0,106,0, 
2.1067,-149.7,-205.8,-42.0,-27.3,-24.9,-174.0,-79.8,11.4,-85881.9,-139.2,-56.1,-101.1,-279.3,-3.9,-87.0,-478.5,-6.9,-5.7,-96.9,-45.9,-0.6,54.6,-284.4,-170.1,0,3792,0,107,0, 
2.1100,60.6,-255.3,-104.1,-66.9,-78.0,-207.0,-106.5,-28.5,-47646.3,-189.6,-148.2,-196.2,-309.6,-21.9,-135.6,-490.2,-6.9,-5.7,-174.6,-142.8,-0.6,-15.9,-314.4,-187.5,0,3798,0,108,0, 
2.1133,224.1,-305.1,-155.7,-105.3,-114.9,-240.9,-141.3,-72.6,76174.8,-272.4,-218.4,-254.1,-339.9,-47.1,-176.1,-520.2,-7.2,-5.7,-236.4,-165.9,-0.3,-94.8,-336.9,-207.6,0,3804,0,109,0, 
2.1167,113.7,-296.7,-135.6,-94.2,-107.1,-240.0,-141.3,-60.6,114780.9,-225.6,-171.0,-215.1,-332.1,-46.8,-154.2,-527.7,-7.2,-5.7,-195.3,-140.4,-1.2,-53.1,-332.1,-206.1,0,3810,0,110,0, 
2.1200,-123.3,-222.3,-63.3,-46.8,-51.3,-193.2,-97.8,-4.5,14227.2,-121.5,-78.3,-122.1,-282.9,-15.9,-102.9,-498.9,-7.2,-6.0,-117.0,-60.9,-0.9,62.7,-290.1,-174.3,0,3816,0,111,0, 
2.1233,-152.4,-197.4,-43.2,-29.7,-29.4,-171.3,-78.6,21.6,-83733.0,-117.9,-62.7,-101.4,-269.7,-4.8,-84.9,-483.3,-6.9,-6.3,-97.5,-54.9,-0.3,46.5,-290.7,-178.8,0,3822,0,112,0, 
2.1267,57.0,-250.5,-105.6,-72.3,-67.2,-198.0,-101.7,-20.7,-46386.6,-208.5,-149.4,-187.8,-310.8,-27.6,-123.0,-498.0,-6.9,-5.4,-171.9,-118.5,-0.9,-12.0,-311.1,-189.3,0,3828,0,113,0, 
2.1300,233.7,-304.2,-160.2,-110.4,-120.0,-240.0,-136.8,-66.9,78101.4,-275.7,-214.8,-262.2,-345.0,-42.9,-156.3,-526.2,-6.9,-6.3,-227.7,-191.1,-0.6,-84.0,-336.9,-212.4,0,3834,0,114,0, 
2.1333,120.0,-288.0,-134.1,-94.5,-112.5,-234.9,-129.6,-57.0,116929.8,-215.4,-172.8,-206.4,-330.6,-46.8,-170.4,-506.7,-7.2,-6.0,-200.4,-140.1,-0.9,-37.5,-318.0,-200.7,0,3840,0,115,0, 
2.1367,-114.3,-218.7,-63.6,-45.3,-51.0,-193.2,-94.8,-2.1,16376.1,-113.4,-72.3,-105.9,-285.0,-15.3,-104.7,-496.5,-6.9,-5.4,-120.9,-72.9,-0.9,54.0,-285.9,-174.6,0,3846,0,116,0, 
2.1400,-143.1,-191.1,-32.7,-21.3,-17.1,-165.6,-73.5,27.0,-82028.7,-101.7,-48.3,-87.6,-264.9,-1.5,-89.7,-488.1,-6.6,-6.3,-80.4,-39.0,-0.6,76.2,-277.5,-165.6,0,3852,0,117,0, 
2.1433,64.8,-248.1,-98.4,-55.8,-46.8,-192.9,-97.8,-15.0,-45052.8,-188.7,-131.4,-178.5,-293.1,-17.4,-139.8,-499.5,-7.2,-6.0,-163.2,-96.9,-0.6,-7.5,-300.6,-180.6,0,3858,0,118,0, 
2.1467,238.2,-303.0,-161.7,-105.6,-118.2,-244.5,-135.6,-70.8,79879.8,-253.8,-204.3,-260.1,-347.4,-38.1,-172.8,-510.9,-6.9,-5.7,-224.4,-186.9,-0.9,-72.6,-321.9,-209.1,0,3864,0,119,0, 
2.1500,122.7,-300.6,-138.6,-95.1,-99.3,-239.4,-133.2,-64.5,118782.3,-224.4,-179.7,-207.6,-340.8,-40.5,-143.4,-508.8,-6.9,-6.0,-205.8,-137.4,-1.2,-51.0,-316.2,-204.9,0,3870,0,120,0, 
2.1533,-115.5,-234.3,-65.4,-50.1,-54.9,-199.8,-93.0,-12.0,17043.0,-132.0,-76.2,-114.3,-283.8,-12.3,-100.5,-485.4,-6.6,-6.3,-116.1,-82.5,-0.6,54.6,-280.8,-184.2,0,3876,0,121,0, 
2.1567,-150.3,-204.9,-55.5,-38.7,-30.6,-182.7,-77.4,9.3,-81880.5,-108.0,-66.0,-106.5,-262.5,6.0,-78.3,-483.0,-7.5,-5.7,-111.6,-62.7,-0.6,66.9,-276.6,-179.7,0,3882,0,122,0, 
2.1600,52.8,-258.9,-107.4,-80.1,-78.3,-214.8,-101.1,-34.2,-44904.6,-207.9,-142.2,-201.9,-328.5,-28.2,-128.1,-480.3,-7.2,-6.0,-168.6,-146.4,-0.3,-28.8,-294.6,-201.3,0,3888,0,123,0, 
2.1633,227.1,-324.3,-178.5,-128.7,-125.4,-252.0,-138.3,-84.6,80472.6,-286.2,-225.3,-277.2,-355.8,-46.2,-170.4,-508.8,-7.2,-5.7,-262.2,-191.1,-0.9,-93.6,-323.1,-231.9,0,3894,0,124,0, 
2.1667,123.6,-300.9,-150.6,-109.5,-113.7,-248.1,-140.4,-73.5,120412.5,-223.2,-180.6,-226.5,-346.2,-36.6,-144.6,-513.3,-6.9,-6.0,-216.6,-157.2,-0.6,-54.6,-328.5,-231.0,0,3900,0,125,0, 
2.1700,-119.1,-245.4,-97.8,-65.7,-57.3,-200.1,-95.7,-13.8,18006.3,-109.8,-84.3,-123.0,-288.9,-0.3,-82.8,-488.1,-6.9,-5.4,-131.4,-60.6,-0.6,67.5,-288.0,-188.4,0,3906,0,126,0, 
2.1733,-157.8,-192.3,-44.7,-33.6,-26.4,-173.1,-69.9,22.5,-81954.6,-102.9,-58.5,-90.6,-269.7,-4.2,-97.8,-479.1,-6.9,-6.0,-99.9,-61.8,-0.6,73.5,-270.0,-169.2,0,3912,0,127,0, 
2.1767,57.9,-252.3,-119.7,-75.3,-68.7,-210.0,-105.9,-22.5,-45423.3,-179.1,-147.0,-175.8,-296.4,-9.9,-129.0,-509.7,-6.6,-5.4,-186.0,-128.7,-0.6,-11.4,-318.6,-198.9,0,3918,0,128,0, 
2.1800,231.0,-304.2,-164.1,-106.8,-116.4,-251.7,-143.1,-69.0,80472.6,-266.7,-218.7,-256.5,-337.2,-44.1,-173.1,-528.0,-6.3,-5.7,-245.4,-184.8,-0.9,-93.3,-345.9,-221.7,0,3924,0,129,0, 
2.1833,124.5,-288.6,-141.6,-89.1,-100.2,-236.7,-133.2,-55.5,120634.8,-219.6,-173.1,-209.1,-324.6,-38.4,-149.4,-516.0,-6.9,-5.7,-204.0,-135.3,-0.9,-37.5,-328.8,-210.0,0,3930,0,130,0, 
2.1867,-117.6,-216.0,-59.7,-36.0,-39.0,-191.4,-89.4,4.2,17635.8,-125.1,-62.1,-103.5,-286.5,-16.5,-97.5,-484.8,-6.6,-5.7,-114.9,-51.6,-0.9,47.1,-284.7,-183.3,0,3936,0,131,0, 
2.1900,-148.8,-188.1,-40.2,-21.6,-27.3,-173.4,-72.0,29.4,-82843.8,-89.4,-44.7,-101.1,-252.6,3.0,-78.3,-479.7,-6.9,-5.7,-96.9,-66.9,-0.6,71.1,-284.4,-181.2,0,3942,0,132,0, 
2.1933,63.6,-231.6,-92.1,-52.8,-59.4,-197.7,-93.9,-4.8,-46386.6,-178.5,-134.7,-182.7,-289.2,-18.0,-130.2,-496.5,-6.6,-6.0,-170.7,-127.5,-0.6,-4.5,-307.5,-192.9,0,3948,0,133,0, 
2.1967,242.7,-302.4,-164.1,-101.4,-112.5,-242.7,-135.0,-63.6,80028.0,-268.5,-222.0,-249.6,-330.3,-49.2,-168.3,-501.9,-6.9,-6.0,-249.6,-171.9,-0.3,-95.7,-327.6,-224.7,0,3954,0,134,0, 
2.2000,136.5,-294.3,-145.2,-100.5,-110.1,-237.6,-132.3,-56.1,120931.2,-228.6,-183.3,-216.3,-341.7,-37.2,-144.9,-506.1,-6.6,-6.0,-225.9,-153.0,-0.6,-40.5,-320.1,-213.0,0,3960,0,135,0, 
2.2033,-112.2,-216.6,-57.9,-42.0,-45.6,-186.0,-90.3,5.4,18006.3,-114.3,-72.9,-101.4,-269.7,-11.1,-93.9,-486.9,-6.9,-5.7,-126.0,-54.0,-0.3,59.1,-288.0,-181.2,0,3966,0,136,0, 
2.2067,-159.3,-204.0,-56.1,-35.1,-35.4,-168.9,-66.6,21.6,-82917.9,-101.1,-69.9,-97.5,-265.8,-2.7,-80.7,-461.7,-6.9,-5.7,-121.8,-81.0,-0.9,82.8,-262.2,-174.3,0,3972,0,137,0, 
2.2100,59.1,-238.8,-108.9,-72.0,-69.9,-199.2,-102.3,-17.7,-46979.4,-185.1,-150.0,-190.2,-300.3,-24.3,-126.3,-494.1,-7.2,-6.0,-192.6,-126.0,-0.6,-12.9,-306.0,-198.0,0,3978,0,138,0, 
2.2133,238.8,-307.5,-165.0,-111.3,-121.8,-247.2,-142.5,-72.6,80250.3,-265.2,-214.2,-264.0,-335.1,-42.9,-171.9,-527.1,-6.6,-5.4,-237.9,-194.1,-0.3,-85.2,-341.1,-225.3,0,3984,0,139,0, 
2.2167,122.1,-306.9,-157.5,-110.4,-110.1,-242.4,-141.0,-69.9,121375.8,-223.8,-185.7,-223.8,-338.7,-44.7,-144.9,-511.5,-6.9,-6.0,-223.5,-145.2,-0.9,-54.3,-322.8,-222.3,0,3990,0,140,0, 
2.2200,-125.7,-231.6,-83.4,-65.7,-71.7,-201.3,-96.3,-11.1,17635.8,-125.7,-95.4,-140.7,-286.5,-23.7,-95.1,-475.8,-6.9,-5.7,-144.0,-99.6,-0.6,68.1,-274.8,-195.0,0,3996,0,141,0, 
2.2233,-161.1,-203.4,-57.0,-36.9,-30.9,-178.8,-78.6,18.0,-84770.4,-108.9,-63.6,-101.4,-276.9,-8.7,-87.6,-483.9,-6.9,-5.4,-117.9,-61.5,-0.9,60.9,-283.5,-181.2,0,4002,0,142,0, 
2.2267,47.1,-263.4,-129.3,-82.2,-78.6,-214.8,-109.8,-30.3,-48461.4,-187.2,-155.7,-183.9,-314.7,-25.5,-127.8,-502.2,-6.9,-5.4,-195.3,-132.9,-0.3,-5.4,-315.3,-197.4,0,4008,0,143,0, 
2.2300,218.4,-315.6,-171.0,-117.3,-126.0,-257.7,-151.5,-78.6,79509.3,-275.1,-217.8,-257.4,-353.7,-49.8,-180.0,-537.3,-6.6,-5.7,-251.4,-197.1,-0.3,-94.2,-354.3,-227.7,0,4014,0,144,0, 
2.2333,119.1,-315.3,-172.5,-114.3,-116.7,-251.4,-142.2,-75.9,119967.9,-231.0,-189.6,-231.3,-343.5,-47.1,-151.2,-517.5,-6.9,-6.0,-236.7,-157.2,-0.3,-39.0,-331.2,-222.0,0,4020,0,145,0, 
2.2367,-130.2,-233.4,-76.5,-51.6,-51.6,-207.0,-100.2,-9.6,15561.0,-137.1,-72.6,-110.1,-299.7,-19.8,-99.6,-495.9,-7.2,-5.7,-126.9,-74.1,-0.6,42.3,-298.2,-202.2,0,4026,0,146,0, 
