Time,P3,C3,F3,Fz,F4,C4,P4,Cz,CM,A1,Fp1,Fp2,T3,T5,O1,O2,X3,X2,F7,F8,X1,A2,T6,T4,Trigger,Time_Offset,ADC_Status,ADC_Sequence,Event,Comments
0.0033,21.0,-760.2,-156.9,325.5,84.9,512.4,-441.6,202.5,444.6,-1025.4,210.6,60.0,-1660.8,-2448.0,-1127.4,-137.7,-6.6,-6.0,-834.3,-1988.1,-0.6,-516.0,-716.7,227.7,0,6,0,146,0, 
0.0067,21.6,-753.3,-152.1,327.6,90.0,516.3,-437.1,203.1,370.5,-1023.3,210.3,66.0,-1654.8,-2442.9,-1123.5,-151.8,-6.6,-5.7,-833.7,-1986.6,-0.9,-514.8,-721.8,228.0,0,12,0,147,0, 
0.0100,17.4,-764.1,-163.8,321.6,84.6,504.3,-445.5,195.3,666.9,-1035.0,198.9,57.6,-1659.6,-2443.8,-1118.4,-149.4,-6.9,-6.3,-843.9,-1993.8,-1.2,-523.8,-728.4,223.2,0,18,0,148,0, 
0.0133,22.2,-755.1,-153.6,326.7,97.2,510.3,-441.3,207.6,518.7,-1032.0,205.2,66.3,-1658.7,-2441.1,-1115.7,-146.1,-6.9,-5.7,-837.6,-1988.4,-0.6,-498.9,-728.4,230.4,0,24,0,149,0, 
0.0167,18.9,-762.3,-161.4,317.4,81.3,500.4,-446.1,198.6,592.8,-1046.4,199.8,46.2,-1663.8,-2445.9,-1119.9,-142.8,-7.2,-5.7,-849.0,-2001.6,-0.9,-529.2,-735.6,216.9,0,30,0,150,0, 
0.0200,27.6,-751.5,-150.9,328.5,91.2,503.7,-441.9,208.8,592.8,-1026.3,209.7,54.0,-1657.5,-2441.7,-1124.1,-131.4,-6.9,-6.3,-836.4,-1991.4,-0.6,-532.2,-726.3,221.1,0,36,0,151,0, 
0.0233,36.6,-749.7,-151.2,329.1,88.5,504.3,-439.2,210.0,370.5,-1032.0,207.0,60.3,-1652.1,-2418.9,-1111.2,-138.0,-7.2,-5.7,-837.9,-1991.1,-0.9,-532.8,-731.4,220.5,0,42,0,152,0, 
0.0267,44.7,-750.3,-156.9,324.0,80.4,491.4,-443.4,203.4,666.9,-1044.0,209.4,48.9,-1652.7,-2386.2,-1065.3,-150.0,-6.6,-5.7,-842.7,-2002.2,-0.9,-535.2,-740.4,211.5,0,48,0,153,0, 
0.0300,34.5,-749.4,-151.2,328.5,92.4,503.7,-437.4,203.7,741.0,-1030.5,200.4,53.1,-1649.4,-2419.8,-1103.1,-136.8,-6.3,-6.0,-838.5,-1993.5,-0.6,-518.7,-729.3,222.9,0,54,0,154,0, 
0.0333,28.2,-746.7,-146.1,339.6,99.0,510.9,-427.8,209.1,666.9,-1018.8,210.9,65.1,-1644.9,-2437.8,-1132.5,-127.8,-6.6,-6.3,-828.3,-1983.0,-1.2,-513.3,-712.8,233.1,0,60,0,155,0, 
0.0367,17.4,-752.7,-142.8,338.7,93.6,514.8,-428.4,205.2,518.7,-1012.5,216.6,69.9,-1654.5,-2461.2,-1161.0,-121.8,-6.9,-6.3,-828.9,-1976.1,-0.6,-496.5,-715.2,238.8,0,66,0,156,0, 
0.0400,32.7,-753.3,-161.7,326.1,84.3,502.5,-438.9,198.6,370.5,-1034.7,210.9,57.9,-1647.0,-2410.8,-1090.8,-129.0,-6.6,-5.7,-838.8,-1992.9,-0.9,-521.7,-726.6,224.7,0,72,0,157,0, 
0.0433,17.7,-756.9,-156.0,331.2,90.9,507.3,-433.8,197.1,741.0,-1026.6,211.8,64.2,-1659.3,-2453.4,-1121.7,-129.3,-6.9,-6.0,-839.1,-1985.7,-0.3,-508.2,-718.8,234.6,0,78,0,158,0, 
0.0467,23.1,-746.1,-141.6,348.6,106.8,516.6,-421.2,211.8,741.0,-1006.5,228.3,78.0,-1648.8,-2449.5,-1148.7,-140.7,-7.2,-5.4,-818.1,-1974.6,-1.2,-503.1,-715.8,242.1,0,84,0,159,0, 
0.0500,20.4,-747.3,-145.8,345.6,105.3,520.2,-424.5,210.9,741.0,-1004.4,226.5,75.9,-1645.2,-2449.5,-1149.9,-138.6,-6.9,-6.0,-822.3,-1970.1,-1.2,-500.4,-704.4,242.4,0,90,0,160,0, 
0.0533,22.8,-750.9,-155.4,335.7,91.5,510.6,-430.2,205.2,592.8,-1021.5,211.2,61.2,-1652.4,-2441.4,-1116.9,-133.5,-7.2,-6.0,-836.4,-1985.1,-0.9,-507.3,-720.9,234.0,0,96,0,161,0, 
0.0567,24.9,-758.1,-164.7,325.5,83.1,505.2,-431.7,197.1,444.6,-1032.9,208.2,55.2,-1660.8,-2443.8,-1113.0,-124.5,-7.2,-6.0,-838.2,-1991.4,-0.9,-519.0,-726.9,229.2,0,102,0,162,0, 
0.0600,23.7,-761.7,-174.0,315.0,75.0,495.9,-434.4,192.3,592.8,-1052.7,189.0,38.4,-1668.0,-2427.9,-1106.4,-112.2,-6.6,-6.0,-856.8,-2009.1,-0.6,-539.1,-727.5,219.0,0,108,0,163,0, 
0.0633,24.6,-756.0,-162.6,326.4,86.7,512.1,-433.2,200.4,666.9,-1036.5,193.8,49.2,-1662.3,-2439.9,-1128.9,-121.2,-6.9,-5.7,-843.6,-1998.0,-0.6,-522.9,-727.8,224.4,0,114,0,164,0, 
0.0667,34.5,-748.2,-150.9,331.2,84.6,507.3,-435.9,206.7,666.9,-1030.2,196.8,51.3,-1648.2,-2424.0,-1110.0,-170.4,-6.9,-6.0,-840.6,-2005.5,-0.9,-530.4,-736.2,225.0,0,120,0,165,0, 
0.0700,34.2,-747.3,-143.4,336.0,92.7,512.1,-429.9,209.1,518.7,-1023.9,205.2,63.3,-1654.8,-2455.2,-1128.6,-145.5,-6.9,-6.0,-834.3,-1993.2,-0.6,-511.8,-730.2,232.5,0,126,0,166,0, 
0.0733,30.6,-751.5,-147.3,334.2,91.2,513.0,-431.7,208.2,370.5,-1026.9,195.9,54.6,-1656.3,-2466.3,-1149.3,-139.5,-6.9,-6.0,-838.8,-1997.1,-0.9,-521.7,-721.5,234.0,0,132,0,167,0, 
0.0767,28.2,-751.5,-157.8,332.7,92.4,510.3,-427.2,206.1,666.9,-1029.3,210.0,58.5,-1655.4,-2457.3,-1128.6,-123.0,-6.9,-5.4,-837.9,-1993.5,-0.9,-520.5,-732.0,225.6,0,138,0,168,0, 
0.0800,35.1,-754.5,-164.7,320.1,84.6,496.8,-440.7,197.4,666.9,-1045.2,196.8,46.8,-1655.1,-2417.4,-1095.0,-139.8,-6.6,-6.0,-852.6,-2007.6,-0.9,-539.4,-744.3,215.4,0,144,0,169,0, 
0.0833,30.6,-736.8,-139.2,349.8,108.6,525.3,-421.2,217.5,666.9,-1011.0,226.8,81.9,-1638.6,-2436.3,-1152.9,-144.6,-6.9,-5.7,-823.2,-1972.2,-0.6,-502.8,-712.5,246.0,0,150,0,170,0, 
0.0867,33.6,-742.2,-140.7,345.6,101.7,523.2,-425.7,213.0,518.7,-1018.8,222.9,72.3,-1647.3,-2441.1,-1131.6,-138.3,-6.3,-6.0,-828.3,-1976.7,0.0,-499.8,-719.1,243.0,0,156,0,171,0, 
0.0900,33.9,-736.2,-134.1,357.6,114.9,533.1,-417.9,221.7,370.5,-1015.5,230.7,79.2,-1645.8,-2441.7,-1142.4,-122.1,-6.6,-5.7,-820.2,-1969.8,-0.3,-496.5,-706.2,254.4,0,162,0,172,0, 
0.0933,27.0,-749.4,-146.4,343.8,102.9,521.7,-425.4,214.5,666.9,-1026.9,214.5,69.9,-1657.8,-2437.2,-1130.7,-125.4,-7.2,-6.0,-837.3,-1981.8,-0.9,-517.8,-710.7,244.2,0,168,0,173,0, 
0.0967,19.2,-748.8,-145.2,342.9,105.6,519.9,-424.8,210.9,666.9,-1034.1,218.1,63.9,-1657.8,-2456.4,-1143.6,-133.5,-6.6,-6.0,-838.8,-1986.3,-0.9,-515.7,-717.0,239.4,0,174,0,174,0, 
0.1000,24.9,-747.9,-152.7,339.9,102.9,522.3,-427.2,206.4,518.7,-1032.9,199.2,60.6,-1660.5,-2436.0,-1117.5,-130.5,-6.6,-6.0,-841.2,-1993.5,-0.6,-520.8,-720.6,241.8,0,180,0,175,0, 
0.1033,21.3,-762.3,-176.4,320.1,74.7,496.2,-441.0,187.2,592.8,-1063.5,178.8,30.3,-1678.5,-2415.9,-1080.3,-145.8,-6.9,-6.0,-868.8,-2014.5,-0.9,-552.0,-752.4,209.4,0,186,0,176,0, 
0.1067,32.7,-749.4,-165.0,330.6,88.8,510.6,-437.7,201.6,592.8,-1044.0,194.4,48.0,-1656.9,-2406.9,-1099.2,-161.4,-6.9,-6.0,-852.9,-2005.5,-0.9,-539.7,-734.4,218.4,0,192,0,177,0, 
0.1100,17.4,-746.4,-154.5,344.4,106.5,521.7,-420.6,207.9,592.8,-1027.2,205.2,56.4,-1658.7,-2448.9,-1169.7,-141.9,-6.6,-5.4,-838.5,-1992.6,-0.6,-512.7,-716.7,239.4,0,198,0,178,0, 
0.1133,15.3,-749.4,-153.3,344.4,106.5,519.0,-426.3,207.0,815.1,-1023.0,207.9,62.1,-1663.8,-2469.6,-1163.1,-124.5,-6.3,-6.0,-835.8,-1986.0,-0.6,-513.6,-722.4,245.1,0,204,0,179,0, 
0.1167,14.7,-747.6,-156.3,341.4,101.7,518.4,-424.2,208.8,741.0,-1026.6,211.5,62.4,-1663.5,-2469.9,-1158.0,-118.2,-6.9,-5.7,-838.8,-1984.8,-0.6,-511.8,-717.9,244.8,0,210,0,180,0, 
0.1200,25.8,-740.7,-156.6,340.2,98.4,518.4,-431.4,208.5,518.7,-1027.5,213.6,62.1,-1656.3,-2448.9,-1132.8,-138.6,-6.6,-6.3,-836.4,-1988.4,-0.6,-513.0,-727.5,243.9,0,216,0,181,0, 
0.1233,28.5,-741.3,-162.9,333.3,92.4,515.4,-440.1,207.3,592.8,-1036.2,198.6,55.8,-1655.7,-2422.5,-1114.5,-143.7,-7.2,-5.7,-844.2,-1997.7,-0.6,-521.1,-719.4,236.1,0,222,0,182,0, 
0.1267,30.6,-738.3,-160.5,334.8,95.4,513.6,-435.6,212.7,666.9,-1027.5,204.9,54.3,-1658.4,-2434.5,-1125.0,-140.1,-6.6,-6.0,-843.0,-1994.7,-0.3,-518.1,-726.6,237.3,0,228,0,183,0, 
0.1300,24.3,-738.0,-156.0,342.0,105.6,522.9,-424.2,213.9,666.9,-1017.3,213.6,57.6,-1658.4,-2444.1,-1133.4,-137.1,-7.2,-5.4,-840.0,-1988.7,-0.9,-513.3,-713.4,243.3,0,234,0,184,0, 
0.1333,27.9,-743.1,-167.7,327.0,94.2,513.6,-430.5,208.5,444.6,-1033.5,194.4,48.3,-1667.1,-2420.4,-1099.5,-131.4,-6.9,-6.6,-847.2,-2000.7,-0.9,-524.1,-726.0,230.7,0,240,0,185,0, 
0.1367,32.4,-747.3,-172.5,324.9,88.8,513.9,-432.3,207.6,518.7,-1044.9,194.4,46.2,-1665.3,-2412.3,-1096.8,-129.6,-6.9,-5.4,-851.7,-2006.4,-0.3,-531.0,-723.9,229.2,0,246,0,186,0, 
0.1400,24.6,-735.6,-155.1,342.3,113.4,529.8,-419.1,224.7,444.6,-1019.1,211.2,62.7,-1658.4,-2442.3,-1154.7,-125.1,-6.9,-5.7,-834.6,-1984.5,-0.9,-504.3,-709.8,249.6,0,252,0,187,0, 
0.1433,20.7,-740.4,-159.0,341.4,115.2,528.0,-416.1,222.9,592.8,-1020.0,205.5,58.5,-1665.3,-2459.1,-1155.0,-111.9,-6.9,-6.3,-840.0,-1983.9,-0.3,-513.6,-705.9,249.6,0,258,0,188,0, 
0.1467,22.5,-739.5,-153.9,338.4,114.3,525.9,-415.2,219.6,741.0,-1022.1,207.6,61.8,-1664.1,-2449.2,-1155.3,-112.2,-6.9,-6.0,-837.6,-1981.5,-0.9,-509.4,-702.0,249.6,0,264,0,189,0, 
0.1500,26.7,-738.9,-164.4,331.8,105.3,517.2,-425.1,215.7,592.8,-1027.2,209.1,58.2,-1657.5,-2414.1,-1124.1,-144.3,-6.9,-6.3,-841.8,-1988.1,-0.3,-517.8,-718.5,240.6,0,270,0,190,0, 
0.1533,28.8,-742.2,-166.2,329.4,97.8,516.6,-427.5,211.8,518.7,-1030.8,205.5,54.6,-1664.1,-2412.6,-1115.4,-133.8,-6.9,-6.6,-846.3,-1992.3,-0.9,-534.9,-725.1,231.6,0,276,0,191,0, 
0.1567,30.0,-739.5,-159.3,333.6,99.9,518.1,-423.3,213.3,518.7,-1036.2,204.6,51.3,-1666.5,-2423.1,-1105.5,-125.1,-7.2,-6.0,-846.0,-1989.0,-0.6,-523.2,-722.1,238.2,0,282,0,192,0, 
0.1600,29.4,-738.6,-166.5,336.0,108.6,521.4,-422.1,215.1,592.8,-1022.7,206.1,60.3,-1665.9,-2416.2,-1108.8,-132.3,-6.9,-6.0,-843.0,-1985.1,-0.6,-511.2,-713.4,246.3,0,288,0,193,0, 
0.1633,24.3,-736.2,-164.4,336.0,112.5,525.0,-421.2,217.5,815.1,-1030.2,203.1,59.7,-1664.4,-2437.8,-1125.3,-112.5,-6.9,-5.7,-844.2,-1987.2,-0.6,-498.6,-704.4,249.9,0,294,0,194,0, 
0.1667,22.8,-736.8,-164.4,333.0,105.6,524.1,-420.9,214.8,741.0,-1026.6,196.5,46.5,-1664.7,-2441.4,-1125.0,-117.6,-7.2,-6.0,-846.6,-1998.6,-0.6,-506.7,-708.9,245.4,0,300,0,195,0, 
0.1700,24.9,-742.5,-174.0,324.6,96.3,516.6,-426.6,208.2,518.7,-1041.6,187.8,50.4,-1669.5,-2426.1,-1104.0,-112.5,-6.6,-5.4,-856.5,-1990.8,-1.2,-512.1,-713.1,240.6,0,306,0,196,0, 
0.1733,27.9,-741.9,-170.7,326.7,102.3,522.3,-431.7,203.7,444.6,-1048.5,205.8,66.0,-1670.1,-2408.4,-1097.7,-121.2,-6.9,-5.7,-853.8,-1977.3,-0.6,-512.1,-720.6,239.7,0,312,0,197,0, 
0.1767,28.5,-730.5,-144.6,351.3,130.8,539.4,-413.1,224.4,592.8,-1018.2,217.5,80.4,-1657.8,-2442.3,-1134.9,-104.4,-6.6,-5.4,-830.7,-1968.3,-0.6,-488.4,-700.2,262.8,0,318,0,198,0, 
0.1800,30.0,-725.1,-129.9,369.6,145.2,553.8,-406.5,232.2,518.7,-997.2,234.6,102.3,-1652.4,-2457.9,-1167.6,-111.9,-7.2,-5.7,-811.5,-1947.0,-0.6,-486.9,-686.1,274.8,0,324,0,199,0, 
0.1833,23.4,-732.9,-142.8,355.2,128.1,540.6,-415.5,218.4,741.0,-1009.8,235.5,87.6,-1658.4,-2440.5,-1149.3,-121.2,-6.6,-5.7,-822.0,-1952.4,-0.9,-489.0,-694.5,264.3,0,330,0,200,0, 
0.1867,26.1,-742.2,-157.8,339.3,110.1,529.2,-424.2,209.7,592.8,-1026.6,223.5,66.0,-1663.5,-2428.8,-1122.0,-121.8,-6.9,-5.7,-834.3,-1964.4,-0.6,-505.2,-702.9,252.6,0,336,0,201,0, 
0.1900,34.2,-730.8,-154.8,345.6,116.1,536.1,-418.5,215.7,518.7,-1020.6,218.4,75.0,-1653.9,-2410.8,-1126.2,-130.2,-6.9,-6.3,-831.9,-1962.3,-0.6,-504.6,-704.7,257.1,0,342,0,202,0, 
0.1933,31.8,-744.3,-168.9,325.8,102.3,521.4,-430.2,203.4,592.8,-1039.8,193.2,50.7,-1666.8,-2392.2,-1089.6,-134.1,-7.2,-6.0,-851.4,-1985.1,-0.3,-526.8,-720.6,237.0,0,348,0,203,0, 
0.1967,32.1,-742.2,-166.8,331.8,106.8,524.7,-429.6,206.4,666.9,-1028.4,204.3,63.3,-1664.4,-2404.2,-1106.7,-122.4,-6.3,-5.7,-845.4,-1979.1,-1.2,-519.9,-703.5,239.7,0,354,0,204,0, 
0.2000,23.1,-733.8,-151.5,343.2,120.0,537.3,-415.8,215.4,666.9,-1010.4,222.3,73.5,-1654.8,-2447.7,-1150.2,-115.5,-6.9,-6.0,-827.7,-1967.1,-0.6,-493.2,-678.9,260.4,0,360,0,205,0, 
0.2033,31.2,-738.0,-161.7,334.2,104.7,523.2,-425.4,206.1,518.7,-1015.5,207.9,60.0,-1655.1,-2424.0,-1117.8,-120.6,-6.6,-6.0,-837.0,-1977.6,-0.9,-509.7,-727.2,239.4,0,366,0,206,0, 
0.2067,32.1,-733.8,-151.2,345.9,115.8,532.8,-421.5,212.4,518.7,-999.6,218.1,75.9,-1650.6,-2433.6,-1127.1,-106.8,-7.2,-6.0,-826.8,-1965.6,-0.6,-492.0,-703.2,252.6,0,372,0,207,0, 
0.2100,28.8,-735.6,-155.4,348.3,117.6,529.5,-423.6,213.0,666.9,-1012.8,214.5,72.3,-1656.3,-2432.4,-1120.2,-105.9,-6.9,-5.7,-834.0,-1968.0,-0.6,-498.3,-703.2,250.8,0,378,0,208,0, 
0.2133,29.7,-736.8,-153.9,349.8,118.5,526.5,-420.0,212.1,741.0,-1017.6,218.7,72.3,-1653.9,-2416.8,-1111.8,-122.7,-6.9,-5.7,-831.0,-1967.7,-0.9,-505.8,-705.3,248.4,0,384,0,209,0, 
0.2167,22.5,-740.1,-157.8,344.7,111.9,519.9,-419.4,211.2,518.7,-1022.1,210.3,63.9,-1656.3,-2414.4,-1115.4,-111.6,-6.6,-5.7,-842.4,-1973.1,-0.6,-499.5,-707.4,242.7,0,390,0,210,0, 
0.2200,22.5,-741.9,-160.2,342.0,111.3,522.0,-425.1,210.0,518.7,-1009.2,210.0,66.0,-1662.6,-2417.1,-1116.6,-114.0,-6.6,-5.7,-840.0,-1977.3,-0.6,-509.1,-709.5,243.6,0,396,0,211,0, 
0.2233,27.0,-734.4,-154.2,345.0,109.8,524.1,-425.7,213.6,592.8,-1012.5,211.5,69.3,-1654.2,-2400.9,-1107.0,-110.1,-6.9,-5.7,-831.3,-1974.9,-0.6,-508.2,-705.0,240.0,0,402,0,212,0, 
0.2267,28.2,-742.2,-170.7,331.2,102.0,511.5,-436.5,202.8,592.8,-1036.2,196.8,51.6,-1664.4,-2392.5,-1073.1,-121.8,-6.6,-6.0,-852.0,-1992.0,-0.6,-516.6,-726.3,227.7,0,408,0,213,0, 
0.2300,23.1,-753.9,-186.6,315.0,91.5,501.0,-438.0,196.2,741.0,-1057.8,170.1,38.7,-1675.8,-2398.5,-1074.0,-100.2,-6.9,-5.7,-875.7,-1998.0,-0.3,-539.4,-719.4,226.8,0,414,0,214,0, 
0.2333,18.3,-730.8,-148.5,351.0,130.8,541.2,-410.1,224.4,741.0,-995.4,225.6,81.0,-1648.2,-2452.2,-1186.5,-105.6,-6.6,-6.0,-826.8,-1953.9,-0.6,-473.1,-681.6,269.1,0,420,0,215,0, 
0.2367,24.3,-730.8,-159.0,340.5,116.1,534.0,-410.4,214.5,444.6,-1001.7,227.4,81.9,-1654.5,-2433.0,-1144.5,-125.7,-6.9,-5.7,-828.9,-1958.7,-0.6,-488.1,-697.5,259.5,0,426,0,216,0, 
0.2400,26.7,-736.2,-165.9,329.7,105.9,524.4,-421.8,209.4,518.7,-1010.4,215.4,68.4,-1655.7,-2433.3,-1122.3,-120.6,-6.9,-5.7,-838.8,-1972.5,-0.6,-506.7,-698.4,248.1,0,432,0,217,0, 
0.2433,27.3,-735.3,-163.8,329.7,106.5,526.2,-416.7,208.5,666.9,-1017.6,209.7,56.4,-1651.2,-2436.9,-1129.2,-109.5,-6.6,-5.7,-850.2,-1979.4,-0.9,-516.3,-700.5,241.2,0,438,0,218,0, 
0.2467,22.5,-745.8,-177.9,315.9,93.9,510.3,-428.1,195.6,741.0,-1033.5,196.2,44.4,-1665.6,-2414.1,-1100.4,-121.2,-6.6,-6.0,-859.2,-1990.5,-0.6,-520.8,-719.1,232.5,0,444,0,219,0, 
0.2500,34.5,-722.7,-151.8,341.1,120.0,534.6,-411.6,215.4,666.9,-996.6,214.8,78.6,-1641.0,-2401.5,-1121.1,-135.0,-6.9,-5.7,-829.5,-1957.8,-0.6,-482.7,-696.3,263.1,0,450,0,220,0, 
0.2533,30.9,-737.4,-175.2,322.2,96.9,513.0,-418.8,200.1,370.5,-1028.4,203.7,56.1,-1653.9,-2404.5,-1108.2,-105.3,-6.9,-5.7,-850.5,-1985.1,-0.6,-519.6,-711.6,235.2,0,456,0,221,0, 
0.2567,30.6,-731.1,-154.5,342.6,119.4,531.6,-410.4,213.6,444.6,-997.8,226.2,79.8,-1655.7,-2442.6,-1139.7,-96.6,-6.9,-5.7,-830.4,-1962.6,-0.6,-489.0,-699.3,255.0,0,462,0,222,0, 
0.2600,37.8,-720.6,-146.1,355.2,141.0,543.0,-400.8,222.0,592.8,-981.6,234.9,95.7,-1642.5,-2440.8,-1146.3,-105.9,-6.9,-6.0,-813.6,-1944.0,-0.6,-474.6,-681.3,267.9,0,468,0,223,0, 
0.2633,34.8,-725.7,-150.3,342.9,129.3,531.0,-415.2,211.2,741.0,-997.2,227.4,84.6,-1643.4,-2410.8,-1116.6,-128.4,-6.9,-5.7,-827.7,-1957.8,-0.9,-486.0,-705.6,253.8,0,474,0,224,0, 
0.2667,24.3,-737.7,-158.1,331.8,111.3,522.9,-419.1,204.9,592.8,-1012.8,212.7,68.4,-1658.4,-2429.1,-1129.2,-114.0,-7.2,-5.7,-843.3,-1971.6,-0.6,-501.3,-721.8,245.7,0,480,0,225,0, 
0.2700,27.3,-735.6,-156.0,335.4,110.4,524.1,-419.7,204.9,666.9,-1004.4,217.8,74.7,-1659.9,-2440.8,-1133.1,-116.1,-6.6,-6.3,-832.8,-1965.3,-0.9,-491.1,-710.7,245.4,0,486,0,226,0, 
0.2733,22.8,-741.6,-170.1,322.8,99.6,513.6,-427.5,195.9,444.6,-1019.1,206.7,61.8,-1663.2,-2427.3,-1116.3,-123.3,-7.2,-5.7,-846.0,-1976.4,-0.6,-506.7,-726.6,236.7,0,492,0,227,0, 
0.2767,30.9,-744.9,-179.1,310.2,93.6,507.0,-431.4,186.6,666.9,-1030.8,193.5,45.3,-1665.3,-2393.4,-1070.4,-117.9,-6.3,-5.7,-862.5,-1990.5,-0.9,-526.5,-726.0,225.3,0,498,0,228,0, 
0.2800,24.0,-742.2,-172.2,321.9,102.9,511.8,-426.6,195.3,741.0,-1013.4,198.3,50.7,-1656.6,-2405.7,-1099.8,-107.4,-7.2,-5.4,-854.7,-1983.0,-0.9,-515.4,-719.7,232.8,0,504,0,229,0, 
0.2833,13.8,-744.3,-171.6,322.5,109.5,518.7,-417.0,198.6,592.8,-1009.8,208.5,68.1,-1663.8,-2448.9,-1136.1,-105.9,-6.9,-5.7,-846.3,-1970.1,-1.2,-501.9,-703.8,246.3,0,510,0,230,0, 
0.2867,11.7,-748.2,-173.4,323.1,101.4,519.3,-418.5,192.0,370.5,-1011.6,209.7,65.4,-1669.8,-2446.2,-1145.7,-100.8,-6.6,-5.7,-848.4,-1971.3,-0.9,-492.9,-703.5,246.0,0,516,0,231,0, 
0.2900,16.5,-745.5,-173.4,321.6,100.8,514.8,-428.7,192.0,370.5,-1007.7,205.8,63.0,-1668.9,-2430.9,-1137.0,-111.0,-6.9,-6.0,-850.8,-1971.3,-0.9,-505.8,-723.9,236.1,0,522,0,232,0, 
0.2933,21.0,-747.0,-175.8,316.8,98.1,511.5,-429.9,192.3,592.8,-1020.3,198.6,61.2,-1667.4,-2422.2,-1117.8,-118.8,-6.6,-6.0,-856.8,-1977.6,-0.6,-503.1,-711.0,235.5,0,528,0,233,0, 
0.2967,24.6,-743.7,-170.7,318.0,102.9,515.7,-426.3,197.7,666.9,-1020.0,201.9,65.7,-1668.0,-2431.5,-1115.4,-127.8,-6.9,-6.0,-856.2,-1973.1,-0.9,-495.0,-706.2,241.5,0,534,0,234,0, 
0.3000,26.4,-746.1,-180.9,309.3,95.1,507.9,-432.9,192.3,592.8,-1035.0,194.7,55.2,-1663.2,-2399.7,-1097.7,-103.8,-6.9,-6.0,-865.2,-1980.6,-0.3,-505.2,-714.0,225.9,0,540,0,235,0, 
0.3033,18.6,-736.8,-164.1,328.5,113.4,528.3,-420.0,201.9,444.6,-1008.0,216.0,77.4,-1657.5,-2458.5,-1154.4,-100.8,-6.6,-6.3,-841.8,-1958.7,-0.9,-486.3,-690.3,249.9,0,546,0,236,0, 
0.3067,31.2,-722.7,-149.1,339.9,126.0,536.1,-417.9,208.8,518.7,-984.3,225.6,85.5,-1635.0,-2433.6,-1146.6,-126.6,-6.6,-6.0,-828.9,-1947.9,-0.9,-482.7,-691.8,255.6,0,552,0,237,0, 
0.3100,27.6,-730.2,-165.0,328.8,117.9,528.6,-427.8,201.9,592.8,-1005.3,209.4,71.1,-1649.4,-2425.5,-1125.9,-132.3,-6.9,-5.7,-844.5,-1953.9,-0.6,-489.3,-701.7,245.7,0,558,0,238,0, 
0.3133,20.1,-738.9,-172.8,324.9,108.6,517.8,-432.6,197.7,741.0,-1016.1,205.8,65.4,-1656.6,-2423.1,-1130.4,-131.4,-6.6,-5.7,-852.9,-1968.0,-0.9,-500.4,-708.6,240.3,0,564,0,239,0, 
0.3167,27.9,-736.5,-163.8,325.5,107.7,519.6,-429.9,197.1,518.7,-1019.1,209.4,58.2,-1658.7,-2409.3,-1109.4,-116.4,-6.9,-5.7,-856.5,-1971.6,-0.9,-505.8,-702.3,238.2,0,570,0,240,0, 
0.3200,13.8,-741.3,-167.4,324.0,106.8,520.2,-431.7,199.8,518.7,-1026.0,209.1,67.2,-1656.9,-2430.3,-1140.3,-108.0,-6.9,-6.0,-856.5,-1969.8,-0.9,-499.2,-702.6,235.8,0,576,0,241,0, 
0.3233,24.9,-731.1,-162.9,327.6,112.8,525.0,-431.4,203.1,518.7,-1015.5,213.0,72.6,-1649.7,-2431.2,-1128.0,-128.1,-6.9,-6.0,-848.1,-1961.7,-0.3,-492.0,-705.9,243.9,0,582,0,242,0, 
0.3267,26.7,-735.3,-167.1,325.5,112.5,518.7,-432.0,204.3,518.7,-1011.9,206.7,67.8,-1647.3,-2412.3,-1120.2,-133.2,-6.6,-6.0,-852.0,-1966.8,-0.6,-500.7,-714.6,239.4,0,588,0,243,0, 
0.3300,25.2,-739.5,-168.6,321.9,114.9,520.2,-432.0,200.4,889.2,-1015.2,208.2,66.0,-1657.5,-2427.3,-1120.5,-120.6,-7.2,-5.7,-857.4,-1969.2,-0.6,-489.9,-709.8,241.8,0,594,0,244,0, 
0.3333,23.1,-746.7,-175.2,313.2,98.7,509.7,-437.4,194.1,518.7,-1038.0,192.0,51.0,-1667.4,-2406.9,-1082.4,-119.1,-6.6,-6.3,-875.4,-1981.8,-0.9,-507.0,-714.6,227.7,0,600,0,245,0, 
0.3367,19.8,-752.4,-179.1,309.0,96.3,509.4,-432.3,195.3,592.8,-1035.6,186.3,44.7,-1664.1,-2413.2,-1106.1,-123.3,-6.9,-5.7,-875.7,-1992.0,-0.9,-522.6,-728.1,223.2,0,606,0,246,0, 
0.3400,34.5,-737.4,-157.8,333.3,118.2,525.9,-417.9,212.1,444.6,-1005.0,205.5,67.2,-1644.6,-2407.2,-1112.4,-135.6,-6.9,-6.0,-848.7,-1968.6,-0.6,-504.9,-714.6,234.3,0,612,0,247,0, 
0.3433,32.4,-745.5,-169.5,327.3,114.6,520.2,-421.8,212.4,592.8,-1016.1,207.0,63.0,-1648.5,-2413.5,-1122.6,-133.2,-6.9,-5.4,-851.7,-1970.4,-0.9,-504.9,-722.4,227.4,0,618,0,248,0, 
0.3467,25.2,-742.8,-158.7,339.9,125.1,529.2,-417.0,215.7,741.0,-1000.5,222.9,75.6,-1643.1,-2434.2,-1146.3,-134.1,-6.9,-6.0,-841.2,-1955.4,-0.9,-483.3,-702.3,243.9,0,624,0,249,0, 
0.3500,7.5,-764.4,-174.0,323.7,111.0,516.9,-421.2,202.5,741.0,-1023.0,205.8,61.8,-1668.6,-2464.5,-1163.1,-141.6,-7.2,-5.4,-856.2,-1974.0,-0.6,-501.0,-705.9,228.6,0,630,0,250,0, 
0.3533,14.7,-766.5,-174.9,322.5,107.1,510.3,-433.2,198.0,518.7,-1032.3,204.3,58.8,-1668.9,-2439.0,-1135.8,-149.7,-6.9,-6.0,-858.3,-1976.7,-0.9,-503.1,-722.7,222.0,0,636,0,251,0, 
0.3567,15.6,-780.0,-191.7,303.9,87.6,493.2,-446.1,186.9,444.6,-1056.6,176.4,32.7,-1675.5,-2412.6,-1096.8,-150.9,-6.6,-5.7,-885.0,-2001.9,-0.9,-532.5,-736.8,198.3,0,642,0,252,0, 
0.3600,19.5,-771.6,-185.7,316.8,103.8,502.8,-432.6,193.5,592.8,-1043.4,183.6,50.4,-1670.1,-2419.8,-1098.3,-161.1,-6.6,-6.0,-874.8,-1986.3,-0.9,-515.7,-729.0,210.0,0,648,0,253,0, 
0.3633,20.4,-761.1,-159.0,332.4,118.8,519.3,-429.3,203.1,741.0,-1025.1,202.5,67.5,-1660.8,-2423.1,-1135.5,-153.9,-6.6,-6.0,-861.9,-1971.9,-0.9,-513.9,-714.0,227.1,0,654,0,254,0, 
0.3667,18.6,-761.1,-159.6,344.4,127.2,528.3,-421.2,211.5,666.9,-1011.3,207.9,71.7,-1657.2,-2462.4,-1150.8,-141.0,-6.6,-6.0,-855.6,-1968.0,-0.9,-500.7,-702.6,235.8,0,660,0,255,0, 
0.3700,21.9,-763.2,-164.7,341.4,122.1,530.1,-416.7,219.6,518.7,-1027.5,189.9,54.3,-1662.6,-2464.2,-1161.0,-138.6,-7.5,-5.7,-884.7,-1981.2,-0.6,-501.0,-700.8,238.5,0,666,0,0,0, 
0.3733,28.2,-762.6,-169.2,333.0,113.7,521.4,-423.0,209.7,444.6,-1028.1,192.6,44.7,-1660.8,-2438.7,-1129.5,-141.9,-6.9,-6.0,-873.3,-1997.4,-0.9,-511.2,-702.0,229.5,0,672,0,1,0, 
0.3767,30.6,-759.9,-160.2,334.8,113.1,516.9,-422.4,204.3,592.8,-1011.9,207.6,52.2,-1653.9,-2415.3,-1128.0,-141.0,-6.6,-5.7,-844.5,-1991.7,-0.6,-516.6,-711.3,225.3,0,678,0,2,0, 
0.3800,24.6,-759.3,-159.9,342.3,125.1,522.0,-425.4,205.2,666.9,-1010.1,222.6,74.1,-1652.7,-2442.3,-1155.9,-144.9,-7.2,-6.6,-822.3,-1978.5,-0.6,-499.2,-706.2,231.6,0,684,0,3,0, 
0.3833,24.9,-759.3,-158.1,338.4,120.3,522.0,-424.5,201.3,592.8,-1027.5,232.2,75.9,-1651.8,-2427.3,-1127.4,-142.8,-6.6,-6.0,-821.1,-1983.9,-1.2,-507.9,-706.2,230.1,0,690,0,4,0, 
0.3867,32.7,-751.5,-151.8,343.8,124.5,526.8,-411.3,209.1,592.8,-1010.7,243.0,77.7,-1638.0,-2441.4,-1144.8,-134.7,-6.9,-5.7,-806.7,-1994.7,-0.6,-506.1,-703.2,230.7,0,696,0,5,0, 
0.3900,25.8,-760.8,-162.0,329.7,113.1,518.1,-424.8,201.3,518.7,-1023.9,239.1,63.3,-1652.1,-2445.9,-1135.2,-133.2,-6.9,-6.0,-808.2,-2018.4,-0.3,-507.6,-720.3,223.5,0,702,0,6,0, 
0.3933,30.6,-762.3,-163.8,325.8,110.4,510.6,-423.0,197.7,666.9,-1040.1,232.2,58.5,-1658.1,-2414.7,-1104.9,-128.7,-6.6,-6.0,-804.9,-2026.2,-0.9,-523.2,-728.1,214.5,0,708,0,7,0, 
0.3967,32.1,-759.0,-159.6,323.7,108.3,507.6,-431.1,195.9,592.8,-1037.1,226.8,45.3,-1652.4,-2403.9,-1102.8,-150.9,-6.6,-5.7,-805.2,-2047.2,-0.9,-541.8,-732.6,207.3,0,714,0,8,0, 
0.4000,33.9,-756.9,-152.7,327.3,113.1,506.1,-432.3,196.5,592.8,-1025.7,248.7,59.7,-1646.7,-2400.3,-1100.1,-180.0,-6.6,-6.3,-786.3,-2044.2,-0.9,-541.8,-729.6,203.7,0,720,0,9,0, 
0.4033,45.6,-729.6,-113.1,367.8,150.0,543.3,-408.0,230.1,518.7,-970.2,297.6,103.2,-1609.5,-2432.1,-1156.8,-162.6,-6.6,-6.0,-728.4,-2005.5,-0.9,-479.1,-700.8,245.1,0,726,0,10,0, 
0.4067,33.6,-735.6,-118.8,362.7,138.3,535.2,-409.2,227.4,592.8,-970.8,290.4,90.9,-1618.8,-2442.9,-1168.5,-143.1,-6.6,-6.0,-730.8,-2021.4,-0.6,-489.3,-692.1,238.5,0,732,0,11,0, 
0.4100,31.5,-752.1,-147.9,332.7,110.7,511.5,-427.2,206.4,741.0,-1002.3,252.9,56.4,-1632.6,-2426.4,-1120.2,-148.2,-6.6,-5.7,-762.0,-2061.6,-1.2,-534.9,-719.4,207.9,0,738,0,12,0, 
0.4133,31.2,-750.9,-144.6,335.7,116.4,516.9,-423.9,208.2,666.9,-995.7,258.9,66.0,-1632.0,-2437.2,-1126.2,-158.7,-6.9,-5.7,-756.9,-2052.9,-0.3,-507.9,-708.0,217.2,0,744,0,13,0, 
0.4167,35.4,-750.0,-150.9,330.0,111.0,513.6,-429.3,204.6,592.8,-997.5,248.7,55.5,-1628.1,-2427.9,-1113.6,-141.9,-6.3,-6.0,-763.2,-2059.5,-0.9,-515.7,-719.7,218.4,0,750,0,14,0, 
0.4200,25.8,-748.8,-135.6,338.4,116.4,520.8,-425.4,208.5,444.6,-988.5,263.4,63.9,-1627.8,-2437.8,-1143.9,-153.0,-6.9,-6.3,-752.7,-2043.3,-0.9,-503.7,-708.6,222.3,0,756,0,15,0, 
0.4233,30.0,-747.9,-141.0,333.0,110.7,513.6,-426.0,211.5,370.5,-987.3,240.0,59.1,-1631.4,-2421.9,-1132.2,-145.5,-6.3,-5.7,-762.6,-2049.3,-0.6,-508.8,-720.3,215.7,0,762,0,16,0, 
0.4267,32.7,-742.5,-137.4,338.4,120.3,520.8,-421.5,213.3,741.0,-974.1,256.2,72.9,-1625.1,-2433.6,-1141.8,-150.3,-7.2,-5.4,-753.3,-2035.8,-0.3,-496.8,-709.2,231.0,0,768,0,17,0, 
0.4300,30.9,-752.4,-143.7,324.0,112.5,512.1,-426.9,203.7,666.9,-985.2,249.3,58.2,-1634.4,-2420.7,-1127.1,-147.9,-6.3,-6.0,-764.1,-2050.8,-0.6,-519.3,-720.0,219.3,0,774,0,18,0, 
0.4333,30.0,-757.2,-149.1,318.3,104.7,510.6,-427.5,198.0,666.9,-984.0,245.7,49.5,-1636.8,-2421.9,-1117.5,-141.6,-6.9,-5.7,-762.6,-2058.9,-0.3,-516.9,-714.3,219.9,0,780,0,19,0, 
0.4367,33.9,-754.2,-147.0,321.6,105.6,515.7,-425.1,202.5,444.6,-991.8,245.4,55.8,-1641.0,-2424.6,-1118.1,-140.1,-6.6,-5.7,-763.5,-2049.6,-0.9,-495.3,-705.6,225.9,0,786,0,20,0, 
0.4400,33.0,-762.3,-158.4,308.7,96.0,506.1,-430.2,197.7,518.7,-1004.7,227.1,40.5,-1641.9,-2415.3,-1115.7,-145.5,-6.9,-5.7,-780.9,-2064.6,-0.9,-513.3,-705.3,220.8,0,792,0,21,0, 
0.4433,34.5,-753.6,-146.1,325.5,110.4,517.2,-426.3,207.9,592.8,-987.3,236.4,51.0,-1636.2,-2425.8,-1125.0,-132.3,-6.6,-5.7,-770.1,-2051.4,-0.6,-503.1,-689.1,232.8,0,798,0,22,0, 
0.4467,34.5,-751.8,-150.9,318.6,104.1,508.2,-435.6,200.4,666.9,-989.7,227.7,48.9,-1637.1,-2412.6,-1111.2,-132.3,-6.9,-6.0,-777.6,-2053.8,-0.6,-511.2,-713.4,223.2,0,804,0,23,0, 
0.4500,30.3,-754.8,-148.5,317.7,104.1,510.6,-428.7,200.1,741.0,-1004.1,230.7,46.2,-1639.5,-2412.0,-1105.8,-126.9,-6.6,-6.0,-776.4,-2053.2,-0.6,-512.1,-709.5,224.7,0,810,0,24,0, 
0.4533,31.2,-746.1,-133.2,329.1,114.3,518.1,-422.4,213.6,370.5,-978.6,243.0,55.8,-1623.9,-2433.3,-1134.6,-115.2,-6.6,-6.0,-757.5,-2039.7,-0.9,-501.6,-699.0,230.7,0,816,0,25,0, 
0.4567,38.1,-737.4,-128.1,337.8,118.2,524.7,-422.1,214.5,370.5,-966.3,252.0,67.2,-1616.7,-2399.7,-1108.5,-133.5,-6.6,-6.0,-754.5,-2032.2,-0.9,-488.7,-701.4,237.6,0,822,0,26,0, 
0.4600,40.5,-756.3,-159.9,300.3,87.6,496.5,-445.5,189.6,741.0,-1008.0,221.1,31.2,-1624.8,-2380.5,-1048.8,-145.2,-6.9,-6.0,-784.2,-2069.4,-0.3,-531.3,-735.0,200.4,0,828,0,27,0, 
0.4633,48.6,-738.9,-144.0,315.6,110.4,513.6,-432.9,207.6,815.1,-989.4,239.7,52.8,-1602.9,-2372.7,-1094.1,-138.9,-6.9,-5.4,-767.1,-2046.6,-0.6,-503.1,-722.1,220.5,0,834,0,28,0, 
0.4667,35.4,-735.3,-134.1,328.5,123.6,530.7,-419.4,214.2,592.8,-969.9,260.1,72.0,-1608.3,-2452.8,-1150.5,-122.7,-6.9,-5.7,-750.9,-2026.2,-1.2,-475.8,-692.7,241.8,0,840,0,29,0, 
0.4700,27.9,-743.4,-141.6,315.6,111.9,520.8,-420.6,205.8,370.5,-969.6,244.8,56.7,-1629.3,-2455.5,-1141.2,-107.1,-6.9,-5.4,-762.6,-2043.6,-0.9,-489.6,-692.7,234.0,0,846,0,30,0, 
0.4733,30.3,-741.9,-143.1,311.7,105.6,514.8,-430.5,205.2,444.6,-971.4,245.1,59.1,-1625.7,-2437.2,-1134.6,-138.6,-6.9,-6.0,-762.9,-2044.2,-0.9,-490.8,-719.7,216.3,0,852,0,31,0, 
0.4767,31.5,-740.1,-136.2,315.0,115.2,515.7,-434.4,213.3,666.9,-978.0,246.6,60.3,-1619.4,-2427.6,-1144.5,-154.5,-7.2,-6.6,-764.1,-2036.4,-1.2,-477.6,-720.6,227.7,0,858,0,32,0, 
0.4800,32.1,-750.6,-154.2,296.7,95.7,497.1,-445.5,192.6,666.9,-1005.0,223.2,36.9,-1632.0,-2403.6,-1102.5,-148.2,-6.9,-5.7,-786.6,-2071.5,-0.6,-516.6,-745.5,204.6,0,864,0,33,0, 
0.4833,36.9,-745.5,-152.4,297.9,95.4,494.1,-438.9,193.8,518.7,-988.8,222.9,33.6,-1629.6,-2402.7,-1089.3,-139.5,-6.6,-6.0,-780.6,-2067.6,-0.9,-531.6,-740.1,199.5,0,870,0,34,0, 
0.4867,24.6,-750.3,-146.1,306.3,102.6,507.0,-432.6,198.9,444.6,-999.0,226.8,42.6,-1638.3,-2429.7,-1130.7,-134.4,-7.2,-5.7,-781.5,-2052.9,-0.9,-514.5,-721.5,210.9,0,876,0,35,0, 
0.4900,22.2,-758.1,-160.2,294.3,93.3,498.3,-436.5,196.5,370.5,-1016.7,213.6,25.5,-1646.1,-2418.3,-1097.7,-124.2,-6.6,-5.7,-801.3,-2071.2,-0.6,-518.4,-734.1,203.7,0,882,0,36,0, 
0.4933,24.3,-753.3,-149.1,302.7,106.2,506.1,-441.6,198.3,666.9,-999.0,223.8,41.1,-1638.6,-2434.2,-1128.6,-127.8,-6.9,-5.7,-780.9,-2055.3,-0.9,-505.2,-726.9,205.8,0,888,0,37,0, 
0.4967,26.1,-746.4,-143.4,309.6,111.6,508.2,-433.5,204.6,741.0,-979.2,228.3,43.5,-1621.2,-2423.1,-1140.9,-137.7,-6.6,-5.7,-776.7,-2055.3,-0.9,-499.8,-721.2,222.0,0,894,0,38,0, 
0.5000,21.9,-755.7,-150.0,298.5,98.1,497.7,-442.8,194.1,666.9,-975.9,224.1,36.3,-1635.6,-2416.8,-1119.0,-145.5,-6.6,-6.3,-778.5,-2065.5,-0.9,-523.5,-731.7,209.7,0,900,0,39,0, 
0.5033,31.5,-756.0,-162.0,297.9,92.7,494.4,-442.2,193.5,370.5,-996.6,219.9,32.7,-1633.5,-2409.0,-1101.6,-144.6,-6.9,-5.7,-791.4,-2070.6,-0.6,-514.8,-744.3,209.7,0,906,0,40,0, 
0.5067,27.9,-757.5,-163.8,295.2,94.8,498.0,-437.4,190.2,518.7,-993.3,218.1,27.6,-1640.7,-2419.2,-1122.0,-143.4,-6.9,-6.3,-796.2,-2069.1,-0.9,-511.8,-723.0,217.5,0,912,0,41,0, 
0.5100,30.6,-767.1,-178.5,276.9,77.7,477.6,-453.0,171.9,592.8,-1016.4,198.0,6.3,-1650.0,-2396.7,-1078.8,-144.6,-6.9,-5.7,-817.5,-2093.4,-0.6,-544.5,-761.1,184.8,0,918,0,42,0, 
0.5133,26.1,-763.5,-170.7,285.9,86.7,490.5,-435.0,182.1,741.0,-1009.2,197.1,17.1,-1647.3,-2404.2,-1112.1,-144.0,-7.2,-5.7,-811.8,-2087.1,-1.2,-531.3,-741.6,201.0,0,924,0,43,0, 
0.5167,25.2,-760.2,-169.8,285.6,88.5,490.5,-440.7,179.4,666.9,-1003.8,198.3,15.0,-1644.9,-2433.0,-1138.2,-139.5,-6.9,-6.0,-808.5,-2088.3,-0.9,-526.8,-738.3,199.2,0,930,0,44,0, 
0.5200,21.3,-755.4,-158.7,291.6,88.2,501.9,-428.7,190.5,444.6,-1003.2,196.5,21.9,-1645.8,-2439.0,-1149.0,-135.3,-6.9,-5.7,-811.2,-2073.3,-0.9,-521.7,-721.5,208.2,0,936,0,45,0, 
0.5233,25.5,-755.7,-160.8,290.4,84.3,494.4,-434.7,188.7,444.6,-1007.7,211.5,22.5,-1650.9,-2433.3,-1122.6,-124.2,-6.6,-6.0,-805.2,-2075.4,-0.9,-528.6,-736.5,201.9,0,942,0,46,0, 
0.5267,30.3,-750.3,-158.7,294.9,90.9,497.1,-431.4,191.1,666.9,-1004.1,215.4,27.3,-1638.6,-2418.3,-1119.0,-125.4,-6.9,-5.7,-801.3,-2071.2,-0.6,-520.8,-735.3,202.8,0,948,0,47,0, 
0.5300,29.1,-747.0,-150.9,301.8,103.8,500.1,-441.0,197.4,815.1,-1001.4,223.8,38.4,-1637.7,-2426.4,-1137.0,-134.7,-6.6,-5.4,-788.4,-2061.6,-0.6,-523.5,-728.4,207.6,0,954,0,48,0, 
0.5333,36.9,-730.2,-138.6,316.8,112.5,511.5,-425.7,211.2,518.7,-975.9,238.2,49.8,-1614.6,-2424.0,-1142.7,-138.9,-6.9,-6.0,-773.1,-2052.0,-0.9,-514.8,-716.4,217.5,0,960,0,49,0, 
0.5367,42.3,-736.5,-144.9,308.1,101.1,502.8,-433.2,200.4,296.4,-999.0,221.7,36.6,-1626.9,-2410.5,-1119.9,-134.7,-6.9,-6.0,-791.4,-2064.0,-0.6,-511.8,-716.7,212.4,0,966,0,50,0, 
0.5400,44.1,-729.3,-140.4,311.7,112.8,507.0,-432.6,209.4,444.6,-990.3,229.5,41.1,-1615.8,-2405.7,-1124.4,-131.1,-6.9,-5.7,-780.3,-2054.7,-0.9,-504.9,-716.4,219.9,0,972,0,51,0, 
0.5433,48.3,-718.5,-129.6,324.9,125.7,517.8,-426.3,217.8,666.9,-972.0,246.9,54.9,-1604.7,-2416.8,-1122.9,-120.0,-6.6,-5.4,-767.1,-2043.6,-0.6,-501.6,-719.4,223.5,0,978,0,52,0, 
0.5467,50.1,-720.6,-136.5,320.1,118.2,510.0,-431.1,216.0,741.0,-994.8,229.8,45.3,-1621.8,-2403.0,-1102.2,-124.8,-6.9,-6.3,-781.8,-2055.0,-0.6,-511.2,-722.7,218.1,0,984,0,53,0, 
0.5500,46.8,-727.8,-140.4,311.1,108.3,502.5,-432.6,211.2,741.0,-1003.8,219.6,33.6,-1622.4,-2383.2,-1083.0,-128.4,-6.6,-5.7,-794.1,-2064.0,-0.6,-522.3,-727.5,215.7,0,990,0,54,0, 
0.5533,43.5,-730.2,-144.6,309.3,101.1,505.2,-436.2,210.0,370.5,-1000.8,219.0,33.6,-1622.4,-2400.6,-1077.9,-123.6,-6.9,-5.7,-786.6,-2063.1,-0.9,-518.4,-720.9,218.7,0,996,0,55,0, 
0.5567,38.7,-733.5,-137.7,311.7,110.4,509.1,-434.1,213.0,518.7,-987.6,227.1,43.5,-1628.4,-2413.2,-1128.9,-113.7,-6.9,-5.4,-777.3,-2052.0,-0.9,-515.7,-727.5,215.1,0,1002,0,56,0, 
0.5600,39.6,-725.4,-127.5,320.7,120.3,517.5,-424.8,219.6,666.9,-975.6,228.9,53.7,-1627.2,-2415.0,-1140.9,-124.5,-6.9,-5.1,-769.2,-2045.7,-0.6,-500.7,-715.2,227.7,0,1008,0,57,0, 
0.5633,36.9,-727.2,-125.4,321.6,123.0,521.1,-427.8,221.4,666.9,-969.9,236.4,54.6,-1619.4,-2426.7,-1143.0,-127.2,-6.6,-5.7,-764.1,-2043.9,-0.6,-502.8,-711.9,228.6,0,1014,0,58,0, 
0.5667,32.1,-732.3,-132.6,314.7,116.7,513.9,-421.5,216.3,518.7,-986.1,237.0,49.8,-1621.2,-2426.7,-1123.5,-112.5,-6.9,-5.7,-775.2,-2043.9,-0.9,-504.3,-704.4,223.5,0,1020,0,59,0, 
0.5700,38.4,-736.5,-140.4,309.6,110.1,508.8,-423.0,213.3,444.6,-983.7,234.0,45.3,-1624.5,-2405.7,-1098.6,-116.1,-6.6,-6.0,-779.4,-2056.5,-0.6,-524.1,-717.3,213.3,0,1026,0,60,0, 
0.5733,36.3,-736.8,-130.2,307.2,108.0,514.2,-426.0,216.0,518.7,-988.5,234.0,44.1,-1631.7,-2416.8,-1113.6,-116.1,-7.2,-6.0,-784.5,-2050.5,-0.6,-521.4,-710.1,216.9,0,1032,0,61,0, 
0.5767,41.7,-729.3,-129.3,311.4,117.9,514.5,-418.5,220.8,666.9,-978.6,233.4,50.7,-1624.2,-2405.7,-1116.6,-132.9,-7.2,-6.0,-776.1,-2046.0,-0.6,-495.9,-719.7,217.5,0,1038,0,62,0, 
0.5800,44.4,-741.6,-149.4,289.8,104.1,501.6,-429.9,207.6,741.0,-1004.4,215.7,32.7,-1635.0,-2381.4,-1071.6,-133.8,-6.9,-6.0,-798.9,-2061.6,-0.9,-530.1,-736.2,208.5,0,1044,0,63,0, 
0.5833,37.8,-740.1,-141.9,298.5,101.7,505.8,-431.4,207.9,518.7,-998.4,216.6,37.8,-1635.3,-2398.5,-1093.5,-138.3,-6.6,-6.3,-797.4,-2063.1,-0.6,-515.4,-727.2,207.9,0,1050,0,64,0, 
0.5867,31.8,-730.2,-130.2,315.3,117.3,523.5,-416.4,221.7,370.5,-965.4,228.9,48.9,-1624.2,-2437.5,-1153.8,-123.9,-6.9,-6.0,-775.8,-2046.9,-1.2,-498.6,-710.1,225.0,0,1056,0,65,0, 
0.5900,34.8,-732.9,-138.6,305.4,113.7,516.6,-419.7,213.0,370.5,-978.3,228.6,46.2,-1623.9,-2425.8,-1132.2,-125.7,-6.9,-6.0,-776.7,-2053.5,-1.2,-505.2,-702.9,224.4,0,1062,0,66,0, 
0.5933,32.1,-733.5,-137.4,307.8,116.7,513.6,-420.0,209.7,666.9,-975.3,231.6,49.2,-1620.0,-2425.8,-1138.5,-120.0,-6.6,-6.3,-772.5,-2045.7,-0.9,-510.0,-711.6,218.7,0,1068,0,67,0, 
0.5967,24.0,-745.2,-153.9,289.8,98.1,501.3,-429.6,193.5,666.9,-1006.2,216.3,34.8,-1635.0,-2428.2,-1118.1,-112.5,-6.9,-6.3,-796.2,-2055.3,-0.6,-521.4,-717.6,209.1,0,1074,0,68,0, 
0.6000,32.1,-743.7,-153.0,289.2,95.7,495.3,-437.7,194.1,592.8,-997.8,218.4,34.8,-1636.2,-2416.8,-1104.0,-129.0,-6.9,-6.0,-791.4,-2058.9,-0.6,-523.5,-741.0,202.5,0,1080,0,69,0, 
0.6033,42.3,-722.1,-128.7,312.6,117.0,517.5,-424.2,216.9,296.4,-977.4,229.5,55.8,-1614.0,-2417.7,-1124.7,-126.9,-7.5,-6.0,-773.1,-2039.4,-0.9,-498.6,-706.8,224.4,0,1086,0,70,0, 
0.6067,39.3,-726.3,-125.4,312.3,117.0,514.5,-426.6,214.2,444.6,-974.1,240.9,58.5,-1613.4,-2404.5,-1117.2,-134.1,-6.6,-6.0,-766.2,-2034.3,-0.9,-499.5,-725.1,216.9,0,1092,0,71,0, 
0.6100,50.1,-723.3,-121.2,315.0,126.9,519.9,-423.3,219.6,815.1,-972.9,237.0,54.3,-1611.6,-2400.0,-1102.8,-136.5,-6.9,-6.0,-764.7,-2041.2,-0.6,-501.6,-716.4,225.0,0,1098,0,72,0, 
0.6133,40.5,-728.1,-118.2,314.7,124.2,520.2,-423.0,220.5,741.0,-972.0,246.0,53.4,-1619.1,-2412.0,-1129.8,-121.2,-6.9,-6.0,-758.7,-2043.6,-1.2,-503.4,-711.3,224.1,0,1104,0,73,0, 
0.6167,45.3,-729.9,-131.1,307.2,121.8,520.2,-419.7,219.0,741.0,-987.9,237.9,48.3,-1624.2,-2406.6,-1106.4,-107.4,-7.2,-6.3,-779.4,-2042.4,-0.9,-498.9,-713.4,219.9,0,1110,0,74,0, 
0.6200,53.4,-721.8,-126.6,304.2,114.9,518.7,-420.6,217.2,518.7,-982.5,241.2,45.9,-1615.8,-2390.4,-1097.7,-128.7,-6.9,-6.0,-769.2,-2043.6,-0.6,-510.0,-729.6,218.7,0,1116,0,75,0, 
0.6233,51.3,-717.3,-120.0,315.3,134.4,530.1,-415.2,220.8,444.6,-969.0,252.3,59.1,-1610.7,-2414.4,-1123.8,-118.5,-6.3,-5.7,-758.4,-2031.3,-0.9,-489.0,-705.0,236.7,0,1122,0,76,0, 
0.6267,42.9,-728.4,-128.1,302.1,120.0,515.1,-424.8,212.1,666.9,-984.3,234.0,45.9,-1614.9,-2413.8,-1120.5,-134.4,-6.3,-5.7,-777.3,-2049.3,-0.6,-516.9,-716.1,216.3,0,1128,0,77,0, 
0.6300,42.9,-734.1,-144.0,295.5,113.1,511.8,-426.6,205.2,815.1,-994.5,220.5,36.9,-1619.4,-2403.6,-1108.2,-136.8,-6.6,-5.7,-780.9,-2055.3,-0.6,-521.7,-722.4,210.6,0,1134,0,78,0, 
0.6333,45.9,-728.4,-134.1,297.6,108.0,511.8,-428.7,211.8,518.7,-976.5,234.0,44.7,-1621.5,-2407.5,-1112.1,-135.0,-6.6,-6.0,-775.2,-2052.9,-0.9,-520.5,-720.9,211.2,0,1140,0,79,0, 
0.6367,41.1,-735.6,-139.8,292.5,106.8,513.9,-425.4,208.5,370.5,-984.0,226.5,44.4,-1632.6,-2418.6,-1117.2,-134.1,-7.2,-5.7,-779.4,-2050.2,-0.3,-516.3,-727.8,212.4,0,1146,0,80,0, 
0.6400,46.8,-726.3,-132.0,301.2,114.3,519.6,-426.3,218.4,518.7,-979.5,231.0,49.2,-1618.8,-2405.7,-1122.0,-134.1,-6.3,-6.0,-771.9,-2047.8,-0.9,-509.7,-725.4,215.7,0,1152,0,81,0, 
0.6433,40.5,-733.5,-131.1,301.8,117.3,519.6,-425.7,213.0,666.9,-979.2,234.3,50.1,-1623.0,-2410.8,-1139.1,-138.6,-6.9,-5.4,-769.2,-2043.0,-0.6,-504.3,-720.0,214.5,0,1158,0,82,0, 
0.6467,45.0,-739.5,-150.0,283.8,97.5,501.3,-432.0,202.2,741.0,-1004.1,219.6,33.0,-1628.7,-2384.4,-1081.5,-130.5,-6.6,-6.3,-792.6,-2064.6,-0.3,-536.1,-726.6,196.5,0,1164,0,83,0, 
0.6500,34.5,-734.4,-133.5,296.4,111.0,517.8,-424.8,211.5,666.9,-976.8,235.5,44.7,-1619.4,-2434.8,-1143.6,-117.9,-7.2,-6.0,-772.2,-2046.9,-0.6,-513.3,-705.3,221.1,0,1170,0,84,0, 
0.6533,33.6,-731.1,-130.2,304.8,119.4,529.2,-416.7,219.6,296.4,-976.5,237.9,57.0,-1625.7,-2448.0,-1152.3,-125.1,-6.6,-5.4,-767.4,-2038.8,-0.6,-491.7,-689.1,235.2,0,1176,0,85,0, 
0.6567,41.1,-734.4,-135.9,297.6,114.9,522.3,-419.4,213.3,518.7,-991.8,234.6,47.1,-1627.5,-2407.8,-1117.8,-135.6,-6.6,-5.7,-776.4,-2047.8,-0.6,-496.8,-708.3,226.5,0,1182,0,86,0, 
0.6600,42.3,-731.4,-133.8,302.4,121.2,524.1,-418.2,216.3,666.9,-976.2,230.1,51.6,-1620.6,-2400.9,-1125.9,-137.1,-6.9,-5.7,-771.3,-2036.7,-0.6,-497.4,-710.4,226.5,0,1188,0,87,0, 
0.6633,40.2,-730.5,-135.0,298.2,116.1,518.7,-420.6,214.2,815.1,-986.4,236.1,47.1,-1621.5,-2408.4,-1110.3,-127.2,-7.2,-6.3,-771.0,-2044.8,-0.6,-517.5,-714.0,219.6,0,1194,0,88,0, 
0.6667,44.7,-729.6,-133.5,300.3,114.9,516.0,-419.4,217.5,741.0,-981.9,241.2,54.0,-1620.6,-2394.6,-1098.0,-125.1,-6.9,-5.7,-771.9,-2040.6,-0.9,-507.0,-705.9,225.9,0,1200,0,89,0, 
0.6700,39.6,-722.7,-120.9,314.1,123.0,527.7,-416.4,223.5,592.8,-970.5,259.2,65.4,-1616.7,-2412.0,-1131.6,-123.9,-6.6,-6.0,-757.2,-2033.7,-0.9,-495.3,-700.8,231.3,0,1206,0,90,0, 
0.6733,38.1,-731.4,-134.1,306.3,120.0,520.8,-420.6,218.4,592.8,-982.8,245.1,57.0,-1625.7,-2398.5,-1113.3,-129.0,-6.6,-5.7,-768.0,-2037.6,-0.6,-508.8,-718.5,219.6,0,1212,0,91,0, 
0.6767,42.3,-726.9,-127.8,311.4,131.1,527.1,-411.3,225.6,741.0,-981.3,247.2,61.8,-1621.5,-2402.4,-1106.4,-114.9,-6.9,-6.0,-765.3,-2034.3,-0.9,-498.3,-709.2,226.2,0,1218,0,92,0, 
0.6800,44.1,-727.8,-132.0,306.9,128.1,526.5,-420.3,221.7,741.0,-980.4,241.8,61.5,-1625.4,-2396.1,-1097.4,-123.0,-6.9,-6.0,-765.0,-2034.0,-0.6,-503.7,-712.8,221.7,0,1224,0,93,0, 
0.6833,41.7,-723.9,-123.9,315.9,134.7,535.8,-411.3,228.3,518.7,-964.8,261.0,78.0,-1620.0,-2400.0,-1110.9,-129.3,-7.2,-6.0,-751.5,-2018.7,-0.9,-489.0,-699.0,233.7,0,1230,0,94,0, 
0.6867,49.5,-717.0,-121.8,317.4,133.2,535.2,-409.2,228.3,518.7,-965.7,263.4,79.8,-1615.8,-2397.0,-1102.8,-118.8,-6.3,-5.7,-745.2,-2019.3,-0.9,-491.1,-696.3,238.8,0,1236,0,95,0, 
0.6900,46.2,-730.8,-123.9,310.8,125.7,526.5,-415.5,220.2,518.7,-984.6,246.3,62.4,-1629.0,-2384.1,-1075.5,-118.2,-6.9,-6.0,-762.0,-2035.5,-0.6,-511.2,-709.2,222.0,0,1242,0,96,0, 
0.6933,46.8,-725.1,-128.7,313.5,130.5,528.9,-415.8,220.8,592.8,-992.4,254.4,67.5,-1622.7,-2382.3,-1081.5,-123.6,-6.6,-6.0,-761.4,-2028.6,-0.9,-510.9,-709.5,222.9,0,1248,0,97,0, 
0.6967,51.0,-720.3,-129.0,315.9,131.7,528.0,-413.1,227.4,815.1,-981.3,257.4,64.8,-1614.9,-2371.8,-1076.1,-122.7,-6.9,-6.0,-757.5,-2031.9,-0.6,-510.3,-708.3,224.4,0,1254,0,98,0, 
0.7000,51.3,-721.2,-128.7,313.5,129.0,529.5,-412.8,222.0,666.9,-984.3,248.1,61.5,-1615.8,-2387.1,-1093.5,-120.6,-6.9,-6.0,-763.2,-2037.6,-1.2,-522.0,-694.5,227.1,0,1260,0,99,0, 
0.7033,42.6,-714.6,-117.3,323.4,139.8,546.3,-404.4,226.2,370.5,-968.1,257.4,76.5,-1616.7,-2405.1,-1120.8,-110.4,-6.9,-6.0,-751.2,-2019.0,-0.9,-501.6,-677.7,240.6,0,1266,0,100,0, 
0.7067,38.7,-728.7,-125.1,311.7,136.2,533.7,-414.9,216.0,444.6,-983.1,251.7,66.9,-1636.2,-2415.9,-1119.0,-112.2,-6.6,-5.7,-762.9,-2024.1,-0.6,-500.7,-702.9,225.0,0,1272,0,101,0, 
0.7100,38.7,-718.5,-114.6,326.4,149.1,545.1,-405.6,227.4,815.1,-965.1,267.3,84.0,-1627.5,-2415.9,-1132.8,-106.2,-6.9,-6.0,-748.5,-2002.8,-0.9,-480.0,-688.8,243.9,0,1278,0,102,0, 
0.7133,44.7,-719.4,-125.7,308.7,132.3,525.6,-412.8,217.5,815.1,-981.0,246.6,71.1,-1628.4,-2397.9,-1089.0,-105.0,-7.2,-6.0,-759.9,-2021.4,-0.6,-509.1,-705.3,221.4,0,1284,0,103,0, 
0.7167,46.2,-722.7,-126.0,308.4,130.8,526.8,-417.3,219.6,666.9,-986.1,247.8,67.8,-1625.4,-2401.5,-1098.3,-115.2,-6.6,-5.7,-767.1,-2024.1,-0.9,-500.1,-708.0,228.3,0,1290,0,104,0, 
0.7200,42.3,-723.9,-122.1,313.5,131.4,533.1,-410.7,217.2,444.6,-983.7,253.8,74.4,-1628.7,-2415.3,-1124.7,-114.9,-6.6,-5.7,-756.0,-2017.2,-0.9,-491.4,-697.8,231.6,0,1296,0,105,0, 
0.7233,43.5,-726.0,-123.3,312.6,133.2,531.6,-420.0,218.7,370.5,-977.4,252.3,66.3,-1628.1,-2410.8,-1117.5,-123.0,-6.9,-6.0,-758.1,-2025.0,-0.9,-496.5,-702.6,226.5,0,1302,0,106,0, 
0.7267,42.3,-723.9,-119.1,316.2,137.4,534.9,-412.5,221.7,666.9,-982.5,246.0,71.4,-1630.5,-2433.9,-1137.9,-107.1,-6.9,-5.7,-766.8,-2022.9,-0.6,-508.8,-697.8,228.9,0,1308,0,107,0, 
0.7300,32.4,-730.8,-129.9,308.7,129.0,525.3,-418.8,213.3,741.0,-990.6,244.8,64.8,-1640.1,-2438.1,-1148.1,-106.5,-6.6,-6.0,-770.4,-2028.3,-0.6,-512.7,-703.8,224.1,0,1314,0,108,0, 
0.7333,42.3,-719.1,-119.7,319.8,139.5,537.3,-408.3,224.4,741.0,-970.2,262.2,73.5,-1621.5,-2418.3,-1129.2,-131.7,-6.6,-6.0,-746.4,-2016.6,-1.2,-506.1,-703.8,232.8,0,1320,0,109,0, 
0.7367,40.8,-718.2,-116.7,321.0,135.0,536.7,-413.4,227.4,518.7,-978.9,249.3,69.0,-1620.6,-2414.1,-1118.4,-141.9,-6.6,-5.7,-753.0,-2021.4,-0.6,-502.2,-701.4,236.7,0,1326,0,110,0, 
0.7400,49.2,-716.4,-120.9,316.8,137.4,536.4,-412.5,226.5,518.7,-982.8,249.0,69.3,-1623.0,-2411.1,-1109.4,-131.4,-6.9,-5.7,-756.9,-2029.5,-0.6,-492.6,-700.2,234.3,0,1332,0,111,0, 
0.7433,40.5,-723.9,-122.7,315.0,131.7,535.2,-416.7,226.2,592.8,-987.3,243.6,60.9,-1630.8,-2426.1,-1122.9,-130.5,-7.2,-5.7,-768.9,-2030.1,-0.6,-500.1,-692.7,233.1,0,1338,0,112,0, 
0.7467,35.4,-733.5,-129.9,301.5,123.9,520.5,-423.0,214.8,815.1,-997.5,240.6,49.8,-1639.2,-2440.8,-1133.7,-132.0,-6.9,-6.3,-776.7,-2038.2,-0.9,-521.7,-712.2,216.3,0,1344,0,113,0, 
0.7500,39.9,-722.1,-123.6,311.4,137.1,539.4,-409.2,230.4,592.8,-987.6,248.4,70.5,-1630.2,-2434.2,-1131.0,-125.4,-6.9,-5.7,-766.8,-2020.2,-0.6,-499.8,-688.8,234.9,0,1350,0,114,0, 
0.7533,44.1,-720.3,-123.3,311.7,132.3,534.0,-411.9,228.6,518.7,-985.2,245.1,70.2,-1627.8,-2431.5,-1115.1,-119.1,-6.6,-6.0,-769.5,-2022.0,-1.2,-505.5,-708.9,230.7,0,1356,0,115,0, 
0.7567,48.0,-715.5,-121.8,316.5,135.0,533.1,-408.6,234.9,518.7,-990.0,250.8,68.7,-1622.7,-2415.3,-1115.7,-120.6,-6.6,-5.7,-762.9,-2023.5,-0.6,-505.8,-702.0,230.4,0,1362,0,116,0, 
0.7600,40.5,-726.9,-128.7,307.5,122.4,521.1,-416.1,223.8,666.9,-1001.4,241.5,50.1,-1635.3,-2415.0,-1099.8,-126.3,-7.2,-6.3,-780.0,-2043.0,-0.6,-525.0,-716.7,217.8,0,1368,0,117,0, 
0.7633,36.0,-727.2,-129.9,305.7,122.7,516.3,-419.4,221.4,741.0,-998.4,224.1,49.2,-1644.0,-2413.8,-1107.3,-131.7,-6.6,-5.4,-782.4,-2045.1,-0.9,-526.2,-717.9,216.0,0,1374,0,118,0, 
0.7667,46.2,-724.8,-128.4,307.2,121.2,513.0,-422.1,216.3,518.7,-1002.3,223.2,47.4,-1632.9,-2385.3,-1074.3,-131.4,-6.6,-6.0,-780.9,-2047.2,-0.6,-529.5,-729.6,213.0,0,1380,0,119,0, 
0.7700,49.2,-726.0,-137.4,304.8,112.8,507.6,-428.4,214.8,444.6,-1021.5,228.0,46.2,-1626.9,-2372.7,-1073.1,-142.8,-6.9,-5.7,-788.1,-2047.8,-0.9,-537.6,-724.5,209.7,0,1386,0,120,0, 
0.7733,45.6,-708.9,-116.7,330.3,139.8,532.2,-414.6,231.0,444.6,-986.1,257.4,67.2,-1610.7,-2424.6,-1137.9,-135.3,-6.6,-5.7,-759.6,-2024.1,-0.6,-492.3,-710.1,237.3,0,1392,0,121,0, 
0.7767,41.7,-714.3,-114.0,331.8,144.9,533.4,-415.5,232.8,741.0,-978.3,258.3,72.6,-1623.3,-2435.4,-1151.4,-128.4,-6.9,-6.3,-753.0,-2015.1,-0.6,-489.6,-709.5,240.0,0,1398,0,122,0, 
0.7800,41.1,-716.1,-121.5,322.2,136.2,526.2,-416.4,223.5,889.2,-982.8,253.5,68.1,-1629.9,-2422.8,-1127.4,-120.6,-6.6,-6.0,-759.3,-2028.6,-0.9,-518.1,-709.8,234.0,0,1404,0,123,0, 
0.7833,45.9,-707.1,-116.7,332.7,147.3,538.8,-406.8,232.8,666.9,-966.3,264.9,76.8,-1621.5,-2439.6,-1131.6,-120.9,-6.6,-5.7,-742.2,-2016.0,-0.6,-487.2,-698.7,246.0,0,1410,0,124,0, 
0.7867,47.7,-723.3,-134.1,304.5,119.1,511.5,-427.5,213.6,370.5,-998.4,237.9,50.4,-1628.7,-2407.5,-1077.9,-125.4,-6.3,-6.0,-774.6,-2046.0,-0.6,-529.5,-733.2,216.3,0,1416,0,125,0, 
0.7900,40.5,-717.3,-122.7,318.3,135.9,525.6,-416.1,222.6,444.6,-981.9,251.7,64.8,-1626.6,-2411.7,-1112.4,-132.3,-6.9,-5.7,-761.4,-2026.5,-0.6,-498.9,-713.4,238.5,0,1422,0,126,0, 
0.7933,36.3,-721.8,-127.2,310.2,129.9,523.2,-422.4,216.6,666.9,-988.5,244.2,61.5,-1628.4,-2413.8,-1126.8,-125.1,-6.9,-5.4,-766.2,-2027.4,-0.6,-518.1,-715.5,230.4,0,1428,0,127,0, 
0.7967,35.7,-727.8,-137.1,304.2,126.6,519.3,-422.1,212.7,741.0,-999.3,241.8,55.5,-1635.6,-2424.3,-1106.4,-110.4,-6.9,-6.0,-771.6,-2043.0,-0.6,-519.6,-711.9,224.7,0,1434,0,128,0, 
0.8000,39.0,-725.4,-137.1,306.0,122.7,517.5,-418.8,216.0,741.0,-1000.5,235.5,51.9,-1632.9,-2408.4,-1102.5,-123.6,-6.9,-6.0,-770.4,-2034.9,-0.6,-514.5,-721.2,223.8,0,1440,0,129,0, 
0.8033,48.6,-704.7,-104.7,337.5,150.3,543.0,-406.2,234.3,370.5,-953.4,267.0,82.2,-1607.4,-2427.9,-1149.9,-132.3,-7.2,-6.0,-736.8,-2006.1,-0.3,-479.1,-692.7,249.6,0,1446,0,130,0, 
0.8067,45.0,-713.4,-124.8,321.0,138.0,533.1,-410.4,225.9,518.7,-974.4,264.9,76.8,-1618.8,-2428.8,-1126.2,-131.7,-6.6,-5.7,-748.5,-2015.7,-0.9,-494.4,-705.9,240.0,0,1452,0,131,0, 
0.8100,46.5,-717.9,-123.9,321.6,140.4,525.3,-418.2,221.7,592.8,-975.3,255.3,74.7,-1620.9,-2414.7,-1111.5,-129.0,-6.9,-6.0,-751.5,-2016.3,-1.2,-484.2,-716.1,236.4,0,1458,0,132,0, 
0.8133,45.3,-721.5,-138.0,313.5,130.5,518.7,-422.7,216.6,741.0,-987.0,247.5,60.0,-1624.2,-2413.5,-1106.4,-129.3,-6.3,-6.0,-757.5,-2031.6,-0.6,-522.6,-720.0,222.0,0,1464,0,133,0, 
0.8167,55.2,-708.6,-128.1,322.2,137.7,522.3,-418.8,226.2,666.9,-974.1,250.8,72.9,-1611.0,-2409.9,-1096.8,-121.5,-6.9,-6.0,-750.9,-2022.6,-0.9,-511.5,-714.3,225.9,0,1470,0,134,0, 
0.8200,54.6,-711.6,-128.7,322.2,136.8,525.9,-418.8,227.1,444.6,-984.9,252.0,70.5,-1611.3,-2405.1,-1093.2,-121.8,-6.6,-6.0,-753.0,-2023.2,-0.6,-504.9,-712.8,234.3,0,1476,0,135,0, 
0.8233,52.5,-710.1,-120.9,325.2,138.0,528.3,-416.4,231.3,444.6,-974.4,258.0,76.2,-1626.9,-2415.0,-1102.5,-123.3,-6.9,-5.7,-751.2,-2017.8,-0.6,-504.3,-708.0,233.1,0,1482,0,136,0, 
0.8267,51.0,-710.1,-130.8,322.5,138.6,526.8,-416.4,222.9,741.0,-981.9,252.0,73.2,-1624.5,-2408.4,-1103.1,-119.4,-6.9,-5.7,-759.3,-2028.0,-0.9,-507.3,-715.2,229.8,0,1488,0,137,0, 
0.8300,45.0,-728.1,-138.6,307.5,120.3,510.0,-429.3,210.9,741.0,-1006.5,235.2,40.5,-1640.4,-2403.6,-1079.7,-120.9,-7.2,-6.3,-771.9,-2045.4,-0.9,-525.9,-725.1,207.0,0,1494,0,138,0, 
0.8333,54.9,-707.1,-117.6,333.9,150.0,533.4,-412.2,233.7,741.0,-970.5,269.7,82.5,-1610.7,-2404.2,-1106.4,-112.2,-7.2,-6.3,-742.8,-2004.6,-0.3,-486.6,-694.8,242.4,0,1500,0,139,0, 
0.8367,54.0,-702.9,-114.0,336.0,150.0,534.9,-413.7,233.7,518.7,-958.5,271.8,89.7,-1606.8,-2403.0,-1111.5,-140.7,-7.2,-6.0,-742.2,-2000.4,-1.2,-478.5,-709.5,246.9,0,1506,0,140,0, 
0.8400,56.4,-701.1,-111.9,337.2,152.7,534.3,-410.4,237.3,592.8,-968.4,266.7,91.5,-1610.4,-2406.3,-1113.0,-125.1,-7.2,-6.0,-741.6,-1995.6,-0.6,-481.2,-693.3,249.0,0,1512,0,141,0, 
0.8433,52.8,-701.1,-117.3,336.3,150.6,537.9,-407.7,234.6,592.8,-969.0,267.6,86.4,-1614.3,-2396.4,-1101.3,-120.6,-6.6,-6.0,-739.8,-2004.0,-0.6,-493.5,-693.9,247.5,0,1518,0,142,0, 
0.8467,50.4,-706.5,-116.7,331.8,148.2,533.4,-412.8,230.7,815.1,-974.1,266.7,79.2,-1609.2,-2396.7,-1088.1,-116.7,-6.6,-5.7,-745.2,-2010.6,-0.6,-498.3,-700.2,239.7,0,1524,0,143,0, 
0.8500,54.9,-699.0,-116.1,334.2,148.5,535.2,-413.1,235.5,666.9,-969.9,270.0,82.2,-1605.3,-2379.6,-1080.9,-125.1,-7.2,-5.7,-741.9,-2006.4,-0.9,-485.4,-707.1,246.0,0,1530,0,144,0, 
0.8533,55.2,-699.9,-115.2,333.3,148.2,533.7,-409.5,234.9,444.6,-962.7,274.5,84.0,-1602.3,-2392.5,-1090.5,-128.7,-6.6,-5.7,-733.8,-2008.2,-0.9,-501.9,-703.8,243.0,0,1536,0,145,0, 
0.8567,50.7,-705.0,-125.7,321.0,133.2,523.2,-416.1,227.1,444.6,-976.8,262.5,60.9,-1609.2,-2388.6,-1090.2,-128.1,-6.9,-6.0,-749.7,-2037.0,-0.9,-524.7,-714.0,228.6,0,1542,0,146,0, 
0.8600,51.9,-708.6,-135.9,315.6,124.5,519.0,-414.3,223.8,741.0,-997.2,227.7,42.3,-1621.8,-2375.1,-1080.9,-129.6,-6.6,-5.4,-782.4,-2053.2,-0.9,-519.9,-709.5,226.2,0,1548,0,147,0, 
0.8633,45.3,-716.7,-143.4,310.8,125.4,515.4,-422.1,219.3,666.9,-996.3,220.2,55.2,-1626.0,-2397.3,-1071.3,-131.7,-6.6,-5.7,-786.3,-2019.3,-0.3,-513.3,-724.2,228.3,0,1554,0,148,0, 
0.8667,42.3,-703.8,-116.4,342.0,157.8,549.6,-401.7,237.9,666.9,-957.0,278.4,116.7,-1610.7,-2426.1,-1133.1,-105.6,-7.2,-6.0,-741.9,-1954.2,-1.2,-466.2,-679.8,268.2,0,1560,0,149,0, 
0.8700,49.5,-700.8,-120.6,339.9,151.2,539.1,-413.7,238.8,518.7,-956.7,266.7,96.6,-1607.7,-2409.3,-1119.9,-133.5,-6.9,-5.7,-755.1,-1977.3,-0.3,-475.2,-694.2,259.8,0,1566,0,150,0, 
0.8733,54.3,-706.2,-128.1,330.6,138.6,533.1,-413.7,233.1,444.6,-984.0,228.3,72.3,-1616.1,-2389.8,-1093.2,-121.2,-6.9,-6.0,-785.1,-1997.7,-0.6,-486.6,-696.0,245.7,0,1572,0,151,0, 
0.8767,54.0,-702.9,-128.7,333.0,145.5,537.3,-410.1,232.2,741.0,-972.0,246.6,79.5,-1611.9,-2399.4,-1101.9,-123.9,-6.6,-5.7,-778.2,-1985.1,-0.9,-480.0,-699.6,255.6,0,1578,0,152,0, 
0.8800,52.8,-709.2,-146.1,320.1,134.4,528.6,-412.5,220.8,592.8,-993.3,225.9,70.2,-1616.1,-2379.9,-1056.6,-117.9,-7.5,-5.4,-800.1,-1986.9,-0.6,-501.3,-697.2,244.5,0,1584,0,153,0, 
0.8833,45.9,-704.1,-132.9,334.5,144.3,542.1,-404.4,231.0,592.8,-970.8,220.5,78.0,-1617.6,-2396.4,-1094.7,-108.6,-6.6,-5.7,-797.1,-1968.6,-0.6,-483.0,-684.0,261.0,0,1590,0,154,0, 
0.8867,41.7,-701.1,-129.9,337.8,150.6,550.8,-399.9,234.6,518.7,-957.0,219.6,71.4,-1621.2,-2426.1,-1135.8,-105.0,-7.2,-5.7,-801.0,-1968.0,-0.9,-459.3,-690.3,266.1,0,1596,0,155,0, 
0.8900,45.6,-704.1,-137.7,333.3,141.9,545.1,-401.7,228.3,444.6,-978.3,209.7,66.0,-1620.6,-2403.9,-1112.4,-120.0,-6.6,-6.0,-819.3,-1979.1,-0.9,-459.0,-682.2,259.2,0,1602,0,156,0, 
0.8933,38.7,-705.0,-132.3,334.5,145.2,545.7,-406.2,228.0,666.9,-966.3,209.1,53.4,-1626.9,-2438.4,-1133.4,-122.4,-6.9,-6.0,-823.2,-1977.0,-1.2,-465.0,-675.9,265.2,0,1608,0,157,0, 
0.8967,44.1,-705.9,-134.4,330.3,144.6,548.4,-402.6,229.8,666.9,-971.1,198.6,61.2,-1627.2,-2419.8,-1121.7,-108.0,-6.9,-6.0,-829.2,-1956.9,-0.6,-458.4,-678.3,270.3,0,1614,0,158,0, 
0.9000,47.1,-707.7,-140.7,330.6,141.0,541.8,-403.5,229.2,518.7,-975.0,192.0,52.8,-1626.0,-2404.2,-1102.5,-109.5,-6.9,-5.7,-835.5,-1964.7,-0.6,-454.2,-678.6,264.9,0,1620,0,159,0, 
0.9033,48.3,-705.6,-141.0,329.1,139.8,545.7,-405.6,226.2,370.5,-978.6,174.9,43.2,-1624.5,-2397.9,-1093.5,-114.9,-6.9,-5.7,-849.6,-1963.5,-0.9,-455.7,-686.7,270.6,0,1626,0,160,0, 
0.9067,43.8,-707.1,-140.1,329.7,141.6,547.5,-410.1,227.4,444.6,-971.4,172.8,41.1,-1625.1,-2411.7,-1107.6,-113.4,-6.6,-5.7,-853.5,-1953.6,-0.6,-445.2,-686.1,273.9,0,1632,0,161,0, 
0.9100,43.5,-716.4,-155.7,321.9,135.9,537.9,-412.2,221.7,518.7,-986.7,144.6,13.2,-1637.4,-2414.1,-1106.1,-114.0,-6.6,-5.7,-881.7,-1979.1,-0.9,-457.2,-696.9,263.4,0,1638,0,162,0, 
0.9133,41.4,-721.8,-156.3,323.1,135.9,542.7,-407.7,223.8,666.9,-989.4,144.3,21.3,-1643.1,-2411.7,-1100.4,-114.0,-7.2,-5.7,-884.1,-1969.8,-0.9,-447.0,-677.4,272.7,0,1644,0,163,0, 
0.9167,45.0,-715.8,-150.9,327.0,138.3,546.0,-403.5,228.0,518.7,-980.1,146.4,18.0,-1632.3,-2411.1,-1090.8,-113.1,-6.9,-5.7,-882.3,-1967.1,-0.9,-450.9,-685.2,274.5,0,1650,0,164,0, 
0.9200,45.9,-716.7,-152.4,317.7,127.2,544.2,-413.1,225.9,370.5,-981.0,142.8,13.5,-1632.3,-2409.3,-1093.5,-116.4,-7.2,-5.4,-880.5,-1971.9,-0.9,-451.5,-685.2,272.7,0,1656,0,165,0, 
0.9233,41.7,-715.2,-145.2,321.9,138.6,544.2,-415.2,227.4,592.8,-980.1,151.8,18.0,-1634.1,-2425.2,-1101.6,-120.3,-6.6,-5.7,-875.1,-1968.9,-0.9,-431.4,-685.8,274.5,0,1662,0,166,0, 
0.9267,44.4,-722.4,-155.4,313.2,128.1,532.2,-420.0,217.8,592.8,-991.2,134.4,3.3,-1631.1,-2401.8,-1072.8,-117.9,-6.9,-5.7,-896.4,-1988.1,-0.9,-473.1,-687.9,259.8,0,1668,0,167,0, 
0.9300,43.2,-721.8,-151.2,320.1,132.3,533.7,-412.2,215.4,592.8,-987.0,150.3,9.6,-1628.7,-2400.0,-1085.1,-114.6,-6.9,-5.7,-884.1,-1981.8,-0.6,-462.6,-699.0,267.9,0,1674,0,168,0, 
0.9333,38.7,-719.7,-135.9,335.1,147.3,548.7,-399.9,226.5,592.8,-967.2,156.6,23.1,-1628.1,-2416.8,-1108.8,-111.9,-7.2,-6.0,-875.1,-1960.8,-0.9,-430.8,-678.6,282.9,0,1680,0,169,0, 
0.9367,43.5,-714.9,-137.7,334.2,148.2,546.0,-404.4,223.2,444.6,-971.4,159.6,27.0,-1633.8,-2419.2,-1093.8,-115.8,-6.3,-6.0,-870.3,-1962.3,-0.6,-443.7,-685.5,282.9,0,1686,0,170,0, 
0.9400,48.3,-708.0,-131.4,342.6,156.3,552.3,-402.9,231.6,370.5,-961.5,153.6,38.4,-1629.3,-2413.2,-1085.7,-106.5,-6.6,-5.7,-872.4,-1953.3,-0.9,-435.0,-678.6,288.6,0,1692,0,171,0, 
0.9433,48.9,-710.4,-143.7,333.0,146.4,543.0,-411.6,221.1,666.9,-973.5,144.3,19.8,-1626.0,-2411.1,-1072.8,-115.8,-6.6,-5.4,-878.1,-1964.1,-0.6,-440.1,-687.0,279.9,0,1698,0,172,0, 
0.9467,51.6,-710.1,-135.6,334.8,151.2,546.3,-406.8,223.8,741.0,-972.6,156.6,27.3,-1628.1,-2401.5,-1074.3,-112.8,-6.9,-5.7,-876.0,-1965.9,-0.9,-440.7,-683.1,282.3,0,1704,0,173,0, 
0.9500,43.5,-710.4,-130.5,339.9,153.3,552.6,-406.5,226.5,592.8,-964.8,158.4,24.3,-1629.9,-2411.7,-1091.4,-103.8,-6.9,-6.0,-871.8,-1966.5,-0.6,-447.6,-671.1,285.3,0,1710,0,174,0, 
0.9533,46.2,-715.2,-142.8,332.1,142.8,545.1,-411.0,222.9,518.7,-978.9,157.5,19.2,-1632.0,-2400.9,-1068.9,-112.2,-6.6,-6.0,-877.2,-1968.3,-0.3,-443.1,-681.0,281.4,0,1716,0,175,0, 
0.9567,57.0,-712.2,-145.2,326.4,138.0,542.4,-412.5,225.3,444.6,-984.3,151.5,23.7,-1632.0,-2376.6,-1041.6,-115.5,-6.9,-5.7,-877.5,-1967.7,-0.6,-453.6,-691.2,276.0,0,1722,0,176,0, 
0.9600,44.7,-712.5,-145.8,329.1,141.9,546.9,-407.1,223.2,592.8,-980.4,158.4,22.5,-1635.3,-2401.5,-1084.5,-119.7,-6.6,-5.4,-876.0,-1964.1,-0.6,-447.0,-688.5,283.5,0,1728,0,177,0, 
0.9633,42.6,-709.8,-141.9,335.1,149.7,556.8,-402.3,232.5,741.0,-966.9,155.4,28.5,-1626.0,-2424.0,-1094.1,-105.3,-6.6,-5.7,-867.6,-1961.7,-0.9,-442.8,-679.5,295.8,0,1734,0,178,0, 
0.9667,39.9,-696.0,-124.5,353.1,167.4,572.7,-387.9,240.0,518.7,-938.7,182.7,48.6,-1617.6,-2446.2,-1129.5,-100.5,-6.6,-5.7,-846.0,-1934.4,-0.9,-422.7,-656.4,307.5,0,1740,0,179,0, 
0.9700,45.0,-698.1,-128.7,345.9,160.5,565.5,-396.6,236.4,444.6,-946.8,175.5,47.1,-1626.9,-2424.6,-1098.6,-109.8,-7.2,-5.7,-852.0,-1941.0,-0.6,-423.6,-676.5,297.0,0,1746,0,180,0, 
0.9733,51.6,-713.7,-150.9,323.7,137.4,545.4,-411.6,215.7,370.5,-987.9,143.7,17.7,-1633.2,-2383.8,-1029.3,-104.7,-6.9,-5.7,-879.6,-1967.1,-0.9,-452.4,-702.3,280.2,0,1752,0,181,0, 
0.9767,51.0,-703.2,-148.2,335.4,151.8,552.9,-402.0,227.4,666.9,-966.0,163.8,34.5,-1623.3,-2391.6,-1074.6,-123.9,-6.9,-5.7,-865.5,-1954.5,-0.9,-445.2,-690.6,284.4,0,1758,0,182,0, 
0.9800,39.9,-697.2,-126.9,353.4,168.6,566.7,-393.0,232.5,741.0,-939.0,184.2,51.3,-1621.8,-2438.4,-1133.4,-111.9,-6.6,-5.7,-848.7,-1930.8,-0.9,-417.6,-660.3,306.6,0,1764,0,183,0, 
0.9833,36.3,-705.3,-135.9,348.0,160.2,558.6,-398.7,225.0,518.7,-959.1,175.2,48.0,-1632.9,-2439.6,-1122.3,-108.0,-7.2,-6.0,-858.9,-1941.3,-0.9,-426.0,-675.9,291.0,0,1770,0,184,0, 
0.9867,40.5,-708.3,-138.6,346.2,155.7,557.1,-397.2,227.7,296.4,-956.4,161.4,36.3,-1635.3,-2436.0,-1113.3,-118.2,-7.2,-6.0,-867.0,-1951.5,-0.9,-435.9,-682.2,290.4,0,1776,0,185,0, 
0.9900,45.3,-708.6,-135.9,341.1,154.2,554.4,-403.8,226.8,444.6,-962.1,168.6,39.3,-1635.0,-2415.3,-1083.0,-128.4,-6.9,-6.0,-865.5,-1950.6,-0.3,-435.9,-695.7,285.3,0,1782,0,186,0, 
0.9933,41.1,-710.1,-144.6,337.2,149.4,548.1,-406.8,222.0,592.8,-965.1,164.4,38.1,-1634.4,-2410.8,-1089.6,-133.2,-6.9,-6.0,-865.5,-1949.1,-0.9,-431.1,-686.7,286.5,0,1788,0,187,0, 
0.9967,36.0,-707.1,-138.9,343.2,156.6,557.7,-405.3,227.7,666.9,-951.6,172.5,45.3,-1635.0,-2449.5,-1112.4,-119.7,-6.6,-5.7,-854.4,-1947.0,-0.6,-423.6,-683.1,293.7,0,1794,0,188,0, 
1.0000,43.8,-709.5,-149.4,334.8,143.7,548.4,-405.3,220.5,741.0,-968.7,160.2,26.1,-1636.2,-2416.5,-1079.1,-115.5,-6.9,-5.7,-869.1,-1960.5,-0.6,-442.2,-687.3,284.7,0,1800,0,189,0, 
1.0033,54.0,-696.3,-134.7,350.7,163.8,568.2,-395.7,231.6,444.6,-949.2,178.5,48.3,-1623.6,-2416.8,-1079.7,-105.6,-6.6,-5.7,-852.0,-1935.6,-0.9,-418.8,-672.0,303.3,0,1806,0,190,0, 
1.0067,41.7,-704.7,-148.2,331.2,144.6,555.9,-411.9,217.5,518.7,-969.3,166.5,35.1,-1633.2,-2420.7,-1085.4,-110.1,-6.6,-5.7,-863.7,-1947.3,-0.9,-432.6,-682.8,288.3,0,1812,0,191,0, 
1.0100,43.5,-704.7,-147.0,328.8,147.0,554.1,-414.6,219.6,666.9,-960.0,168.0,31.2,-1631.4,-2418.3,-1081.5,-106.8,-6.6,-6.0,-862.8,-1952.7,-0.3,-436.8,-676.2,286.5,0,1818,0,192,0, 
1.0133,48.3,-700.5,-141.9,335.7,154.2,561.0,-401.7,228.0,815.1,-956.4,170.7,39.6,-1632.6,-2409.6,-1078.5,-97.5,-6.9,-6.0,-859.8,-1940.4,-0.6,-422.4,-662.4,296.7,0,1824,0,193,0, 
1.0167,42.0,-702.9,-148.2,328.8,145.2,556.5,-404.1,223.5,444.6,-963.0,160.2,38.4,-1641.6,-2422.2,-1084.2,-112.2,-6.9,-5.7,-869.7,-1949.1,-0.6,-427.5,-674.7,292.5,0,1830,0,194,0, 
1.0200,48.3,-709.8,-157.5,314.7,131.1,545.7,-414.9,214.5,370.5,-975.3,141.3,25.5,-1638.6,-2404.5,-1063.2,-114.3,-6.9,-6.0,-880.8,-1964.7,-0.6,-450.6,-689.1,271.5,0,1836,0,195,0, 
1.0233,50.1,-699.9,-147.3,329.1,142.2,555.3,-403.5,227.4,444.6,-960.3,157.5,40.5,-1630.5,-2413.2,-1088.4,-116.7,-6.9,-5.7,-869.1,-1949.4,-0.6,-432.6,-676.2,285.6,0,1842,0,196,0, 
1.0267,48.0,-708.0,-161.4,311.7,126.9,539.1,-416.4,216.6,666.9,-981.3,140.1,13.8,-1638.9,-2396.4,-1060.8,-120.6,-6.9,-6.3,-888.6,-1970.7,-0.9,-462.3,-692.4,274.2,0,1848,0,197,0, 
1.0300,48.0,-710.1,-161.7,314.1,129.3,538.8,-414.9,218.4,741.0,-981.6,142.8,14.1,-1639.5,-2392.8,-1063.2,-117.9,-6.9,-5.7,-890.4,-1969.8,-0.3,-449.1,-693.6,274.2,0,1854,0,198,0, 
1.0333,43.5,-708.3,-156.3,318.6,133.8,547.5,-409.8,220.5,592.8,-975.3,150.3,22.8,-1643.4,-2419.8,-1085.1,-110.7,-7.2,-6.0,-879.0,-1959.6,-0.9,-440.7,-679.2,284.4,0,1860,0,199,0, 
1.0367,45.6,-703.2,-138.6,328.2,141.3,555.9,-407.1,227.1,370.5,-964.2,165.9,35.4,-1637.4,-2424.0,-1107.9,-110.7,-6.9,-6.0,-869.4,-1948.5,-0.9,-433.2,-669.3,289.8,0,1866,0,200,0, 
1.0400,45.6,-708.3,-153.0,316.5,129.6,544.2,-416.1,213.0,370.5,-971.7,153.0,22.2,-1644.9,-2426.4,-1085.1,-112.5,-6.6,-5.7,-880.5,-1961.4,-1.2,-447.3,-681.9,269.4,0,1872,0,201,0, 
1.0433,48.6,-703.8,-151.8,322.2,138.9,548.7,-412.2,217.8,592.8,-970.2,153.6,23.1,-1632.9,-2413.8,-1091.7,-115.5,-7.2,-5.7,-877.5,-1962.0,-0.6,-447.0,-685.5,278.4,0,1878,0,202,0, 
1.0467,47.1,-702.0,-144.6,329.7,149.4,555.3,-407.1,225.9,666.9,-967.5,165.9,30.0,-1633.2,-2415.9,-1105.5,-108.3,-6.9,-5.7,-870.9,-1956.0,-0.9,-436.5,-674.4,284.7,0,1884,0,203,0, 
1.0500,48.0,-708.3,-150.6,320.4,139.2,548.7,-408.6,218.1,592.8,-973.5,156.3,25.5,-1640.7,-2406.0,-1084.2,-116.7,-6.6,-5.7,-879.9,-1962.6,-0.9,-444.3,-678.6,276.0,0,1890,0,204,0, 
1.0533,47.7,-704.4,-138.3,333.0,148.2,558.0,-401.4,225.9,370.5,-961.2,167.4,38.1,-1635.3,-2429.7,-1103.7,-109.5,-6.9,-6.0,-869.7,-1949.7,-0.9,-438.9,-669.9,287.7,0,1896,0,205,0, 
1.0567,47.4,-708.9,-145.8,327.6,145.8,555.9,-405.3,223.2,592.8,-962.7,162.3,33.3,-1642.2,-2425.5,-1099.5,-114.9,-7.2,-6.0,-871.5,-1949.7,-0.6,-441.0,-670.5,282.3,0,1902,0,206,0, 
1.0600,43.5,-711.9,-145.8,323.4,146.1,554.4,-402.9,223.2,592.8,-969.6,167.4,32.7,-1640.1,-2425.8,-1107.0,-114.3,-6.6,-6.0,-875.4,-1953.0,-0.6,-438.6,-666.6,278.1,0,1908,0,207,0, 
1.0633,49.5,-714.6,-147.3,323.1,143.1,545.7,-410.1,223.8,666.9,-967.8,161.1,30.9,-1640.7,-2413.8,-1091.1,-118.5,-6.9,-6.3,-872.4,-1952.7,-0.9,-445.2,-690.6,275.1,0,1914,0,208,0, 
1.0667,46.8,-720.3,-149.7,322.8,141.0,543.6,-412.5,218.1,518.7,-978.0,153.6,25.5,-1644.0,-2425.8,-1097.1,-121.2,-6.9,-5.7,-881.7,-1962.9,-0.6,-439.2,-681.0,275.7,0,1920,0,209,0, 
1.0700,57.3,-704.7,-136.8,339.0,157.5,561.3,-397.5,232.2,370.5,-956.7,174.9,42.9,-1628.1,-2426.7,-1099.8,-115.8,-7.2,-5.7,-858.0,-1945.5,-0.6,-438.6,-669.9,291.6,0,1926,0,210,0, 
1.0733,54.9,-712.2,-139.5,333.0,151.5,553.5,-402.9,223.2,444.6,-966.0,174.0,39.6,-1638.9,-2421.0,-1088.1,-115.5,-6.9,-5.7,-867.3,-1949.4,-0.9,-443.4,-680.7,280.5,0,1932,0,211,0, 
1.0767,57.0,-715.5,-143.4,334.5,152.4,553.8,-402.9,220.5,666.9,-971.1,173.1,37.8,-1632.0,-2405.7,-1085.1,-119.7,-6.9,-5.4,-871.2,-1951.5,-0.9,-443.1,-682.8,278.1,0,1938,0,212,0, 
1.0800,53.1,-720.3,-147.3,329.7,150.0,549.6,-408.0,213.0,741.0,-975.3,163.8,35.4,-1631.7,-2420.4,-1092.6,-123.0,-6.9,-6.3,-879.0,-1959.0,-0.6,-444.3,-682.5,272.1,0,1944,0,213,0, 
1.0833,57.0,-711.0,-142.8,337.2,158.1,560.4,-403.2,226.5,592.8,-968.1,170.1,44.4,-1627.8,-2407.8,-1078.8,-114.9,-7.2,-5.7,-864.9,-1947.6,-0.9,-432.3,-670.2,287.7,0,1950,0,214,0, 
1.0867,50.1,-722.1,-145.8,326.7,144.6,551.4,-399.6,215.1,296.4,-974.1,161.7,31.2,-1635.9,-2404.5,-1081.8,-126.6,-6.9,-6.6,-876.0,-1957.2,-0.6,-443.7,-684.3,274.8,0,1956,0,215,0, 
1.0900,60.3,-726.6,-148.5,323.1,138.9,542.4,-400.2,213.9,370.5,-988.5,160.8,21.0,-1635.3,-2385.6,-1050.3,-123.9,-6.3,-6.0,-882.6,-1975.2,-0.9,-473.1,-693.3,264.3,0,1962,0,216,0, 
1.0933,63.9,-717.9,-141.9,327.3,147.6,546.6,-399.0,218.7,666.9,-986.1,153.3,18.0,-1626.6,-2394.0,-1077.0,-124.8,-6.6,-6.3,-884.7,-1981.2,-0.9,-468.0,-688.5,265.8,0,1968,0,217,0, 
1.0967,65.4,-724.5,-154.2,321.6,137.1,539.1,-403.2,215.4,592.8,-991.5,148.2,12.0,-1633.8,-2401.8,-1076.4,-127.2,-7.2,-5.7,-888.6,-1986.6,-0.9,-472.8,-691.5,258.0,0,1974,0,218,0, 
1.1000,61.2,-716.1,-136.8,340.2,164.4,558.3,-399.6,225.0,666.9,-954.3,183.3,56.4,-1618.2,-2403.0,-1104.6,-129.0,-6.6,-5.7,-855.9,-1926.0,-0.3,-429.3,-679.5,284.1,0,1980,0,219,0, 
1.1033,65.4,-713.4,-128.4,347.7,175.5,570.9,-384.9,234.6,444.6,-950.7,199.2,71.1,-1618.2,-2420.4,-1105.2,-121.5,-6.9,-5.7,-848.7,-1912.2,-0.6,-407.4,-670.8,301.5,0,1986,0,220,0, 
1.1067,63.3,-718.8,-136.2,341.1,167.4,567.3,-390.3,227.1,444.6,-963.9,181.2,50.1,-1617.6,-2410.5,-1094.7,-126.0,-6.9,-5.4,-869.7,-1929.9,-0.6,-413.1,-685.2,292.5,0,1992,0,221,0, 
1.1100,63.9,-722.1,-141.0,339.9,164.4,562.8,-391.5,225.0,444.6,-968.7,159.9,37.8,-1624.2,-2391.9,-1088.4,-128.1,-7.2,-6.0,-882.9,-1943.4,-0.6,-440.4,-681.9,286.5,0,1998,0,222,0, 
1.1133,72.0,-717.3,-133.2,341.4,168.9,564.9,-392.1,229.2,592.8,-969.0,162.3,41.1,-1615.8,-2388.3,-1077.9,-126.9,-6.9,-6.0,-881.1,-1932.9,-0.6,-433.5,-674.7,292.5,0,2004,0,223,0, 
1.1167,67.5,-724.8,-141.3,332.4,161.4,555.9,-395.4,216.6,518.7,-978.3,163.8,37.2,-1620.0,-2375.7,-1073.4,-134.4,-6.9,-5.7,-888.0,-1942.2,-0.6,-444.6,-690.0,281.1,0,2010,0,224,0, 
1.1200,63.0,-727.2,-138.0,328.5,162.9,561.3,-402.9,222.3,444.6,-973.2,172.2,45.9,-1623.9,-2398.5,-1076.4,-133.2,-6.6,-6.3,-882.6,-1937.7,-0.9,-434.4,-682.8,289.8,0,2016,0,225,0, 
1.1233,67.5,-722.1,-131.4,337.2,169.2,566.7,-395.1,225.9,296.4,-955.8,174.6,55.5,-1611.9,-2400.3,-1086.9,-136.8,-6.9,-6.3,-870.0,-1925.7,-0.6,-430.2,-681.0,294.3,0,2022,0,226,0, 
1.1267,67.5,-724.8,-129.0,328.5,171.6,567.0,-399.9,223.8,666.9,-962.1,176.4,51.3,-1609.2,-2390.1,-1076.4,-131.1,-6.9,-6.3,-869.7,-1930.2,-0.9,-429.0,-667.8,288.0,0,2028,0,227,0, 
1.1300,70.2,-727.2,-136.8,326.7,169.8,567.0,-398.4,228.3,666.9,-957.3,172.8,50.7,-1608.3,-2377.2,-1086.3,-129.0,-6.9,-6.0,-873.9,-1933.2,-0.6,-433.8,-670.2,288.9,0,2034,0,228,0, 
1.1333,70.8,-720.0,-123.9,333.6,173.1,571.2,-394.8,228.9,518.7,-956.1,186.3,50.7,-1611.0,-2397.9,-1096.8,-120.9,-6.9,-5.7,-866.1,-1933.8,-0.9,-422.1,-670.2,294.0,0,2040,0,229,0, 
1.1367,69.0,-720.6,-128.4,329.4,165.9,565.2,-403.8,225.9,592.8,-964.2,169.5,40.5,-1615.8,-2391.0,-1071.3,-128.7,-6.6,-6.3,-876.6,-1937.4,-0.6,-424.5,-685.8,282.6,0,2046,0,230,0, 
1.1400,69.0,-724.8,-134.4,322.2,163.5,557.7,-404.4,223.2,370.5,-976.5,165.6,39.0,-1611.0,-2372.4,-1071.0,-137.1,-6.9,-6.0,-881.1,-1941.0,-0.6,-436.8,-685.5,276.9,0,2052,0,231,0, 
1.1433,78.3,-719.7,-130.2,329.1,167.4,561.3,-397.8,231.9,741.0,-966.9,170.1,42.3,-1599.0,-2360.7,-1056.9,-135.0,-6.6,-5.7,-873.6,-1938.6,-0.9,-432.9,-691.8,280.2,0,2058,0,232,0, 
1.1467,75.6,-710.7,-123.9,333.0,180.0,567.9,-393.9,235.2,666.9,-963.6,174.9,48.3,-1597.8,-2370.0,-1068.0,-131.4,-6.9,-5.7,-869.1,-1933.8,-0.9,-433.5,-681.9,286.8,0,2064,0,233,0, 
1.1500,71.1,-718.8,-127.2,330.9,172.2,566.4,-399.0,232.8,592.8,-964.2,177.3,48.0,-1612.5,-2381.4,-1063.2,-135.6,-6.6,-5.7,-872.7,-1932.0,-0.9,-434.7,-678.3,285.9,0,2070,0,234,0, 
1.1533,60.6,-710.1,-109.8,352.5,193.8,588.3,-389.4,244.2,444.6,-935.4,200.1,73.8,-1601.4,-2434.2,-1151.7,-126.6,-6.9,-6.0,-846.3,-1905.6,-0.3,-396.6,-650.7,309.3,0,2076,0,235,0, 
1.1567,64.2,-714.3,-112.5,346.8,186.6,577.5,-390.3,245.4,592.8,-947.4,184.8,60.3,-1605.6,-2404.5,-1104.0,-128.1,-6.6,-6.0,-854.1,-1919.4,-0.9,-411.9,-672.6,297.9,0,2082,0,236,0, 
1.1600,71.7,-714.0,-113.1,341.4,186.0,573.3,-390.6,245.4,741.0,-955.8,189.6,61.2,-1608.9,-2395.2,-1092.3,-136.5,-6.9,-6.0,-857.7,-1924.2,-0.9,-412.2,-671.1,299.4,0,2088,0,237,0, 
1.1633,73.2,-716.4,-118.8,333.0,183.0,567.3,-391.5,239.1,666.9,-967.8,178.8,51.3,-1607.4,-2384.7,-1068.0,-131.4,-6.9,-5.7,-867.3,-1927.8,-0.6,-438.9,-690.0,285.0,0,2094,0,238,0, 
1.1667,71.7,-721.5,-122.1,330.6,174.9,559.8,-396.0,240.6,741.0,-976.2,179.4,48.3,-1612.8,-2363.7,-1062.9,-137.1,-6.6,-5.7,-873.9,-1928.7,-0.9,-435.9,-688.2,280.5,0,2100,0,239,0, 
1.1700,69.0,-713.4,-99.6,350.1,193.8,577.5,-390.3,248.1,370.5,-947.1,197.7,71.1,-1607.1,-2414.7,-1111.5,-132.3,-6.6,-6.3,-848.1,-1903.5,-0.3,-415.5,-681.0,302.1,0,2106,0,240,0, 
1.1733,66.9,-716.7,-110.7,342.6,184.8,571.8,-394.8,238.5,444.6,-956.4,186.9,62.7,-1603.8,-2405.4,-1103.7,-133.2,-6.6,-6.0,-852.9,-1914.6,-0.9,-425.1,-680.1,295.2,0,2112,0,241,0, 
1.1767,70.2,-717.0,-108.3,339.9,186.3,574.8,-389.7,242.4,666.9,-957.6,189.9,63.0,-1608.6,-2392.5,-1091.1,-133.2,-6.6,-5.7,-856.8,-1911.6,0.0,-420.9,-685.2,297.9,0,2118,0,242,0, 
1.1800,76.2,-708.0,-108.3,341.7,189.6,579.0,-390.0,246.0,666.9,-956.7,194.7,65.1,-1597.8,-2393.1,-1082.4,-129.9,-6.9,-5.7,-857.7,-1911.3,-0.6,-420.3,-674.7,298.2,0,2124,0,243,0, 
1.1833,80.7,-708.6,-114.3,338.4,180.3,574.5,-389.1,247.8,370.5,-960.3,190.5,55.5,-1598.1,-2373.3,-1062.6,-134.4,-6.9,-6.0,-856.8,-1917.0,-0.6,-436.2,-687.9,289.5,0,2130,0,244,0, 
1.1867,83.7,-720.9,-138.0,306.6,148.8,544.8,-408.9,230.4,370.5,-1001.4,147.9,16.5,-1612.8,-2347.5,-991.8,-145.5,-7.2,-5.7,-887.4,-1958.4,-1.2,-470.7,-717.3,264.9,0,2136,0,245,0, 
1.1900,84.6,-706.8,-121.5,326.1,170.4,564.9,-390.6,243.9,370.5,-968.4,172.2,48.6,-1599.0,-2358.9,-1055.4,-142.8,-7.2,-5.7,-862.8,-1925.7,-0.6,-431.1,-688.8,290.7,0,2142,0,246,0, 
1.1933,73.5,-692.4,-97.8,350.1,198.3,585.6,-379.8,261.3,666.9,-931.8,209.4,77.1,-1591.5,-2426.1,-1131.6,-124.2,-6.9,-6.3,-831.9,-1903.5,-0.9,-393.9,-673.8,312.6,0,2148,0,247,0, 
1.1967,69.3,-702.3,-113.1,334.8,185.7,565.5,-393.3,247.8,889.2,-943.8,195.3,60.3,-1599.0,-2418.0,-1111.2,-132.0,-6.9,-5.7,-846.0,-1923.9,-0.6,-421.5,-682.2,294.3,0,2154,0,248,0, 
1.2000,76.8,-707.4,-117.3,330.3,171.6,560.7,-406.5,244.5,592.8,-955.8,189.6,52.5,-1600.8,-2394.3,-1082.1,-141.6,-7.2,-6.0,-854.4,-1924.8,-1.2,-415.8,-695.1,287.4,0,2160,0,249,0, 
1.2033,83.1,-699.6,-111.9,333.0,178.8,570.3,-401.1,248.7,444.6,-945.9,202.5,66.3,-1599.6,-2398.8,-1093.2,-138.0,-6.6,-6.0,-842.1,-1913.4,-0.9,-407.7,-689.7,296.4,0,2166,0,250,0, 
1.2067,70.8,-715.5,-125.4,314.7,166.2,551.7,-417.9,237.6,444.6,-965.4,179.4,45.6,-1614.9,-2400.3,-1080.9,-150.9,-6.9,-5.4,-863.4,-1934.4,-0.9,-422.4,-704.7,276.6,0,2172,0,251,0, 
1.2100,68.7,-719.4,-131.7,309.6,162.3,549.0,-411.3,232.2,518.7,-970.2,174.9,41.4,-1619.1,-2397.9,-1074.9,-148.5,-6.9,-5.7,-862.8,-1938.3,-0.6,-444.0,-707.7,272.1,0,2178,0,252,0, 
1.2133,67.8,-719.1,-127.8,316.8,167.4,558.3,-406.8,236.4,666.9,-964.8,182.4,48.3,-1612.8,-2409.0,-1104.3,-144.0,-6.9,-6.0,-859.5,-1925.4,-0.6,-435.3,-693.3,281.7,0,2184,0,253,0, 
1.2167,69.3,-722.4,-129.9,315.6,163.5,556.8,-409.5,234.6,592.8,-972.6,184.2,43.2,-1616.4,-2406.6,-1083.6,-136.2,-6.9,-5.7,-859.8,-1933.2,-1.2,-438.9,-693.6,277.8,0,2190,0,254,0, 
1.2200,68.1,-722.4,-135.3,309.6,159.9,554.7,-413.4,236.7,296.4,-977.7,171.3,36.9,-1623.0,-2417.4,-1083.3,-148.5,-6.6,-6.0,-869.7,-1939.8,-0.6,-445.2,-694.2,277.8,0,2196,0,255,0, 
1.2233,66.0,-727.8,-138.9,306.0,153.9,548.1,-418.8,228.3,296.4,-980.7,171.6,40.5,-1626.0,-2406.3,-1077.0,-147.9,-6.6,-6.0,-871.8,-1939.5,-0.6,-449.7,-706.2,270.9,0,2202,0,0,0, 
1.2267,59.7,-726.3,-135.3,309.0,157.8,549.6,-413.7,229.2,666.9,-974.4,174.3,41.1,-1622.7,-2415.6,-1092.9,-136.8,-6.6,-5.7,-867.3,-1932.9,-0.9,-438.3,-699.0,277.2,0,2208,0,1,0, 
1.2300,61.2,-729.6,-141.9,303.3,153.9,546.3,-414.6,226.5,666.9,-986.1,166.8,31.5,-1622.1,-2409.6,-1090.5,-125.1,-7.2,-6.0,-877.8,-1943.1,-0.3,-456.9,-706.8,269.4,0,2214,0,2,0, 
1.2333,68.7,-721.8,-137.7,310.8,159.3,552.0,-410.1,232.2,666.9,-972.0,174.6,41.1,-1618.8,-2397.6,-1076.1,-130.2,-6.9,-6.0,-866.1,-1934.4,-0.6,-440.4,-695.4,282.0,0,2220,0,3,0, 
1.2367,83.7,-701.1,-117.6,329.4,177.6,571.2,-398.1,249.6,370.5,-943.8,195.3,63.9,-1596.3,-2396.4,-1086.9,-140.4,-6.9,-5.7,-839.7,-1914.0,-0.9,-412.2,-687.3,301.5,0,2226,0,4,0, 
1.2400,85.5,-705.0,-122.1,318.9,168.3,561.6,-406.2,242.7,370.5,-957.9,180.0,51.3,-1600.8,-2371.5,-1054.8,-135.9,-6.6,-6.0,-856.5,-1924.5,-0.6,-423.6,-695.7,291.9,0,2232,0,5,0, 
1.2433,87.3,-717.6,-140.1,299.4,152.4,544.2,-418.2,225.3,592.8,-979.8,171.0,34.5,-1607.7,-2334.9,-1018.2,-151.5,-6.6,-5.7,-875.7,-1941.3,-0.6,-442.8,-718.2,272.4,0,2238,0,6,0, 
1.2467,84.3,-709.5,-130.8,310.2,162.9,560.1,-406.2,235.5,741.0,-959.4,181.8,44.1,-1600.5,-2350.2,-1053.0,-139.2,-7.2,-5.7,-858.3,-1932.0,-0.9,-424.5,-698.1,277.2,0,2244,0,7,0, 
1.2500,83.4,-694.5,-99.3,339.6,194.4,586.2,-384.6,263.4,444.6,-919.2,215.7,77.4,-1587.6,-2395.2,-1125.0,-119.7,-6.9,-5.7,-818.7,-1893.9,-0.9,-390.3,-660.0,318.9,0,2250,0,8,0, 
1.2533,83.7,-704.7,-114.9,322.5,171.6,568.8,-394.8,250.8,444.6,-943.8,205.8,62.4,-1596.6,-2380.8,-1083.0,-111.6,-6.9,-6.0,-838.5,-1914.0,-0.6,-414.0,-671.4,297.3,0,2256,0,9,0, 
1.2567,85.8,-710.1,-127.8,312.9,163.5,560.1,-398.7,242.7,370.5,-954.3,193.2,57.9,-1598.7,-2370.9,-1065.0,-120.0,-6.3,-5.7,-847.2,-1919.1,-0.6,-422.7,-683.1,294.0,0,2262,0,10,0, 
1.2600,77.1,-704.7,-111.0,328.8,183.6,574.8,-382.8,258.9,592.8,-931.8,203.4,72.3,-1597.8,-2416.2,-1119.0,-118.2,-7.2,-6.3,-835.5,-1905.0,-0.6,-404.1,-670.5,309.6,0,2268,0,11,0, 
1.2633,76.2,-713.7,-122.4,316.8,172.5,566.1,-397.5,248.1,666.9,-953.4,180.0,51.9,-1601.4,-2405.1,-1092.0,-129.6,-6.9,-5.7,-854.7,-1922.4,-0.9,-420.0,-684.3,297.3,0,2274,0,12,0, 
1.2667,79.5,-717.0,-125.1,315.3,170.4,555.6,-400.5,240.9,592.8,-958.8,186.0,47.1,-1604.1,-2386.2,-1066.5,-127.5,-6.9,-5.4,-852.6,-1929.9,-0.3,-430.2,-689.7,287.7,0,2280,0,13,0, 
1.2700,78.9,-714.9,-124.8,318.0,172.2,562.5,-402.0,242.4,444.6,-953.7,207.3,69.6,-1606.5,-2370.3,-1062.0,-126.3,-7.2,-5.7,-837.0,-1913.4,-0.9,-416.7,-685.8,291.9,0,2286,0,14,0, 
1.2733,76.5,-708.3,-112.8,329.7,179.1,571.8,-397.8,244.8,370.5,-950.7,219.9,82.8,-1611.0,-2403.0,-1082.1,-123.3,-6.9,-5.4,-831.3,-1899.9,-0.6,-412.5,-669.3,302.4,0,2292,0,15,0, 
1.2767,76.5,-706.5,-114.0,330.9,186.6,575.1,-393.6,248.7,666.9,-944.1,211.2,84.6,-1607.4,-2402.7,-1084.5,-114.3,-6.6,-5.7,-830.4,-1896.9,-1.2,-406.8,-677.4,304.8,0,2298,0,16,0, 
1.2800,80.4,-719.4,-130.8,315.0,165.3,556.2,-401.4,229.2,815.1,-973.8,188.1,51.9,-1620.3,-2377.2,-1040.4,-108.9,-7.2,-6.3,-853.8,-1924.2,-0.6,-432.0,-684.3,284.4,0,2304,0,17,0, 
1.2833,79.2,-717.9,-126.6,321.0,168.9,561.3,-402.9,237.0,592.8,-961.2,199.2,59.7,-1617.0,-2385.9,-1053.6,-111.9,-6.6,-5.7,-849.3,-1917.3,-0.9,-432.3,-674.7,290.7,0,2310,0,18,0, 
1.2867,83.7,-698.1,-104.4,342.3,189.3,583.8,-390.9,254.1,370.5,-930.0,212.1,85.8,-1594.5,-2380.2,-1087.8,-126.0,-7.2,-6.0,-826.5,-1892.1,-0.6,-408.6,-657.3,309.3,0,2316,0,19,0, 
1.2900,78.6,-701.1,-114.3,340.5,186.0,579.0,-395.4,254.1,370.5,-934.2,212.7,80.4,-1595.4,-2380.2,-1084.2,-130.8,-6.6,-6.0,-825.0,-1900.2,-0.3,-400.2,-666.3,306.6,0,2322,0,20,0, 
1.2933,84.6,-699.0,-108.6,332.7,183.3,572.1,-400.8,250.2,666.9,-932.4,211.8,76.8,-1592.7,-2374.2,-1072.2,-124.5,-6.9,-6.3,-830.7,-1900.5,-0.9,-409.2,-666.6,304.8,0,2328,0,21,0, 
1.2967,81.9,-713.4,-130.2,315.6,166.8,559.2,-415.8,235.2,741.0,-961.8,192.0,58.8,-1603.8,-2361.3,-1038.9,-127.5,-6.6,-6.0,-851.1,-1915.8,-0.9,-425.4,-684.6,287.1,0,2334,0,22,0, 
1.3000,84.3,-708.0,-125.4,318.9,171.0,567.6,-402.9,244.8,518.7,-947.1,201.6,63.9,-1610.7,-2378.1,-1059.6,-122.7,-6.9,-5.7,-836.7,-1905.9,-1.2,-418.8,-664.8,295.2,0,2340,0,23,0, 
1.3033,81.6,-707.1,-121.5,323.4,171.3,566.4,-403.8,246.3,370.5,-937.5,204.6,67.8,-1606.2,-2391.6,-1082.7,-120.6,-6.6,-6.3,-831.9,-1903.8,-0.3,-419.1,-671.1,294.9,0,2346,0,24,0, 
1.3067,82.2,-718.8,-134.7,303.9,156.0,548.1,-423.6,232.8,444.6,-966.6,185.1,48.3,-1618.5,-2365.2,-1035.9,-138.0,-6.6,-5.4,-851.7,-1925.4,-0.6,-432.6,-704.7,273.9,0,2352,0,25,0, 
1.3100,86.4,-712.8,-126.3,313.2,162.3,556.5,-417.0,240.3,592.8,-960.9,191.7,58.2,-1605.6,-2361.6,-1042.8,-120.0,-6.9,-6.0,-845.4,-1918.5,-0.6,-431.1,-690.9,279.6,0,2358,0,26,0, 
1.3133,84.9,-702.3,-101.4,336.3,186.0,578.1,-401.7,254.4,741.0,-929.4,218.4,77.7,-1602.6,-2399.4,-1078.5,-111.3,-6.6,-5.7,-818.4,-1902.3,-0.6,-405.9,-656.7,306.3,0,2364,0,27,0, 
1.3167,83.7,-696.6,-97.2,344.7,193.8,584.1,-395.1,266.1,741.0,-924.6,222.6,89.4,-1598.7,-2417.7,-1093.2,-116.4,-7.2,-6.3,-816.3,-1885.5,-0.3,-401.4,-664.2,303.6,0,2370,0,28,0, 
1.3200,85.8,-704.4,-109.5,330.9,173.4,564.9,-402.0,251.4,444.6,-943.5,207.3,74.4,-1608.0,-2390.4,-1058.1,-118.2,-6.9,-6.3,-832.8,-1902.9,-0.9,-417.3,-681.6,286.2,0,2376,0,29,0, 
1.3233,81.0,-711.3,-114.0,327.6,174.0,565.5,-405.0,245.7,444.6,-954.3,203.7,74.7,-1610.7,-2399.4,-1059.3,-116.7,-6.6,-6.0,-840.6,-1904.7,-0.9,-419.4,-682.2,289.8,0,2382,0,30,0, 
1.3267,77.7,-704.7,-105.3,340.5,190.2,572.4,-395.7,254.7,741.0,-936.6,213.6,78.6,-1607.7,-2414.1,-1099.2,-115.2,-6.9,-5.4,-826.8,-1904.4,-0.9,-421.5,-674.1,297.3,0,2388,0,31,0, 
1.3300,81.9,-711.3,-114.9,333.0,176.4,563.4,-409.5,243.3,666.9,-954.6,199.8,63.3,-1607.1,-2371.5,-1055.1,-132.0,-6.9,-6.0,-835.8,-1911.0,-0.6,-427.5,-690.9,290.1,0,2394,0,32,0, 
1.3333,82.8,-706.8,-104.7,338.4,184.2,572.4,-401.7,246.9,666.9,-939.0,206.1,75.6,-1608.9,-2391.3,-1061.4,-130.5,-6.6,-5.4,-826.5,-1902.9,-0.6,-419.7,-680.4,296.1,0,2400,0,33,0, 
1.3367,83.7,-703.5,-109.5,338.1,181.8,570.3,-397.2,244.8,296.4,-944.7,218.1,75.0,-1603.2,-2381.1,-1043.4,-113.4,-6.9,-5.7,-825.3,-1902.0,-0.6,-414.3,-678.0,297.9,0,2406,0,34,0, 
1.3400,73.8,-710.1,-109.8,335.7,187.8,575.1,-393.9,244.2,518.7,-934.8,216.3,84.6,-1607.7,-2409.9,-1082.7,-118.5,-6.9,-5.7,-827.7,-1888.5,-1.2,-397.2,-672.6,303.3,0,2412,0,35,0, 
1.3433,81.3,-704.4,-110.1,342.3,194.7,578.4,-387.0,251.7,666.9,-932.7,219.6,87.0,-1604.1,-2392.5,-1083.9,-127.5,-7.2,-6.0,-819.9,-1885.5,-0.9,-399.3,-667.5,309.6,0,2418,0,36,0, 
1.3467,78.3,-716.4,-114.0,326.1,175.2,558.9,-400.5,237.0,666.9,-949.2,203.4,64.8,-1614.9,-2394.0,-1061.7,-125.7,-6.9,-5.7,-834.9,-1909.8,-0.9,-431.7,-683.7,288.6,0,2424,0,37,0, 
1.3500,78.9,-713.4,-120.3,326.7,171.0,561.6,-396.9,239.1,592.8,-952.8,197.1,66.6,-1611.6,-2396.7,-1062.0,-123.3,-6.9,-5.4,-841.5,-1909.8,-0.9,-434.7,-685.8,284.4,0,2430,0,38,0, 
1.3533,72.9,-716.7,-116.1,330.6,173.1,565.8,-396.3,247.8,444.6,-948.9,204.6,70.8,-1617.6,-2418.3,-1089.9,-134.4,-6.9,-6.0,-834.6,-1900.2,-1.2,-410.7,-679.5,294.0,0,2436,0,39,0, 
1.3567,80.1,-708.9,-111.3,337.2,177.6,570.0,-388.8,250.2,444.6,-945.3,219.6,74.4,-1615.5,-2409.9,-1076.4,-126.9,-6.6,-5.4,-827.4,-1897.8,-0.6,-407.4,-679.8,302.4,0,2442,0,40,0, 
1.3600,77.4,-713.7,-115.8,333.0,174.3,565.5,-391.5,241.2,741.0,-950.4,213.0,67.5,-1613.1,-2390.4,-1062.6,-124.8,-6.9,-6.0,-831.6,-1906.5,-0.9,-417.0,-683.4,288.3,0,2448,0,41,0, 
1.3633,76.5,-712.2,-116.7,331.5,173.4,564.3,-387.0,242.4,592.8,-953.1,209.4,66.3,-1614.6,-2405.1,-1067.1,-116.7,-6.9,-5.7,-835.8,-1909.8,-1.2,-432.3,-670.8,292.2,0,2454,0,42,0, 
1.3667,78.6,-714.6,-121.8,328.5,165.0,558.9,-392.7,237.0,666.9,-957.6,189.9,64.5,-1613.4,-2402.7,-1041.6,-115.5,-6.9,-6.3,-842.4,-1913.4,-0.3,-431.7,-683.4,288.3,0,2460,0,43,0, 
1.3700,92.7,-708.0,-124.8,328.5,162.9,563.4,-394.2,241.5,444.6,-958.2,192.6,61.8,-1606.8,-2370.6,-1027.8,-120.3,-6.9,-5.4,-840.3,-1911.6,-0.9,-427.8,-692.1,287.4,0,2466,0,44,0, 
1.3733,83.4,-712.8,-123.9,331.8,167.4,566.4,-384.9,239.7,592.8,-959.7,205.8,67.2,-1612.8,-2402.7,-1062.0,-101.4,-6.9,-5.7,-838.8,-1909.5,-0.9,-426.3,-666.3,295.5,0,2472,0,45,0, 
1.3767,79.8,-699.0,-99.9,356.7,196.5,588.3,-369.6,257.4,666.9,-916.2,233.4,95.1,-1599.9,-2440.5,-1113.6,-104.1,-6.9,-5.7,-810.6,-1878.3,-1.2,-390.6,-654.6,318.0,0,2478,0,46,0, 
1.3800,83.7,-705.9,-112.5,344.4,182.7,579.3,-386.1,247.8,666.9,-930.6,216.6,84.9,-1604.1,-2426.4,-1077.6,-106.5,-6.9,-6.0,-821.1,-1889.4,-0.6,-405.0,-668.1,303.9,0,2484,0,47,0, 
1.3833,83.4,-706.8,-112.5,343.8,185.1,575.7,-385.2,248.7,444.6,-935.1,220.2,80.4,-1608.0,-2422.8,-1072.2,-120.3,-7.2,-6.0,-822.6,-1891.2,-0.9,-404.1,-664.2,303.6,0,2490,0,48,0, 
1.3867,81.9,-718.5,-123.9,330.9,169.2,567.9,-392.4,236.4,518.7,-954.9,201.0,65.1,-1619.7,-2412.0,-1054.8,-121.2,-6.9,-5.4,-841.8,-1905.6,-0.9,-420.0,-678.6,293.4,0,2496,0,49,0, 
1.3900,81.9,-711.6,-116.4,337.2,176.1,575.7,-387.6,239.7,370.5,-949.2,206.1,72.9,-1609.2,-2409.0,-1077.0,-113.1,-6.6,-5.7,-836.4,-1898.7,-0.6,-421.2,-664.8,297.3,0,2502,0,50,0, 
1.3933,81.3,-716.4,-118.5,341.4,179.4,574.5,-389.7,240.0,666.9,-944.7,214.8,74.4,-1613.1,-2416.2,-1075.8,-119.7,-6.6,-6.0,-829.8,-1896.6,-0.9,-411.0,-673.2,303.9,0,2508,0,51,0, 
1.3967,83.1,-714.9,-123.0,333.9,173.7,563.4,-393.6,232.5,592.8,-954.0,204.3,68.4,-1616.7,-2391.6,-1057.5,-128.4,-7.5,-5.7,-836.1,-1903.8,-0.3,-428.1,-689.1,289.5,0,2514,0,52,0, 
1.4000,80.7,-720.3,-135.6,324.6,162.3,560.7,-399.3,229.2,592.8,-962.4,192.3,58.5,-1614.0,-2400.6,-1066.2,-125.7,-6.9,-5.7,-845.1,-1911.6,-1.2,-434.4,-678.3,287.7,0,2520,0,53,0, 
1.4033,82.5,-710.4,-117.6,333.3,171.9,573.0,-389.7,238.2,444.6,-944.7,211.5,68.1,-1613.1,-2414.7,-1083.3,-116.7,-7.2,-6.0,-831.9,-1901.4,-0.6,-409.2,-665.1,300.0,0,2526,0,54,0, 
1.4067,78.6,-720.9,-132.3,321.9,159.9,560.1,-401.4,228.6,444.6,-958.5,195.3,58.5,-1617.0,-2411.1,-1072.8,-125.1,-6.9,-5.4,-841.2,-1912.8,-1.2,-429.3,-681.0,288.9,0,2532,0,55,0, 
1.4100,77.4,-714.9,-128.4,322.5,159.6,556.2,-401.4,225.6,444.6,-960.9,201.0,60.0,-1609.8,-2407.5,-1071.6,-118.2,-6.9,-5.4,-838.8,-1914.3,-0.6,-429.3,-681.6,284.4,0,2538,0,56,0, 
1.4133,76.8,-720.3,-139.5,315.9,156.9,548.4,-403.8,222.3,666.9,-967.2,200.1,54.3,-1626.6,-2394.0,-1074.0,-127.5,-6.6,-5.1,-845.7,-1919.7,-0.9,-438.9,-686.4,277.8,0,2544,0,57,0, 
1.4167,87.3,-714.9,-132.3,316.5,158.7,547.2,-405.6,220.8,666.9,-969.0,200.4,59.4,-1620.0,-2369.4,-1039.2,-136.2,-6.9,-6.0,-843.0,-1913.1,-0.6,-436.8,-689.1,277.2,0,2550,0,58,0, 
1.4200,95.4,-702.3,-116.4,336.0,173.4,564.6,-390.0,236.7,296.4,-946.5,214.8,79.2,-1602.9,-2365.8,-1060.2,-112.8,-6.9,-6.0,-822.9,-1890.0,-0.9,-409.8,-675.9,298.8,0,2556,0,59,0, 
1.4233,81.9,-705.3,-114.0,336.3,181.2,566.1,-384.9,242.7,370.5,-940.8,219.0,77.7,-1608.6,-2400.0,-1082.7,-106.5,-6.9,-6.0,-820.5,-1895.7,-0.6,-419.4,-673.2,297.3,0,2562,0,60,0, 
1.4267,79.2,-702.9,-109.8,339.6,191.7,572.7,-387.9,246.0,741.0,-927.9,220.5,82.2,-1601.1,-2407.2,-1100.1,-111.9,-6.6,-6.3,-816.6,-1885.5,-0.9,-403.5,-665.1,309.9,0,2568,0,61,0, 
1.4300,81.9,-703.8,-117.3,332.4,184.2,567.9,-388.2,242.1,666.9,-936.3,208.8,77.7,-1601.7,-2401.5,-1083.0,-110.1,-6.6,-5.7,-823.5,-1896.0,-0.6,-409.8,-665.4,305.7,0,2574,0,62,0, 
1.4333,89.1,-709.5,-123.6,324.0,171.6,561.0,-395.1,237.9,666.9,-956.4,196.5,68.7,-1606.2,-2364.3,-1045.5,-114.9,-6.9,-6.0,-834.0,-1906.5,-0.6,-420.3,-683.1,286.8,0,2580,0,63,0, 
1.4367,90.0,-715.5,-133.5,311.7,153.0,549.3,-406.2,228.6,444.6,-970.2,194.4,56.1,-1614.6,-2352.9,-1030.2,-119.1,-6.9,-5.4,-848.1,-1925.4,-0.3,-451.8,-693.9,271.2,0,2586,0,64,0, 
1.4400,86.7,-710.7,-123.0,327.6,170.4,563.1,-391.8,240.3,370.5,-954.3,201.3,70.5,-1605.0,-2379.6,-1077.0,-116.4,-6.9,-6.0,-834.9,-1901.1,-1.2,-410.4,-678.3,297.9,0,2592,0,65,0, 
1.4433,82.2,-708.9,-115.5,339.6,178.8,567.0,-388.2,246.0,666.9,-938.4,221.1,80.4,-1607.1,-2405.1,-1093.2,-113.1,-6.9,-6.0,-821.7,-1891.8,-0.3,-414.9,-675.0,300.9,0,2598,0,66,0, 
1.4467,79.8,-714.6,-120.6,328.2,177.6,564.0,-392.7,237.9,815.1,-942.3,210.0,74.1,-1608.9,-2407.8,-1093.2,-111.3,-6.6,-5.7,-828.9,-1894.5,-0.9,-411.6,-665.7,297.3,0,2604,0,67,0, 
1.4500,75.0,-716.1,-128.7,324.6,171.6,554.7,-403.2,231.3,666.9,-952.2,205.8,69.6,-1617.6,-2414.4,-1096.2,-127.8,-6.9,-6.0,-834.9,-1904.7,-0.9,-423.0,-685.5,286.8,0,2610,0,68,0, 
1.4533,72.9,-718.2,-121.8,328.2,169.2,557.7,-402.0,235.8,444.6,-955.8,205.8,71.1,-1613.4,-2417.7,-1098.3,-122.4,-6.6,-5.4,-841.2,-1904.7,-0.6,-422.7,-678.0,290.4,0,2616,0,69,0, 
1.4567,76.2,-718.2,-127.5,323.1,170.1,554.1,-404.7,230.7,518.7,-956.1,205.5,67.2,-1615.2,-2396.4,-1082.1,-133.8,-6.9,-5.7,-843.0,-1904.1,-0.6,-428.4,-687.9,281.4,0,2622,0,70,0, 
1.4600,78.0,-709.5,-120.0,331.2,179.7,562.8,-394.8,236.7,444.6,-946.5,209.7,75.6,-1601.7,-2388.3,-1085.7,-126.9,-6.6,-6.0,-834.9,-1900.2,-0.9,-433.8,-677.4,290.1,0,2628,0,71,0, 
1.4633,76.2,-714.3,-125.4,325.5,175.5,558.9,-391.5,231.9,592.8,-962.4,197.1,65.1,-1614.3,-2400.6,-1074.6,-114.3,-6.9,-5.4,-845.7,-1906.2,-0.9,-430.8,-676.5,285.3,0,2634,0,72,0, 
1.4667,73.5,-715.8,-127.5,323.7,175.5,557.7,-396.9,231.0,592.8,-963.3,199.2,63.0,-1617.3,-2393.1,-1063.8,-117.0,-6.9,-6.0,-845.4,-1905.0,-1.2,-427.8,-680.1,286.2,0,2640,0,73,0, 
1.4700,78.0,-711.6,-128.7,324.3,169.8,552.9,-399.0,227.1,296.4,-967.2,200.7,64.2,-1618.2,-2381.4,-1048.2,-121.2,-6.9,-5.4,-844.8,-1909.2,-0.9,-439.5,-689.7,281.4,0,2646,0,74,0, 
1.4733,83.1,-703.2,-121.2,331.5,178.5,565.8,-396.0,239.4,370.5,-954.3,200.4,70.2,-1611.6,-2396.4,-1074.3,-115.8,-6.6,-6.0,-838.2,-1901.1,-0.9,-419.1,-680.1,290.7,0,2652,0,75,0, 
1.4767,78.0,-707.1,-124.2,328.5,171.9,556.8,-394.2,233.7,741.0,-960.9,196.2,60.9,-1616.4,-2407.8,-1068.9,-106.8,-6.9,-5.4,-843.3,-1909.8,-0.9,-436.2,-665.4,286.2,0,2658,0,76,0, 
1.4800,87.3,-702.0,-120.6,329.7,171.6,555.0,-391.8,240.9,666.9,-957.6,196.2,61.8,-1611.0,-2384.1,-1059.0,-106.5,-7.2,-6.0,-841.2,-1909.8,-0.6,-428.4,-673.5,288.6,0,2664,0,77,0, 
1.4833,85.5,-702.3,-115.8,335.1,177.6,567.3,-388.2,246.9,592.8,-953.7,209.4,76.2,-1607.4,-2399.7,-1078.8,-105.3,-6.6,-5.7,-834.3,-1903.5,-0.6,-428.1,-672.9,293.7,0,2670,0,78,0, 
1.4867,84.0,-708.3,-121.5,330.0,172.2,561.3,-400.8,241.8,518.7,-957.9,201.0,63.0,-1614.6,-2397.9,-1082.1,-118.2,-6.6,-5.7,-836.7,-1906.5,-0.9,-425.4,-687.0,291.3,0,2676,0,79,0, 
1.4900,78.9,-716.7,-133.2,317.4,159.0,552.3,-406.2,233.7,370.5,-973.2,193.2,42.3,-1620.6,-2403.0,-1062.6,-120.9,-6.6,-6.0,-855.6,-1920.9,-0.6,-441.3,-687.9,278.1,0,2682,0,80,0, 
1.4933,68.7,-720.9,-134.4,318.0,160.8,551.1,-402.6,229.2,666.9,-966.6,194.1,49.8,-1628.1,-2429.4,-1080.3,-93.3,-7.2,-6.3,-848.4,-1920.9,-0.9,-438.9,-685.5,282.0,0,2688,0,81,0, 
1.4967,75.3,-711.3,-130.5,321.6,169.2,555.0,-397.2,236.1,666.9,-961.2,185.7,64.2,-1614.0,-2400.9,-1081.2,-114.6,-7.2,-6.0,-843.0,-1908.3,-0.6,-442.5,-680.4,288.3,0,2694,0,82,0, 
1.5000,67.2,-708.6,-122.7,330.9,177.6,565.2,-384.6,240.0,741.0,-946.2,207.6,76.5,-1614.6,-2437.2,-1112.1,-101.1,-6.9,-5.7,-832.8,-1893.6,-0.3,-420.0,-662.1,300.6,0,2700,0,83,0, 
1.5033,70.2,-718.2,-143.4,320.1,162.0,553.8,-392.7,232.5,518.7,-960.6,202.2,59.1,-1622.7,-2421.6,-1082.4,-98.4,-6.9,-6.0,-844.2,-1908.6,-0.6,-438.9,-672.6,290.7,0,2706,0,84,0, 
1.5067,73.5,-712.2,-131.1,326.1,172.8,558.9,-390.9,238.5,444.6,-954.3,198.9,66.9,-1615.5,-2418.6,-1081.5,-105.3,-6.6,-6.0,-835.8,-1902.6,-0.9,-414.6,-672.6,297.0,0,2712,0,85,0, 
1.5100,79.5,-708.9,-118.5,330.6,177.0,562.5,-390.6,241.2,666.9,-953.1,201.6,73.5,-1609.2,-2400.6,-1090.2,-104.1,-6.6,-6.0,-839.7,-1900.2,-0.6,-422.1,-675.0,297.6,0,2718,0,86,0, 
1.5133,70.8,-723.0,-141.0,313.8,162.3,549.3,-396.3,229.8,815.1,-970.5,189.0,49.5,-1627.5,-2411.1,-1064.4,-108.3,-6.9,-6.0,-856.2,-1923.0,-0.9,-442.8,-682.2,282.6,0,2724,0,87,0, 
1.5167,68.1,-724.8,-146.1,306.3,150.6,537.9,-405.6,219.3,518.7,-987.0,172.2,36.3,-1632.9,-2409.6,-1062.6,-84.6,-6.9,-6.0,-870.3,-1935.9,-0.3,-458.1,-693.6,270.6,0,2730,0,88,0, 
1.5200,66.9,-721.5,-138.3,310.8,154.5,546.9,-403.8,225.3,370.5,-973.5,178.5,43.8,-1629.0,-2425.2,-1078.8,-93.3,-6.9,-6.0,-863.1,-1929.3,-0.9,-449.7,-684.6,276.0,0,2736,0,89,0, 
1.5233,69.9,-708.6,-121.2,329.1,176.4,563.4,-396.9,233.7,592.8,-954.6,193.5,64.5,-1615.5,-2422.8,-1119.9,-97.8,-6.9,-6.0,-846.9,-1901.4,-0.6,-417.9,-675.0,295.8,0,2742,0,90,0, 
1.5267,68.4,-715.2,-134.7,321.3,169.2,553.5,-398.1,230.7,741.0,-960.0,186.6,58.5,-1617.9,-2429.1,-1093.2,-109.2,-6.9,-5.7,-858.3,-1906.2,-0.9,-429.6,-675.3,283.2,0,2748,0,91,0, 
1.5300,74.4,-706.5,-130.2,330.3,175.2,554.1,-396.3,243.6,666.9,-958.5,203.1,64.2,-1608.9,-2408.4,-1093.8,-114.0,-6.6,-5.7,-847.2,-1900.2,-0.6,-432.0,-672.3,295.5,0,2754,0,92,0, 
1.5333,68.1,-707.4,-125.4,336.6,180.6,560.4,-392.7,241.5,518.7,-942.6,222.3,78.9,-1616.4,-2434.2,-1116.3,-114.0,-6.6,-5.7,-833.4,-1890.3,-0.9,-418.8,-675.6,303.9,0,2760,0,93,0, 
1.5367,69.9,-708.9,-132.0,324.0,165.6,554.4,-399.0,232.2,444.6,-958.8,200.7,64.2,-1618.2,-2425.8,-1088.7,-107.1,-6.6,-6.3,-851.1,-1902.9,-0.9,-435.9,-678.0,289.8,0,2766,0,94,0, 
1.5400,70.8,-712.8,-135.9,321.0,168.6,553.8,-405.6,231.6,592.8,-957.0,188.1,64.8,-1619.1,-2416.8,-1077.9,-108.6,-6.6,-6.3,-852.6,-1903.8,-0.9,-426.6,-682.8,288.6,0,2772,0,95,0, 
1.5433,65.4,-723.3,-148.5,307.8,154.5,537.3,-419.4,218.1,592.8,-981.9,176.1,37.8,-1633.8,-2395.2,-1053.3,-116.7,-7.2,-5.4,-874.8,-1926.9,-0.6,-459.9,-702.6,266.7,0,2778,0,96,0, 
1.5467,69.0,-717.9,-143.1,312.6,156.9,540.9,-417.6,222.6,666.9,-979.5,171.3,45.3,-1628.4,-2386.8,-1065.0,-114.9,-7.2,-6.0,-872.7,-1918.8,-0.6,-445.8,-696.0,273.0,0,2784,0,97,0, 
1.5500,71.4,-708.9,-133.8,326.4,168.0,555.0,-401.7,235.8,741.0,-961.5,202.2,58.5,-1611.6,-2403.6,-1076.1,-91.5,-6.9,-5.4,-852.3,-1902.3,-0.3,-430.8,-672.0,292.8,0,2790,0,98,0, 
1.5533,57.0,-712.8,-124.8,329.7,168.6,559.5,-392.1,237.3,518.7,-948.3,204.3,72.0,-1617.9,-2466.3,-1116.3,-77.7,-6.9,-5.4,-848.7,-1892.7,-0.3,-422.7,-659.1,299.7,0,2796,0,99,0, 
1.5567,73.2,-705.0,-117.9,336.9,171.3,560.1,-392.1,243.6,444.6,-944.1,207.6,71.1,-1606.5,-2432.4,-1092.0,-97.5,-6.9,-5.7,-841.2,-1892.4,-0.9,-424.8,-674.1,301.2,0,2802,0,100,0, 
1.5600,69.0,-711.6,-126.0,326.1,159.0,548.4,-403.5,232.5,444.6,-957.9,200.1,60.6,-1617.0,-2410.8,-1068.3,-106.8,-6.6,-6.0,-849.3,-1905.6,-0.9,-432.6,-677.7,288.3,0,2808,0,101,0, 
1.5633,67.5,-708.9,-123.0,336.0,174.6,559.2,-388.5,240.0,815.1,-947.1,207.9,74.1,-1610.1,-2427.0,-1089.9,-83.4,-6.3,-5.7,-846.9,-1896.3,-0.9,-425.1,-660.3,298.8,0,2814,0,102,0, 
1.5667,67.8,-704.1,-123.6,338.4,177.6,565.5,-395.4,249.6,518.7,-944.1,195.6,75.3,-1610.7,-2428.5,-1100.4,-107.7,-7.2,-5.7,-849.6,-1902.9,-0.9,-424.5,-655.5,302.1,0,2820,0,103,0, 
1.5700,75.3,-705.0,-134.4,326.4,165.6,559.8,-402.0,247.8,296.4,-958.5,152.4,32.4,-1605.9,-2410.2,-1080.0,-116.1,-6.9,-5.7,-873.3,-1942.5,-0.6,-431.1,-683.4,292.2,0,2826,0,104,0, 
1.5733,70.2,-713.1,-143.7,311.7,144.0,542.4,-416.7,230.1,370.5,-980.7,163.2,25.5,-1612.8,-2386.8,-1054.8,-112.2,-6.9,-6.3,-873.6,-1934.7,-1.2,-453.3,-688.2,271.5,0,2832,0,105,0, 
1.5767,60.6,-702.3,-114.9,343.2,176.7,562.5,-396.9,247.2,741.0,-934.5,240.0,94.5,-1606.5,-2453.7,-1112.7,-97.2,-6.6,-6.0,-808.2,-1869.3,-0.6,-414.9,-676.8,300.0,0,2838,0,106,0, 
1.5800,56.1,-714.0,-132.6,329.4,165.3,547.5,-408.0,233.1,666.9,-960.3,228.0,90.0,-1617.3,-2444.1,-1101.9,-100.8,-6.6,-6.3,-833.7,-1882.5,-0.3,-437.4,-687.0,280.8,0,2844,0,107,0, 
1.5833,66.3,-714.3,-135.6,324.6,159.0,543.3,-409.8,234.6,592.8,-972.3,211.2,73.2,-1617.0,-2435.1,-1091.1,-109.5,-6.9,-6.0,-847.5,-1902.0,-0.6,-462.6,-690.9,270.3,0,2850,0,108,0, 
1.5867,69.3,-708.9,-133.8,327.6,162.6,540.6,-412.8,235.2,370.5,-974.7,222.9,92.7,-1617.9,-2400.6,-1065.3,-124.5,-6.6,-6.0,-832.2,-1886.1,-0.9,-450.9,-699.3,277.2,0,2856,0,109,0, 
1.5900,77.1,-704.7,-131.4,329.4,165.0,543.0,-410.7,239.1,444.6,-981.0,237.0,93.9,-1611.0,-2391.0,-1056.9,-116.1,-6.3,-5.7,-834.3,-1893.0,-0.6,-453.6,-700.5,270.6,0,2862,0,110,0, 
1.5933,68.4,-695.4,-103.5,348.6,189.0,556.8,-398.1,252.3,666.9,-948.6,270.3,123.0,-1607.4,-2430.3,-1126.2,-105.0,-6.9,-5.7,-800.4,-1876.2,-0.9,-441.0,-684.3,284.4,0,2868,0,111,0, 
1.5967,68.4,-705.6,-115.2,331.5,165.6,538.2,-409.5,238.5,815.1,-973.5,238.8,109.5,-1621.8,-2423.7,-1074.9,-113.1,-6.6,-5.7,-812.1,-1904.4,-0.6,-467.4,-703.2,265.2,0,2874,0,112,0, 
1.6000,69.6,-700.8,-126.6,332.1,162.3,538.8,-410.4,237.3,518.7,-970.5,265.8,117.6,-1621.2,-2426.7,-1080.0,-116.1,-6.9,-5.7,-801.6,-1899.0,-0.9,-467.1,-703.2,264.6,0,2880,0,113,0, 
1.6033,70.8,-693.9,-109.5,348.6,181.8,555.0,-401.4,254.7,370.5,-956.1,302.1,150.9,-1614.3,-2443.2,-1119.3,-101.4,-6.9,-6.0,-776.7,-1858.8,-0.9,-446.1,-687.3,283.5,0,2886,0,114,0, 
1.6067,62.7,-702.3,-116.7,339.9,174.0,541.5,-405.0,243.6,444.6,-971.1,292.5,142.8,-1623.0,-2444.4,-1106.7,-106.2,-7.2,-5.4,-788.7,-1880.1,-0.9,-473.7,-700.2,270.0,0,2892,0,115,0, 
1.6100,68.7,-699.6,-121.5,341.1,171.9,547.2,-407.1,243.9,666.9,-973.2,277.2,123.6,-1622.1,-2439.0,-1105.5,-102.3,-6.6,-6.0,-793.8,-1897.5,-1.2,-472.5,-695.1,271.5,0,2898,0,116,0, 
1.6133,65.7,-706.5,-125.4,340.8,169.8,540.0,-420.0,240.9,815.1,-979.5,270.6,132.6,-1625.1,-2419.2,-1098.0,-111.0,-6.9,-5.7,-794.7,-1888.8,-1.2,-477.9,-714.0,259.2,0,2904,0,117,0, 
1.6167,64.2,-712.5,-137.1,328.2,156.6,525.3,-424.5,230.1,592.8,-995.4,255.3,106.2,-1628.7,-2411.4,-1070.4,-132.9,-6.6,-5.4,-817.5,-1918.8,-1.2,-487.8,-723.3,245.1,0,2910,0,118,0, 
1.6200,70.2,-707.4,-129.6,328.5,157.8,528.0,-416.1,231.0,444.6,-998.4,237.9,73.5,-1624.2,-2403.3,-1066.5,-115.8,-6.9,-6.0,-827.7,-1935.0,-0.6,-501.3,-720.9,249.6,0,2916,0,119,0, 
1.6233,60.3,-708.9,-125.1,334.2,163.5,537.3,-406.2,236.1,518.7,-985.2,251.7,89.4,-1626.3,-2435.4,-1119.0,-110.1,-6.9,-6.0,-815.1,-1926.3,-0.9,-480.9,-707.7,253.8,0,2922,0,120,0, 
1.6267,68.1,-709.8,-133.5,327.0,153.9,531.0,-414.3,232.8,741.0,-985.2,245.7,102.3,-1619.4,-2424.9,-1086.6,-116.4,-6.6,-6.0,-819.6,-1920.3,-1.2,-487.2,-706.5,253.8,0,2928,0,121,0, 
1.6300,66.3,-714.0,-142.2,315.3,139.5,520.5,-423.9,224.4,666.9,-996.3,230.1,90.9,-1619.1,-2409.3,-1077.3,-119.1,-6.6,-5.7,-832.2,-1930.2,-0.6,-499.8,-720.3,240.9,0,2934,0,122,0, 
1.6333,68.4,-703.5,-125.7,326.1,153.0,534.9,-408.9,234.3,666.9,-977.7,240.6,102.0,-1617.0,-2430.6,-1094.1,-117.6,-6.9,-5.7,-822.6,-1918.8,-0.9,-480.6,-699.3,252.0,0,2940,0,123,0, 
1.6367,59.7,-708.9,-135.3,317.7,145.8,525.6,-416.4,229.5,370.5,-984.6,227.7,89.1,-1625.4,-2431.8,-1098.6,-122.1,-6.9,-6.0,-830.4,-1929.3,-0.9,-483.0,-711.6,248.1,0,2946,0,124,0, 
1.6400,60.9,-707.7,-137.7,316.5,150.3,530.1,-420.0,227.7,296.4,-985.5,230.4,87.3,-1627.8,-2443.5,-1098.6,-107.4,-6.9,-6.3,-829.5,-1931.4,-1.5,-484.2,-695.4,256.8,0,2952,0,125,0, 
1.6433,56.1,-712.5,-140.7,308.7,145.8,519.3,-417.0,224.7,666.9,-993.3,228.6,75.3,-1633.2,-2423.1,-1091.1,-117.3,-6.6,-6.0,-834.9,-1940.4,-0.6,-494.4,-721.5,242.1,0,2958,0,126,0, 
1.6467,61.8,-712.2,-137.7,309.3,151.8,525.9,-422.4,223.8,666.9,-994.5,229.2,80.7,-1631.7,-2421.3,-1083.3,-114.0,-6.9,-5.7,-832.2,-1940.4,-0.6,-486.0,-717.0,243.3,0,2964,0,127,0, 
1.6500,58.5,-720.0,-152.4,297.9,137.1,514.8,-431.4,212.1,666.9,-1005.3,206.4,68.4,-1641.0,-2424.3,-1067.1,-118.2,-6.9,-5.7,-845.4,-1948.2,-0.6,-492.3,-723.3,236.1,0,2970,0,128,0, 
1.6533,60.6,-706.8,-130.5,312.3,150.0,525.3,-417.9,223.2,518.7,-990.0,228.0,83.7,-1629.6,-2430.9,-1102.2,-105.6,-6.6,-5.4,-829.8,-1937.1,-0.6,-478.8,-715.8,247.2,0,2976,0,129,0, 
1.6567,58.5,-707.7,-136.2,314.1,152.4,529.8,-420.3,226.2,518.7,-998.4,230.1,83.7,-1629.6,-2438.1,-1089.3,-107.1,-7.2,-6.0,-830.1,-1934.1,-0.9,-479.1,-711.3,248.7,0,2982,0,130,0, 
1.6600,57.3,-711.9,-139.2,311.7,152.1,527.7,-422.7,223.5,592.8,-999.3,225.6,79.2,-1638.0,-2430.6,-1092.3,-102.0,-6.9,-5.7,-837.6,-1936.2,-0.3,-486.0,-720.3,247.5,0,2988,0,131,0, 
1.6633,52.2,-719.1,-147.3,309.3,151.8,526.5,-420.3,220.8,666.9,-997.8,213.0,79.8,-1649.1,-2442.9,-1099.2,-106.5,-6.6,-6.0,-843.6,-1941.6,-0.6,-483.6,-717.6,248.4,0,2994,0,132,0, 
1.6667,63.9,-708.0,-138.0,314.4,155.1,527.7,-417.6,224.1,592.8,-992.4,222.6,82.8,-1628.7,-2422.5,-1088.1,-124.2,-6.9,-5.7,-832.2,-1932.9,-0.6,-481.5,-726.0,246.6,0,3000,0,133,0, 
1.6700,57.3,-702.9,-127.2,328.8,164.1,540.9,-411.3,233.1,370.5,-967.5,252.0,96.3,-1627.8,-2449.5,-1133.1,-125.4,-7.2,-5.7,-813.3,-1919.1,-1.2,-468.0,-702.6,263.4,0,3006,0,134,0, 
1.6733,64.2,-700.5,-130.8,322.8,161.7,540.6,-408.6,232.8,518.7,-975.6,247.5,94.2,-1626.0,-2443.5,-1111.8,-113.1,-7.2,-6.0,-818.4,-1923.3,-0.6,-467.4,-718.8,255.9,0,3012,0,135,0, 
1.6767,54.0,-717.3,-154.8,298.5,139.8,513.3,-424.2,215.4,741.0,-1008.0,214.8,67.2,-1641.6,-2439.0,-1088.4,-114.3,-6.6,-6.3,-845.7,-1954.5,-0.6,-500.7,-740.7,229.2,0,3018,0,136,0, 
1.6800,52.2,-722.4,-161.4,296.1,129.3,512.1,-427.5,212.4,741.0,-1017.3,206.7,53.7,-1647.3,-2433.6,-1083.3,-105.3,-6.9,-5.7,-852.3,-1962.9,-0.6,-507.6,-734.7,227.7,0,3024,0,137,0, 
1.6833,51.0,-717.3,-147.9,306.9,140.7,518.7,-423.3,224.1,518.7,-1003.8,215.4,69.9,-1652.1,-2449.2,-1095.3,-105.3,-6.9,-5.7,-840.9,-1951.8,-0.9,-491.7,-733.2,232.2,0,3030,0,138,0, 
1.6867,52.8,-705.9,-132.6,321.6,156.6,534.0,-410.4,232.5,444.6,-992.4,241.2,89.4,-1640.4,-2458.5,-1122.0,-114.6,-6.9,-5.7,-826.5,-1939.5,-0.6,-472.2,-729.3,246.3,0,3036,0,139,0, 
1.6900,45.3,-718.8,-145.8,307.2,141.6,521.1,-426.0,218.7,444.6,-1000.8,217.5,71.4,-1656.9,-2468.1,-1116.0,-117.9,-6.9,-5.7,-843.0,-1948.8,-0.6,-501.9,-735.6,229.8,0,3042,0,140,0, 
1.6933,55.8,-714.9,-151.2,303.9,141.6,522.0,-422.1,219.9,592.8,-1005.9,218.1,67.2,-1644.3,-2438.4,-1083.0,-117.3,-6.9,-6.0,-847.8,-1953.0,-0.6,-501.6,-738.0,229.2,0,3048,0,141,0, 
1.6967,50.4,-714.0,-146.1,310.2,145.8,519.6,-421.2,217.2,815.1,-993.0,220.5,77.4,-1644.9,-2443.2,-1107.6,-111.0,-7.2,-5.7,-843.3,-1947.0,-0.9,-494.4,-723.9,234.0,0,3054,0,142,0, 
1.7000,59.4,-705.0,-138.9,315.9,149.7,531.0,-415.2,227.1,518.7,-978.3,231.0,88.5,-1636.8,-2442.9,-1109.4,-114.3,-6.9,-6.0,-828.9,-1934.7,-0.9,-479.7,-723.9,244.2,0,3060,0,143,0, 
1.7033,53.7,-714.3,-155.7,302.1,136.8,520.2,-423.6,220.2,370.5,-995.4,213.0,79.2,-1647.9,-2442.0,-1098.0,-108.3,-6.9,-6.0,-843.3,-1944.3,-0.6,-489.0,-733.5,234.3,0,3066,0,144,0, 
1.7067,49.2,-715.5,-153.0,302.4,135.9,522.6,-423.3,214.5,444.6,-997.5,227.4,75.6,-1648.5,-2448.9,-1110.0,-111.9,-6.6,-6.0,-836.4,-1942.8,-0.6,-492.0,-733.2,227.1,0,3072,0,145,0, 
1.7100,45.3,-724.8,-167.4,291.0,126.6,507.0,-430.2,206.4,592.8,-1011.0,213.6,60.0,-1659.6,-2448.6,-1106.7,-115.8,-6.9,-5.7,-852.0,-1961.4,-0.6,-516.0,-741.6,217.8,0,3078,0,146,0, 
1.7133,49.2,-722.4,-156.3,293.1,126.0,509.7,-428.7,204.9,666.9,-1015.5,209.7,55.2,-1656.3,-2439.0,-1089.3,-108.0,-6.9,-5.4,-851.7,-1967.4,-0.9,-499.2,-731.7,225.6,0,3084,0,147,0, 
1.7167,54.0,-718.8,-159.3,289.5,123.0,508.2,-426.3,205.2,741.0,-1019.1,204.6,57.6,-1653.0,-2433.3,-1085.4,-108.0,-7.5,-6.0,-850.5,-1965.6,-0.3,-505.8,-729.9,225.0,0,3090,0,148,0, 
1.7200,51.0,-726.0,-171.6,275.7,109.5,500.1,-433.2,200.1,370.5,-1028.4,199.8,45.3,-1657.5,-2426.7,-1062.0,-111.0,-6.9,-5.7,-861.3,-1981.8,-0.6,-526.8,-738.9,211.5,0,3096,0,149,0, 
1.7233,48.9,-721.5,-162.3,282.3,121.2,509.7,-423.3,206.1,444.6,-1017.6,202.5,56.1,-1650.0,-2441.4,-1083.3,-107.7,-7.5,-6.0,-857.1,-1971.0,-0.6,-521.7,-737.1,219.0,0,3102,0,150,0, 
1.7267,45.9,-711.6,-142.5,308.4,145.8,525.0,-415.8,223.5,741.0,-989.1,230.1,78.9,-1647.6,-2461.8,-1150.8,-98.1,-6.6,-5.7,-833.1,-1941.3,-1.2,-493.5,-718.5,239.4,0,3108,0,151,0, 
1.7300,53.1,-712.5,-149.1,299.7,140.4,517.5,-417.9,220.8,666.9,-1009.8,219.0,66.0,-1648.5,-2442.6,-1104.6,-108.6,-6.9,-6.0,-842.1,-1951.2,-0.9,-502.5,-730.8,232.5,0,3114,0,152,0, 
1.7333,54.3,-705.9,-141.6,307.8,147.0,530.1,-410.1,223.2,592.8,-996.0,236.4,83.7,-1642.8,-2451.3,-1111.5,-106.8,-6.6,-5.7,-829.5,-1936.5,-0.6,-488.4,-727.8,237.9,0,3120,0,153,0, 
1.7367,53.1,-714.3,-158.1,295.5,131.7,522.3,-416.1,218.7,296.4,-1019.7,213.6,66.0,-1648.8,-2449.5,-1084.2,-105.0,-7.2,-6.3,-850.5,-1953.9,-0.6,-508.5,-729.6,230.1,0,3126,0,154,0, 
1.7400,54.0,-702.3,-138.9,315.0,150.3,542.1,-406.8,234.6,444.6,-989.1,236.1,89.4,-1643.7,-2455.5,-1134.6,-110.7,-6.6,-5.7,-825.0,-1925.7,-0.6,-471.9,-708.0,252.6,0,3132,0,155,0, 
1.7433,54.0,-708.0,-148.8,308.1,145.8,532.2,-407.4,227.4,592.8,-1003.8,223.5,77.4,-1647.6,-2448.9,-1125.6,-103.5,-6.9,-6.0,-837.9,-1935.9,-1.2,-480.3,-704.7,249.0,0,3138,0,156,0, 
1.7467,61.5,-706.8,-146.7,308.4,138.9,525.9,-410.1,226.5,666.9,-1002.9,218.4,73.5,-1642.5,-2442.3,-1105.5,-91.8,-6.9,-5.4,-840.0,-1945.5,-0.6,-511.8,-713.4,237.6,0,3144,0,157,0, 
1.7500,65.4,-701.4,-141.9,310.2,144.6,531.3,-407.4,226.8,518.7,-997.8,224.4,80.4,-1635.9,-2431.5,-1096.8,-94.2,-7.2,-6.3,-834.3,-1937.1,-0.9,-492.6,-704.4,246.6,0,3150,0,158,0, 
1.7533,64.2,-696.9,-139.5,317.7,149.4,534.9,-405.6,231.3,518.7,-987.3,235.8,90.6,-1629.0,-2430.6,-1104.3,-104.7,-6.9,-6.0,-824.4,-1922.7,-0.9,-483.9,-693.6,249.6,0,3156,0,159,0, 
1.7567,75.3,-695.1,-136.8,315.0,150.0,532.5,-406.8,234.6,518.7,-993.6,231.3,82.8,-1624.2,-2400.9,-1072.2,-100.5,-6.6,-6.0,-827.4,-1934.1,-0.9,-496.8,-689.1,249.0,0,3162,0,160,0, 
1.7600,69.9,-699.0,-134.7,315.0,149.1,531.9,-408.9,234.0,444.6,-993.9,231.3,83.1,-1638.3,-2411.1,-1095.3,-100.2,-7.2,-6.0,-829.8,-1929.9,-0.6,-482.1,-706.2,245.1,0,3168,0,161,0, 
1.7633,69.0,-692.7,-130.8,326.7,161.4,542.4,-403.8,237.0,741.0,-979.5,251.1,98.7,-1621.8,-2431.2,-1110.0,-98.4,-7.2,-6.3,-813.9,-1915.8,-0.9,-471.0,-696.3,255.0,0,3174,0,162,0, 
1.7667,66.3,-692.4,-126.6,327.0,153.0,538.5,-407.4,237.6,444.6,-989.1,243.6,93.9,-1624.8,-2439.0,-1098.9,-95.1,-6.6,-6.0,-821.7,-1926.9,-0.6,-486.0,-699.0,251.1,0,3180,0,163,0, 
1.7700,69.3,-692.4,-135.3,321.0,147.3,534.9,-405.6,237.0,444.6,-994.2,227.7,87.9,-1628.7,-2422.5,-1090.2,-93.6,-6.9,-5.7,-827.4,-1933.2,-0.9,-487.2,-701.4,251.1,0,3186,0,164,0, 
1.7733,69.0,-699.0,-143.1,314.7,144.0,528.0,-414.3,234.3,370.5,-1001.1,229.5,85.2,-1637.7,-2414.1,-1077.3,-111.3,-6.6,-6.0,-828.3,-1938.0,-0.9,-491.1,-709.5,239.7,0,3192,0,165,0, 
1.7767,61.8,-707.4,-152.1,305.1,135.0,515.7,-422.1,220.2,741.0,-1008.9,224.4,71.4,-1647.6,-2412.0,-1074.3,-106.2,-7.2,-5.7,-834.9,-1946.4,-1.2,-509.1,-718.8,223.8,0,3198,0,166,0, 
1.7800,60.9,-709.8,-151.5,303.9,131.1,516.3,-424.2,214.8,666.9,-1011.9,224.4,70.2,-1651.8,-2423.7,-1074.9,-110.1,-7.2,-6.3,-841.2,-1955.7,-0.6,-513.6,-726.3,218.7,0,3204,0,167,0, 
1.7833,65.1,-697.2,-130.2,319.5,149.4,531.6,-413.4,229.2,666.9,-987.0,231.3,89.7,-1633.5,-2439.3,-1125.0,-109.5,-6.9,-6.0,-822.6,-1928.7,-0.6,-481.5,-697.8,238.5,0,3210,0,168,0, 
1.7867,67.5,-690.0,-117.9,331.8,156.6,538.8,-407.1,236.7,444.6,-975.0,245.1,101.1,-1626.0,-2442.3,-1134.6,-94.2,-6.9,-6.0,-804.9,-1924.5,-0.6,-470.4,-684.0,245.1,0,3216,0,169,0, 
1.7900,58.5,-701.4,-128.4,313.8,144.6,522.6,-409.8,231.0,444.6,-989.4,243.0,87.9,-1641.9,-2457.0,-1120.2,-96.9,-7.2,-6.0,-821.1,-1937.1,-0.6,-486.0,-708.0,235.2,0,3222,0,170,0, 
1.7933,57.3,-700.8,-132.3,309.0,148.8,519.0,-414.6,225.6,815.1,-987.6,242.7,87.9,-1636.5,-2435.7,-1123.2,-105.0,-6.6,-5.4,-818.7,-1940.4,-0.9,-494.7,-710.7,226.5,0,3228,0,171,0, 
1.7967,57.0,-705.3,-137.7,311.1,150.3,522.3,-408.6,223.5,666.9,-993.3,246.0,91.2,-1636.8,-2453.1,-1128.6,-101.4,-6.6,-5.7,-816.0,-1932.0,-0.9,-480.9,-704.4,230.4,0,3234,0,172,0, 
1.8000,69.0,-709.2,-147.9,304.5,136.5,512.7,-416.4,217.5,592.8,-1002.0,223.2,74.4,-1648.8,-2436.0,-1077.9,-106.5,-6.9,-5.7,-828.3,-1949.4,-1.2,-506.4,-716.7,219.3,0,3240,0,173,0, 
1.8033,67.5,-705.9,-147.0,312.3,144.6,520.2,-413.4,223.5,444.6,-1002.0,225.3,80.7,-1636.8,-2423.7,-1092.9,-109.5,-6.9,-6.0,-829.2,-1936.5,-0.9,-497.7,-709.8,222.0,0,3246,0,174,0, 
1.8067,65.1,-711.9,-150.3,307.8,139.8,512.4,-419.7,219.0,592.8,-1012.2,234.9,82.2,-1638.0,-2421.3,-1091.4,-115.8,-6.6,-5.7,-831.3,-1943.1,-0.9,-503.1,-714.6,218.7,0,3252,0,175,0, 
1.8100,58.8,-705.0,-134.1,325.8,164.4,534.0,-401.1,231.6,592.8,-984.3,251.1,100.8,-1633.2,-2455.8,-1146.3,-101.1,-7.2,-6.0,-816.0,-1921.5,-0.9,-484.5,-702.0,238.2,0,3258,0,176,0, 
1.8133,56.7,-713.4,-152.7,312.6,152.7,521.7,-418.5,221.7,815.1,-997.8,229.8,85.2,-1645.5,-2433.6,-1119.3,-113.4,-6.6,-5.7,-831.9,-1939.5,-0.9,-495.6,-713.4,226.8,0,3264,0,177,0, 
1.8167,56.1,-719.7,-158.4,303.9,145.2,512.7,-426.6,215.1,666.9,-1007.4,223.2,70.8,-1648.8,-2420.1,-1108.2,-129.9,-6.6,-6.3,-844.5,-1956.9,-0.3,-515.1,-723.9,214.2,0,3270,0,178,0, 
1.8200,60.3,-713.1,-148.2,308.7,147.6,519.3,-411.3,221.7,296.4,-1002.6,228.0,80.4,-1645.2,-2437.2,-1121.4,-116.4,-6.6,-5.7,-840.3,-1939.5,-0.9,-499.5,-705.0,229.2,0,3276,0,179,0, 
1.8233,55.5,-726.6,-158.7,302.7,137.4,512.7,-416.1,214.2,444.6,-1016.4,216.9,66.9,-1654.8,-2441.7,-1117.8,-109.5,-6.6,-6.0,-846.0,-1952.1,-0.9,-517.5,-722.7,218.4,0,3282,0,180,0, 
1.8267,55.5,-726.6,-152.7,305.1,143.7,513.3,-420.0,215.7,666.9,-1014.0,224.1,76.8,-1654.2,-2429.7,-1111.5,-113.1,-6.6,-6.0,-837.3,-1942.5,-0.6,-505.8,-731.7,217.8,0,3288,0,181,0, 
1.8300,66.0,-723.6,-156.9,300.9,140.4,508.5,-426.3,214.5,741.0,-1015.8,217.5,76.2,-1645.5,-2412.3,-1082.1,-137.4,-6.6,-5.7,-842.1,-1948.2,-0.9,-506.1,-730.5,217.5,0,3294,0,182,0, 
1.8333,60.0,-738.3,-171.3,284.4,126.0,500.7,-429.0,207.0,518.7,-1032.3,198.3,56.1,-1655.1,-2414.7,-1079.7,-117.3,-7.2,-5.7,-864.9,-1963.2,-0.6,-516.9,-737.7,207.0,0,3300,0,183,0, 
1.8367,62.1,-731.1,-156.9,291.9,139.2,510.0,-420.9,214.8,370.5,-1017.9,216.6,67.8,-1651.2,-2432.4,-1102.2,-120.0,-6.9,-5.7,-848.4,-1950.6,-0.9,-510.3,-726.6,216.3,0,3306,0,184,0, 
1.8400,47.1,-732.9,-155.1,291.9,141.6,515.7,-413.4,211.5,370.5,-1018.8,216.3,65.1,-1650.0,-2467.5,-1132.2,-113.1,-6.6,-6.0,-853.8,-1953.3,-1.2,-513.6,-700.2,222.0,0,3312,0,185,0, 
1.8433,56.4,-720.3,-132.6,309.9,155.7,523.5,-415.5,223.5,815.1,-991.8,230.4,81.0,-1632.3,-2451.3,-1154.4,-135.0,-6.6,-5.7,-839.1,-1937.4,-0.9,-498.0,-729.9,226.8,0,3318,0,186,0, 
1.8467,55.5,-725.1,-145.5,303.6,149.4,517.8,-417.0,215.4,741.0,-999.0,221.7,78.6,-1640.1,-2442.3,-1133.1,-138.3,-6.9,-5.7,-839.4,-1940.1,-0.6,-495.6,-732.9,222.6,0,3324,0,187,0, 
1.8500,62.7,-718.8,-147.6,304.8,150.3,518.4,-417.9,224.7,518.7,-997.2,231.0,82.2,-1627.2,-2409.0,-1116.6,-138.9,-6.9,-6.3,-831.3,-1940.1,-0.3,-496.5,-729.9,221.7,0,3330,0,188,0, 
1.8533,57.9,-730.2,-162.6,291.3,140.4,509.4,-424.5,211.8,444.6,-1021.2,215.1,70.8,-1638.3,-2408.4,-1103.7,-128.4,-6.9,-6.0,-844.2,-1960.8,-0.3,-512.1,-739.8,208.5,0,3336,0,189,0, 
1.8567,68.1,-723.6,-154.8,293.7,144.6,516.0,-419.7,221.7,592.8,-1011.6,227.7,75.9,-1635.6,-2417.7,-1085.7,-118.2,-6.9,-6.0,-838.8,-1953.6,-0.3,-506.7,-729.3,211.8,0,3342,0,190,0, 
1.8600,64.8,-727.5,-159.9,293.4,145.8,513.6,-419.1,214.8,741.0,-1011.3,233.7,73.2,-1640.7,-2416.2,-1091.7,-138.6,-6.9,-5.7,-835.8,-1949.7,-0.3,-505.2,-741.3,208.8,0,3348,0,191,0, 
1.8633,59.7,-723.6,-138.0,308.1,165.3,527.4,-405.9,227.4,815.1,-985.8,258.9,93.6,-1629.9,-2439.3,-1148.7,-134.1,-7.2,-6.3,-813.6,-1927.2,-0.3,-481.5,-723.3,226.5,0,3354,0,192,0, 
1.8667,66.3,-714.3,-132.6,313.2,171.0,544.2,-397.2,241.2,592.8,-970.8,255.0,106.2,-1619.1,-2451.3,-1146.6,-115.2,-6.9,-5.7,-805.5,-1914.9,-0.9,-471.9,-710.1,239.1,0,3360,0,193,0, 
1.8700,61.2,-724.8,-143.7,296.1,153.3,528.6,-406.5,227.1,370.5,-989.4,243.0,93.9,-1629.9,-2448.6,-1131.6,-125.1,-6.9,-5.7,-824.4,-1930.2,-0.6,-480.9,-714.9,228.9,0,3366,0,194,0, 
1.8733,63.3,-728.1,-148.8,292.5,152.1,529.5,-401.7,225.3,592.8,-991.8,235.5,83.1,-1627.5,-2418.3,-1110.3,-120.9,-7.2,-5.7,-830.4,-1934.1,-0.9,-486.3,-720.9,223.8,0,3372,0,195,0, 
1.8767,58.5,-734.1,-156.3,284.7,148.8,520.8,-410.4,217.8,741.0,-1006.2,234.3,81.0,-1638.0,-2418.0,-1109.1,-128.7,-6.6,-5.7,-834.0,-1940.1,-0.6,-504.6,-726.0,214.8,0,3378,0,196,0, 
1.8800,60.3,-730.2,-153.6,291.3,154.2,521.4,-406.8,222.9,666.9,-1005.6,234.0,86.7,-1636.5,-2412.9,-1104.6,-129.9,-7.2,-6.0,-831.0,-1937.4,-1.2,-496.8,-719.7,217.8,0,3384,0,197,0, 
1.8833,58.8,-730.8,-151.8,294.0,156.3,520.5,-415.5,216.9,518.7,-1003.5,237.0,83.4,-1637.7,-2420.7,-1104.3,-133.5,-7.2,-6.0,-834.9,-1943.4,-0.3,-500.4,-731.4,215.1,0,3390,0,198,0, 
1.8867,65.1,-731.4,-153.0,289.8,152.4,516.6,-413.4,220.2,370.5,-1008.3,239.4,84.6,-1631.7,-2397.0,-1089.6,-132.0,-6.9,-5.7,-836.1,-1943.1,-0.9,-505.2,-738.0,209.1,0,3396,0,199,0, 
1.8900,65.1,-734.7,-161.4,285.0,149.1,510.3,-417.0,216.3,370.5,-1018.8,226.2,80.1,-1637.1,-2394.9,-1070.7,-132.9,-6.9,-6.0,-841.5,-1948.8,-0.6,-519.3,-743.7,202.5,0,3402,0,200,0, 
1.8933,64.8,-729.3,-149.7,294.9,168.3,522.6,-414.6,222.9,741.0,-1005.3,234.9,93.3,-1632.9,-2407.8,-1112.4,-140.4,-6.6,-5.7,-829.2,-1934.1,-1.2,-495.6,-728.1,218.1,0,3408,0,201,0, 
1.8967,60.9,-730.2,-150.9,292.5,165.3,522.6,-415.5,219.3,666.9,-1006.8,231.9,84.9,-1630.8,-2422.8,-1109.7,-128.7,-7.2,-6.0,-831.3,-1937.7,-0.9,-495.9,-722.1,216.0,0,3414,0,202,0, 
1.9000,72.0,-726.0,-148.5,294.9,168.3,528.9,-415.2,226.8,518.7,-1002.9,238.8,96.0,-1626.6,-2403.0,-1080.9,-120.0,-6.6,-5.7,-830.1,-1930.8,-0.9,-497.4,-728.1,217.2,0,3420,0,203,0, 
1.9033,82.2,-719.7,-147.0,294.0,159.9,523.5,-414.6,224.4,296.4,-1008.3,242.4,88.2,-1621.8,-2368.8,-1059.3,-123.9,-7.2,-6.0,-831.0,-1933.8,-0.9,-513.6,-734.1,215.7,0,3426,0,204,0, 
1.9067,75.6,-715.5,-122.4,312.9,181.8,538.5,-409.5,238.8,444.6,-971.4,265.5,117.6,-1622.7,-2430.3,-1120.8,-126.3,-6.6,-6.0,-799.5,-1902.3,-0.6,-468.6,-711.3,239.4,0,3432,0,205,0, 
1.9100,69.6,-724.8,-141.0,297.0,165.9,524.7,-412.2,226.5,741.0,-998.4,244.2,100.2,-1629.9,-2418.0,-1091.1,-121.8,-6.3,-6.0,-821.4,-1926.0,-0.9,-478.2,-721.5,226.2,0,3438,0,206,0, 
1.9133,63.0,-732.0,-148.8,290.4,160.2,518.4,-417.6,223.5,666.9,-1015.5,252.0,86.1,-1641.0,-2411.4,-1097.4,-114.9,-6.9,-6.0,-830.1,-1941.9,-1.2,-507.6,-724.5,216.6,0,3444,0,207,0, 
1.9167,70.2,-715.2,-137.1,300.3,166.2,526.5,-415.8,231.9,666.9,-994.2,261.3,102.3,-1612.5,-2376.9,-1096.2,-135.9,-7.2,-5.4,-811.2,-1923.0,-0.9,-487.5,-721.2,225.9,0,3450,0,208,0, 
1.9200,66.0,-714.3,-124.8,311.7,178.2,541.5,-405.0,240.9,370.5,-971.4,263.7,125.1,-1615.8,-2420.1,-1126.2,-138.0,-6.6,-6.0,-799.2,-1901.4,-0.9,-456.9,-708.0,245.4,0,3456,0,209,0, 
1.9233,68.4,-708.3,-123.9,308.7,177.6,541.5,-401.4,237.6,592.8,-964.2,272.1,121.8,-1620.3,-2431.2,-1125.3,-112.2,-7.2,-5.7,-796.5,-1905.0,-0.9,-460.5,-707.4,237.6,0,3462,0,210,0, 
1.9267,66.0,-709.5,-123.0,314.7,185.7,548.7,-393.3,239.4,666.9,-957.6,278.7,134.7,-1614.9,-2432.7,-1152.6,-111.9,-6.9,-6.0,-785.4,-1893.6,-0.6,-456.6,-686.1,249.0,0,3468,0,211,0, 
1.9300,77.4,-708.9,-131.4,302.1,174.3,533.4,-406.5,230.7,741.0,-970.8,267.0,116.1,-1607.1,-2412.3,-1107.6,-126.0,-6.9,-5.4,-795.3,-1907.7,-0.3,-471.6,-711.9,242.7,0,3474,0,212,0, 
1.9333,79.2,-707.7,-124.8,304.8,174.9,541.2,-402.6,236.1,592.8,-972.9,272.4,120.6,-1603.2,-2406.6,-1104.0,-125.7,-6.9,-6.0,-795.0,-1905.9,-0.6,-459.6,-705.3,249.3,0,3480,0,213,0, 
1.9367,74.7,-718.8,-137.4,292.5,160.5,531.0,-404.7,229.2,444.6,-989.4,259.2,105.6,-1619.1,-2404.2,-1090.5,-120.3,-6.6,-6.3,-808.5,-1920.0,-0.9,-480.6,-714.9,226.8,0,3486,0,214,0, 
1.9400,72.6,-712.8,-133.2,296.4,167.1,537.0,-407.7,233.4,444.6,-981.0,266.7,111.9,-1612.5,-2415.6,-1101.6,-110.7,-6.3,-6.0,-804.6,-1915.2,-0.6,-470.1,-718.8,230.7,0,3492,0,215,0, 
1.9433,78.6,-712.2,-136.2,291.9,163.5,531.3,-411.3,234.3,741.0,-984.3,258.6,101.4,-1614.6,-2394.9,-1080.6,-122.1,-7.5,-6.0,-809.4,-1920.0,-0.6,-481.8,-722.4,230.7,0,3498,0,216,0, 
1.9467,72.3,-717.3,-142.2,286.8,160.5,524.4,-417.9,224.7,889.2,-985.5,250.2,100.2,-1614.3,-2404.2,-1075.2,-127.5,-6.6,-5.7,-813.9,-1927.2,-0.9,-494.1,-726.3,220.5,0,3504,0,217,0, 
1.9500,85.5,-705.0,-130.2,293.4,165.0,525.0,-408.9,229.2,592.8,-978.9,258.9,104.7,-1589.4,-2378.4,-1055.7,-127.2,-6.6,-5.7,-806.1,-1921.2,0.0,-486.9,-740.4,222.3,0,3510,0,218,0, 
1.9533,70.2,-702.6,-117.6,309.0,183.9,542.4,-395.1,240.6,370.5,-964.2,271.2,127.2,-1595.1,-2449.5,-1133.1,-120.6,-6.9,-5.4,-790.2,-1898.7,-0.6,-459.0,-708.0,249.3,0,3516,0,219,0, 
1.9567,66.3,-710.1,-118.8,304.8,179.7,541.5,-398.7,236.1,518.7,-968.7,268.8,117.0,-1620.0,-2432.4,-1119.6,-121.2,-6.9,-6.0,-800.1,-1903.8,-0.3,-459.9,-711.0,246.3,0,3522,0,220,0, 
1.9600,66.0,-712.8,-132.0,297.9,172.8,537.3,-399.6,230.1,666.9,-981.0,264.0,114.0,-1612.5,-2432.7,-1105.2,-128.1,-7.2,-5.7,-806.4,-1906.2,-0.6,-458.1,-707.1,243.0,0,3528,0,221,0, 
1.9633,66.0,-719.1,-137.1,289.5,169.8,526.5,-408.9,222.9,741.0,-987.9,252.9,103.2,-1620.9,-2419.2,-1091.1,-122.7,-6.9,-6.3,-818.1,-1914.9,-0.9,-470.7,-728.7,231.6,0,3534,0,222,0, 
1.9667,65.7,-726.0,-141.3,285.3,162.0,519.9,-416.1,221.7,518.7,-998.1,248.1,96.9,-1621.5,-2393.4,-1068.9,-135.3,-6.9,-6.3,-825.0,-1923.6,-0.6,-491.4,-745.5,224.1,0,3540,0,223,0, 
1.9700,74.1,-725.7,-148.2,279.0,148.8,508.8,-417.6,214.2,370.5,-1018.2,233.7,88.8,-1621.5,-2370.0,-1040.7,-132.9,-6.6,-5.7,-835.2,-1934.7,-0.3,-513.0,-755.7,210.6,0,3546,0,224,0, 
1.9733,60.3,-721.5,-134.4,294.6,165.0,527.7,-408.9,222.9,444.6,-991.5,256.5,105.3,-1633.8,-2431.8,-1095.0,-118.8,-7.2,-5.7,-812.1,-1920.3,-0.6,-481.2,-736.5,231.0,0,3552,0,225,0, 
1.9767,56.7,-723.6,-136.8,294.6,165.0,526.5,-407.4,223.5,666.9,-984.3,254.1,110.1,-1631.7,-2437.2,-1118.7,-121.8,-6.9,-6.0,-813.0,-1911.9,-0.9,-467.7,-724.5,240.6,0,3558,0,226,0, 
1.9800,61.8,-716.4,-128.7,298.5,170.7,535.2,-399.3,232.5,592.8,-979.5,267.0,112.2,-1622.4,-2438.1,-1116.3,-116.1,-6.9,-6.0,-801.6,-1908.9,-0.9,-463.8,-714.3,243.6,0,3564,0,227,0, 
1.9833,68.7,-717.0,-134.4,294.6,164.1,526.8,-406.5,226.2,518.7,-983.4,258.6,115.2,-1617.3,-2418.3,-1089.3,-116.4,-7.2,-6.0,-807.6,-1907.7,-0.9,-471.3,-720.0,234.3,0,3570,0,228,0, 
1.9867,68.4,-722.7,-133.2,288.0,153.3,522.0,-414.3,225.6,444.6,-989.4,258.0,102.9,-1623.6,-2425.8,-1081.8,-111.6,-6.3,-5.7,-808.8,-1917.3,-0.9,-470.7,-728.1,231.9,0,3576,0,229,0, 
1.9900,78.0,-713.1,-122.1,298.8,163.8,530.7,-402.6,235.2,370.5,-979.5,263.1,111.3,-1611.3,-2411.4,-1086.0,-103.8,-7.2,-5.4,-803.4,-1911.0,-0.6,-473.7,-720.0,237.9,0,3582,0,230,0, 
1.9933,72.3,-709.8,-116.7,304.2,170.7,534.6,-399.0,237.0,815.1,-978.9,266.4,113.1,-1610.7,-2412.9,-1109.1,-114.9,-6.6,-6.0,-795.3,-1911.0,-0.9,-466.2,-702.9,241.8,0,3588,0,231,0, 
1.9967,70.2,-710.7,-120.3,303.6,171.9,538.5,-404.4,232.2,666.9,-980.1,266.4,116.1,-1608.9,-2415.9,-1094.1,-126.3,-6.9,-5.1,-798.6,-1908.9,-0.9,-465.6,-708.0,238.5,0,3594,0,232,0, 
2.0000,63.6,-705.6,-112.2,302.1,171.3,540.0,-400.8,234.6,518.7,-974.7,258.6,114.3,-1609.2,-2446.5,-1121.1,-111.0,-6.9,-6.3,-803.7,-1908.6,-0.3,-470.1,-713.7,245.1,0,3600,0,233,0, 
2.0033,74.1,-702.0,-115.5,305.1,177.0,542.1,-398.7,239.7,444.6,-973.8,270.0,112.8,-1604.7,-2428.5,-1102.8,-111.6,-7.2,-5.7,-794.4,-1905.6,-0.6,-462.0,-715.5,241.2,0,3606,0,234,0, 
2.0067,71.4,-707.7,-122.1,303.3,175.8,534.6,-400.5,231.6,518.7,-979.8,270.0,113.4,-1618.2,-2425.2,-1102.2,-120.0,-6.9,-5.7,-796.8,-1907.4,-1.2,-470.4,-720.9,242.1,0,3612,0,235,0, 
2.0100,68.1,-715.5,-132.3,291.6,167.1,523.5,-411.9,225.3,518.7,-980.1,256.5,103.8,-1620.3,-2421.6,-1096.2,-118.5,-6.9,-5.7,-802.8,-1916.7,-0.6,-471.6,-726.3,231.6,0,3618,0,236,0, 
2.0133,66.0,-717.3,-132.3,287.7,165.9,527.7,-408.9,222.9,741.0,-987.9,253.8,102.3,-1619.4,-2417.4,-1094.4,-121.2,-6.9,-5.7,-807.0,-1919.4,-0.9,-482.4,-715.2,229.2,0,3624,0,237,0, 
2.0167,68.1,-712.2,-134.4,282.0,155.1,517.5,-421.8,222.9,518.7,-992.4,244.8,96.0,-1618.8,-2410.2,-1082.4,-114.0,-6.6,-5.4,-816.3,-1931.1,-0.6,-502.5,-730.2,223.2,0,3630,0,238,0, 
2.0200,70.8,-717.0,-149.1,273.6,141.3,513.6,-422.4,217.5,222.3,-1009.5,234.0,79.8,-1623.6,-2400.3,-1067.1,-103.5,-6.9,-5.4,-823.5,-1945.2,-0.3,-510.3,-741.6,214.5,0,3636,0,239,0, 
2.0233,76.5,-712.2,-140.1,277.8,149.4,516.9,-422.4,219.0,444.6,-1009.8,241.5,83.7,-1618.8,-2391.0,-1059.3,-96.0,-6.9,-6.0,-821.1,-1947.3,-0.6,-507.0,-732.9,214.5,0,3642,0,240,0, 
2.0267,81.6,-695.7,-114.0,306.3,179.7,541.8,-406.8,240.3,666.9,-967.2,270.0,118.2,-1597.8,-2403.3,-1093.8,-133.8,-6.6,-6.0,-791.1,-1904.1,-0.9,-463.5,-719.7,244.5,0,3648,0,241,0, 
2.0300,69.3,-704.1,-120.0,300.0,172.5,534.3,-415.5,231.3,666.9,-979.8,258.9,106.8,-1608.3,-2424.3,-1112.4,-122.7,-6.9,-6.0,-799.5,-1908.9,-0.3,-473.4,-715.5,241.5,0,3654,0,242,0, 
2.0333,82.2,-696.3,-119.4,305.4,178.2,536.7,-408.9,241.8,741.0,-970.5,263.7,110.4,-1593.6,-2414.7,-1098.9,-120.6,-6.9,-5.7,-793.2,-1910.4,-0.6,-471.0,-715.2,240.9,0,3660,0,243,0, 
2.0367,84.3,-703.5,-130.2,296.7,162.6,528.0,-416.4,231.9,296.4,-996.6,256.2,94.8,-1605.9,-2387.4,-1046.4,-116.7,-6.6,-5.7,-809.1,-1925.7,-0.9,-494.1,-729.6,226.2,0,3666,0,244,0, 
2.0400,83.1,-704.7,-138.3,290.4,162.0,524.1,-423.9,226.8,444.6,-1014.0,243.6,93.6,-1599.9,-2367.3,-1052.4,-117.9,-6.6,-5.7,-818.1,-1927.5,-0.9,-502.2,-737.1,216.6,0,3672,0,245,0, 
2.0433,82.5,-694.2,-116.4,313.8,189.0,544.8,-410.4,241.5,666.9,-976.5,268.2,125.4,-1596.9,-2396.4,-1077.0,-111.9,-7.2,-6.0,-792.0,-1898.1,-0.6,-471.6,-710.7,249.0,0,3678,0,246,0, 
2.0467,69.0,-698.1,-107.4,321.3,195.6,551.4,-407.1,240.9,815.1,-959.4,277.2,134.1,-1616.4,-2447.4,-1115.7,-101.4,-6.6,-6.0,-780.6,-1888.2,-0.9,-458.1,-705.9,256.8,0,3684,0,247,0, 
2.0500,72.9,-704.1,-123.6,306.6,174.9,537.9,-407.4,232.2,592.8,-991.5,256.8,107.1,-1615.2,-2418.3,-1092.6,-87.9,-6.6,-6.0,-802.2,-1915.2,-0.6,-486.3,-709.8,241.5,0,3690,0,248,0, 
2.0533,75.6,-691.8,-99.9,325.5,195.0,554.4,-404.7,244.2,296.4,-950.1,280.8,127.2,-1595.1,-2441.1,-1124.4,-102.0,-6.3,-6.0,-778.5,-1896.3,-0.9,-456.6,-697.5,261.0,0,3696,0,249,0, 
2.0567,73.8,-696.9,-124.5,306.3,175.5,539.7,-414.0,234.6,296.4,-973.8,267.9,114.6,-1602.6,-2422.2,-1092.9,-115.5,-6.9,-5.7,-791.4,-1910.4,-0.9,-477.9,-711.6,239.4,0,3702,0,250,0, 
2.0600,79.2,-699.6,-129.0,301.5,175.2,535.5,-409.5,233.4,666.9,-978.3,264.3,116.7,-1606.8,-2412.9,-1071.3,-112.5,-6.6,-6.0,-793.2,-1906.2,-1.2,-469.8,-712.8,243.0,0,3708,0,251,0, 
2.0633,77.4,-701.4,-126.3,305.4,174.9,532.5,-413.7,232.8,741.0,-978.3,256.5,108.6,-1614.6,-2404.8,-1094.1,-107.4,-6.6,-6.0,-794.7,-1911.0,-0.9,-478.2,-714.0,245.4,0,3714,0,252,0, 
2.0667,77.4,-695.1,-117.6,315.9,180.0,543.3,-407.7,238.5,741.0,-967.8,279.6,118.5,-1606.5,-2431.8,-1107.9,-101.4,-6.6,-6.0,-781.5,-1901.4,-0.6,-470.4,-704.4,253.8,0,3720,0,253,0, 
2.0700,82.2,-682.2,-107.4,329.1,189.6,552.3,-401.4,246.6,370.5,-946.8,284.4,137.1,-1596.3,-2425.8,-1113.0,-116.1,-6.9,-6.3,-771.0,-1884.3,-0.3,-435.3,-694.8,269.7,0,3726,0,254,0, 
2.0733,86.7,-682.5,-106.2,330.6,195.3,554.7,-401.7,248.4,444.6,-948.3,288.9,138.9,-1589.1,-2412.9,-1096.5,-118.8,-6.6,-6.0,-771.0,-1885.8,-1.2,-441.3,-685.2,270.6,0,3732,0,255,0, 
2.0767,79.8,-690.9,-110.4,320.7,185.4,545.1,-405.3,245.4,666.9,-972.6,278.1,120.9,-1599.0,-2414.4,-1082.1,-105.3,-6.6,-5.4,-784.5,-1904.7,-0.6,-468.6,-703.5,250.8,0,3738,0,0,0, 
2.0800,81.0,-695.4,-109.5,317.7,189.0,543.6,-407.4,242.7,815.1,-970.2,278.7,122.4,-1596.6,-2401.2,-1076.4,-105.9,-6.9,-6.3,-782.7,-1899.6,-0.9,-464.1,-702.9,254.1,0,3744,0,1,0, 
2.0833,82.8,-693.6,-115.5,317.1,186.0,541.8,-410.1,242.7,592.8,-970.8,272.4,118.8,-1594.5,-2385.9,-1064.4,-99.9,-6.6,-6.0,-782.7,-1905.3,-0.6,-464.1,-710.7,248.4,0,3750,0,2,0, 
2.0867,83.7,-696.0,-110.7,323.1,185.4,540.6,-412.8,241.2,444.6,-966.0,269.4,121.2,-1592.7,-2390.1,-1056.6,-104.1,-6.9,-5.7,-784.8,-1901.1,-0.9,-462.9,-704.1,252.3,0,3756,0,3,0, 
2.0900,85.2,-694.8,-114.3,318.0,182.7,537.6,-416.4,238.2,592.8,-972.9,273.0,121.8,-1605.0,-2383.8,-1055.4,-106.8,-6.3,-5.7,-785.4,-1905.0,-0.6,-475.5,-716.7,245.1,0,3762,0,4,0, 
2.0933,78.0,-705.9,-128.4,304.8,176.4,526.8,-425.1,224.4,666.9,-990.9,267.9,105.0,-1608.9,-2374.5,-1050.3,-109.2,-7.2,-6.0,-797.1,-1921.5,-0.9,-481.8,-718.5,235.2,0,3768,0,5,0, 
2.0967,73.2,-690.0,-98.7,328.8,202.8,557.4,-410.1,244.8,741.0,-954.0,291.3,136.5,-1602.0,-2415.9,-1117.8,-104.4,-6.9,-5.7,-772.8,-1892.7,-0.9,-446.4,-686.4,265.5,0,3774,0,6,0, 
2.1000,73.8,-692.7,-106.8,329.1,200.4,555.3,-404.7,242.4,592.8,-943.8,288.9,135.9,-1598.4,-2442.3,-1122.6,-101.4,-6.6,-6.0,-776.4,-1885.2,-0.9,-452.4,-696.6,261.9,0,3780,0,7,0, 
2.1033,79.8,-686.4,-110.1,328.8,200.1,554.1,-403.8,248.7,296.4,-951.9,278.1,132.9,-1596.6,-2412.3,-1091.4,-99.6,-7.2,-5.7,-779.4,-1889.1,-0.6,-453.6,-698.1,256.5,0,3786,0,8,0, 
2.1067,80.7,-696.0,-117.0,321.6,189.0,545.4,-410.7,240.6,666.9,-968.1,264.9,118.5,-1601.7,-2404.8,-1082.4,-105.9,-6.9,-6.0,-789.3,-1896.3,-1.2,-463.5,-702.0,249.6,0,3792,0,9,0, 
2.1100,76.5,-706.5,-133.8,305.1,172.8,530.1,-422.1,233.1,741.0,-997.2,256.8,102.6,-1615.5,-2388.0,-1051.5,-103.5,-6.6,-5.7,-802.8,-1920.9,-0.9,-480.9,-720.3,234.3,0,3798,0,10,0, 
2.1133,81.0,-711.3,-141.9,300.0,172.2,523.2,-414.0,225.3,741.0,-1005.0,247.8,98.4,-1614.3,-2364.3,-1036.5,-114.6,-7.2,-5.7,-810.9,-1923.0,-0.9,-494.1,-728.7,225.3,0,3804,0,11,0, 
2.1167,75.0,-696.6,-118.2,318.6,185.7,545.4,-408.0,241.8,518.7,-972.6,277.5,120.0,-1600.8,-2410.8,-1084.5,-112.5,-6.6,-5.1,-788.7,-1897.8,-0.6,-468.9,-710.4,250.5,0,3810,0,12,0, 
2.1200,72.3,-692.4,-108.3,332.4,198.3,551.4,-409.2,245.7,518.7,-959.7,295.8,136.5,-1593.6,-2421.0,-1104.6,-116.7,-6.9,-6.0,-770.7,-1881.0,-0.9,-441.6,-703.5,263.1,0,3816,0,13,0, 
2.1233,67.2,-701.7,-125.7,314.7,184.2,539.7,-417.6,233.7,444.6,-980.4,264.0,117.6,-1604.7,-2418.6,-1076.7,-113.7,-6.9,-6.0,-793.2,-1902.6,-0.9,-473.1,-718.8,245.1,0,3822,0,14,0, 
2.1267,69.6,-694.8,-113.1,323.7,204.3,551.7,-406.5,247.2,741.0,-962.1,272.7,127.2,-1596.6,-2422.8,-1118.1,-100.5,-7.2,-6.3,-785.7,-1888.5,-0.6,-454.2,-695.4,258.9,0,3828,0,15,0, 
2.1300,64.2,-707.1,-128.7,308.1,192.3,543.9,-407.1,236.1,666.9,-982.2,245.1,101.7,-1609.8,-2441.1,-1116.3,-102.0,-6.6,-5.7,-816.3,-1907.1,-0.6,-466.5,-706.8,250.5,0,3834,0,16,0, 
2.1333,65.1,-711.0,-126.6,305.4,186.9,543.6,-411.3,235.5,592.8,-977.4,250.5,102.3,-1608.3,-2416.5,-1099.8,-103.8,-6.9,-5.7,-805.2,-1912.5,-0.6,-468.3,-704.1,249.3,0,3840,0,17,0, 
2.1367,68.1,-721.2,-143.4,288.6,162.6,522.0,-424.8,218.1,370.5,-1000.2,249.9,97.8,-1613.4,-2384.1,-1039.5,-101.1,-6.6,-5.7,-801.6,-1920.6,-0.6,-491.1,-722.1,223.2,0,3846,0,18,0, 
2.1400,68.4,-704.4,-114.6,319.5,196.2,547.8,-406.2,240.9,444.6,-945.6,297.9,143.1,-1595.7,-2411.1,-1109.1,-103.5,-6.9,-5.7,-756.0,-1884.6,-0.6,-453.3,-697.8,258.3,0,3852,0,19,0, 
2.1433,65.7,-707.1,-108.0,318.9,196.8,547.2,-407.1,243.3,741.0,-945.9,293.1,134.4,-1600.8,-2430.9,-1121.1,-119.1,-6.6,-6.0,-768.9,-1897.2,-0.3,-447.3,-702.9,259.2,0,3858,0,20,0, 
2.1467,73.5,-705.0,-120.3,309.3,182.7,537.9,-418.5,234.0,741.0,-965.4,276.0,113.7,-1601.7,-2393.7,-1074.3,-114.0,-7.2,-5.4,-775.2,-1921.8,-0.9,-467.7,-703.2,252.9,0,3864,0,21,0, 
2.1500,75.0,-699.0,-106.2,313.5,183.3,535.8,-415.8,237.0,518.7,-951.6,293.7,126.3,-1594.2,-2390.7,-1075.2,-116.7,-6.6,-6.0,-751.5,-1917.6,-0.6,-465.0,-708.3,249.9,0,3870,0,22,0, 
2.1533,73.5,-699.6,-111.0,313.5,180.0,539.4,-413.1,238.8,518.7,-953.4,283.8,117.0,-1597.5,-2409.3,-1084.5,-112.8,-7.2,-6.0,-758.4,-1932.3,-1.2,-457.5,-705.3,248.7,0,3876,0,23,0, 
2.1567,76.2,-696.9,-107.4,316.2,181.2,542.1,-412.5,241.5,444.6,-956.4,290.7,118.8,-1592.4,-2394.6,-1058.7,-102.9,-6.9,-5.4,-747.3,-1932.6,-1.2,-455.7,-703.5,249.0,0,3882,0,24,0, 
2.1600,72.6,-693.6,-98.4,321.3,191.4,545.4,-409.8,242.1,815.1,-942.3,293.7,128.1,-1590.3,-2415.6,-1088.1,-102.3,-7.2,-6.0,-735.3,-1920.9,-0.9,-447.3,-697.2,255.9,0,3888,0,25,0, 
2.1633,78.9,-686.7,-97.2,321.0,193.8,546.9,-402.9,245.7,815.1,-947.4,289.2,114.3,-1577.1,-2406.0,-1084.5,-105.6,-6.9,-6.3,-745.5,-1938.0,-0.6,-447.9,-693.6,256.2,0,3894,0,26,0, 
2.1667,81.3,-692.1,-108.9,314.4,181.2,542.4,-412.2,243.9,592.8,-950.1,290.1,105.9,-1586.7,-2379.6,-1058.1,-109.8,-7.2,-5.7,-754.5,-1947.3,-0.9,-459.3,-707.4,240.9,0,3900,0,27,0, 
2.1700,75.9,-686.1,-97.2,327.0,194.7,555.6,-403.8,254.1,444.6,-935.4,303.3,127.5,-1588.8,-2414.7,-1104.0,-100.8,-6.6,-5.7,-738.0,-1929.6,-0.9,-434.1,-687.3,261.6,0,3906,0,28,0, 
2.1733,72.3,-690.6,-111.3,315.6,183.0,542.7,-406.5,239.4,592.8,-943.8,284.1,113.4,-1591.2,-2413.2,-1089.9,-110.1,-6.6,-5.4,-750.0,-1941.3,-0.6,-464.4,-702.6,248.7,0,3912,0,29,0, 
2.1767,74.7,-695.4,-112.8,307.5,179.1,537.0,-409.2,234.9,666.9,-952.2,276.3,97.2,-1596.3,-2396.7,-1073.4,-105.3,-6.9,-6.0,-758.1,-1947.0,-0.9,-466.8,-709.2,246.3,0,3918,0,30,0, 
2.1800,73.8,-696.0,-115.5,309.0,180.9,545.4,-403.5,235.8,815.1,-947.1,274.2,106.2,-1592.4,-2408.1,-1084.2,-105.3,-6.9,-5.4,-753.6,-1939.2,-0.6,-455.1,-699.6,250.5,0,3924,0,31,0, 
2.1833,70.2,-698.7,-115.8,308.7,176.7,540.3,-414.3,232.5,592.8,-949.2,270.3,104.4,-1590.6,-2419.2,-1084.2,-109.5,-6.6,-6.0,-758.7,-1945.5,-0.9,-460.5,-702.0,249.6,0,3930,0,32,0, 
2.1867,73.2,-709.8,-130.5,291.0,153.6,520.8,-423.9,219.6,296.4,-974.7,249.3,76.2,-1612.5,-2393.7,-1053.0,-117.3,-6.6,-6.0,-780.3,-1967.4,-0.9,-487.2,-721.8,229.5,0,3936,0,33,0, 
2.1900,72.6,-708.9,-128.7,291.6,153.3,520.8,-421.2,219.9,518.7,-970.2,252.9,76.2,-1613.7,-2395.2,-1051.5,-117.0,-6.6,-6.0,-776.7,-1968.9,-0.9,-482.4,-721.5,230.4,0,3942,0,34,0, 
2.1933,68.7,-701.4,-117.3,301.2,168.9,534.9,-406.5,231.0,741.0,-951.6,275.7,88.2,-1603.5,-2426.4,-1109.7,-81.6,-7.2,-6.0,-761.7,-1959.0,-0.6,-469.2,-701.4,241.8,0,3948,0,35,0, 
2.1967,65.7,-700.2,-118.8,299.7,171.0,532.2,-411.6,231.0,815.1,-948.3,273.9,94.5,-1608.9,-2415.3,-1100.4,-102.9,-6.6,-6.0,-760.2,-1957.8,-0.6,-469.2,-702.9,240.0,0,3954,0,36,0, 
2.2000,81.9,-697.8,-119.7,302.4,172.2,540.6,-405.0,238.8,518.7,-954.3,271.8,93.9,-1603.8,-2404.5,-1080.0,-104.7,-6.9,-6.0,-753.9,-1952.4,-0.9,-468.3,-697.8,245.7,0,3960,0,37,0, 
2.2033,81.9,-696.3,-111.6,304.5,171.0,538.8,-406.8,238.5,518.7,-952.2,263.1,88.8,-1589.7,-2404.5,-1097.1,-107.1,-6.6,-6.3,-754.8,-1957.5,-0.6,-467.1,-712.2,241.5,0,3966,0,38,0, 
2.2067,78.0,-694.5,-106.8,315.9,178.8,538.8,-409.8,240.3,592.8,-940.8,277.2,102.3,-1590.3,-2399.7,-1097.7,-111.3,-6.9,-5.7,-749.4,-1947.0,-0.3,-455.1,-708.0,244.5,0,3972,0,39,0, 
2.2100,77.7,-696.9,-114.9,309.0,173.1,529.2,-416.1,233.7,815.1,-959.7,268.8,91.5,-1594.2,-2386.5,-1072.2,-115.8,-6.6,-6.3,-762.3,-1956.6,-1.2,-477.6,-721.2,230.1,0,3978,0,40,0, 
2.2133,77.7,-701.7,-126.9,298.2,163.8,521.4,-419.4,228.3,666.9,-971.4,252.9,80.1,-1607.7,-2373.0,-1055.4,-123.3,-7.5,-6.0,-776.7,-1968.3,-0.9,-489.0,-728.4,225.0,0,3984,0,41,0, 
2.2167,69.9,-706.8,-132.0,294.3,155.7,516.0,-424.5,219.0,592.8,-984.9,246.3,73.5,-1614.3,-2392.2,-1050.6,-117.3,-6.9,-5.7,-783.3,-1974.3,-1.2,-498.3,-735.3,216.9,0,3990,0,42,0, 
2.2200,68.7,-697.2,-120.9,310.8,173.4,533.7,-412.2,233.7,444.6,-953.4,266.1,99.3,-1599.6,-2416.2,-1103.7,-103.8,-7.2,-6.0,-763.2,-1956.6,-0.6,-468.0,-714.6,233.1,0,3996,0,43,0, 
2.2233,70.5,-690.6,-104.1,323.7,187.2,548.1,-398.1,237.6,592.8,-940.8,272.4,109.5,-1592.4,-2456.1,-1114.5,-99.3,-6.9,-5.7,-753.0,-1940.1,-0.6,-451.2,-702.6,252.9,0,4002,0,44,0, 
2.2267,73.8,-698.1,-117.6,308.4,175.8,533.1,-408.0,231.6,666.9,-956.4,267.9,88.2,-1600.8,-2428.5,-1090.5,-110.4,-6.9,-6.0,-760.2,-1956.3,-0.9,-462.0,-722.1,238.8,0,4008,0,45,0, 
2.2300,72.9,-705.6,-122.4,301.2,167.7,524.1,-415.8,219.3,741.0,-963.6,252.3,82.8,-1605.0,-2420.1,-1077.3,-121.5,-6.9,-5.7,-771.6,-1965.9,-0.9,-468.9,-729.9,233.1,0,4014,0,46,0, 
2.2333,68.4,-707.4,-129.0,298.5,162.6,524.7,-412.8,221.7,444.6,-963.9,258.9,79.8,-1611.9,-2432.1,-1102.2,-114.0,-6.6,-6.0,-771.0,-1968.0,-0.9,-492.6,-721.8,227.7,0,4020,0,47,0, 
2.2367,68.4,-708.0,-139.5,291.9,156.6,518.1,-420.3,218.7,370.5,-966.3,247.8,80.7,-1613.1,-2420.4,-1087.2,-118.5,-6.6,-5.7,-775.8,-1966.8,-0.6,-485.4,-718.2,227.1,0,4026,0,48,0, 
