Time,P3,C3,F3,Fz,F4,C4,P4,Cz,CM,A1,Fp1,Fp2,T3,T5,O1,O2,X3,X2,F7,F8,X1,A2,T6,T4,Trigger,Time_Offset,ADC_Status,ADC_Sequence,Event,Comments
0.0033,-264.0,-231.6,1891.8,-248.7,-75.6,-234.6,-222.6,-2724.9,-2371.2,337.2,-210.9,-106.2,-9830.1,-9827.4,-1951.5,-5381.7,-6.9,-6.0,-426.9,-2539.2,-0.9,-106.5,114.3,-590.1,0,6,0,2,0, 
0.0067,-260.7,-233.1,506.4,-245.1,-147.0,-228.0,-243.6,-2722.5,-3038.1,337.2,-207.3,-98.1,-9830.1,-9827.4,-3691.8,-5772.9,-7.2,-6.3,-422.7,-2528.4,-0.6,-105.3,110.1,-593.7,0,12,33554432,3,0, 
0.0100,-261.9,-223.2,-1749.9,-242.4,-195.9,-232.8,-257.7,-2719.8,-2964.0,340.5,-207.6,-96.9,-9830.1,-9827.4,-5282.4,-7014.9,-7.2,-5.7,-423.9,-2532.0,-0.9,-98.4,100.8,-603.0,0,18,33554432,4,0, 
0.0133,-264.6,-226.5,-1799.4,-248.7,-157.8,-235.5,-251.7,-2723.7,-2519.4,340.8,-207.3,-99.3,-9830.1,-9827.4,-4567.2,-7415.7,-6.6,-5.7,-429.3,-2531.1,-0.9,-108.3,99.0,-606.3,0,24,33554432,5,0, 
0.0167,-261.9,-222.6,434.7,-246.3,-75.6,-234.3,-221.1,-2727.9,-1926.6,336.9,-206.7,-97.8,-9830.1,-9827.4,-2488.5,-6377.4,-6.6,-6.3,-426.3,-2534.1,-0.6,-103.5,111.6,-589.8,0,30,33554432,6,0, 
0.0200,-263.4,-225.6,1798.2,-250.2,-64.5,-238.5,-220.5,-2735.1,-2445.3,337.2,-212.7,-99.6,-9830.1,-9827.4,-1983.0,-5385.3,-6.9,-5.4,-426.3,-2528.7,-0.9,-103.5,117.6,-591.6,0,36,33554432,7,0, 
0.0233,-256.8,-222.9,436.8,-247.2,-145.2,-231.0,-237.9,-2736.9,-3186.3,342.0,-213.3,-102.9,-9830.1,-9827.4,-3747.6,-5802.0,-6.9,-6.6,-430.5,-2537.7,-0.9,-103.8,109.2,-602.4,0,42,33554432,8,0, 
0.0267,-261.0,-222.3,-1809.0,-247.2,-196.5,-234.3,-252.3,-2732.4,-3112.2,350.7,-205.2,-94.2,-9830.1,-9827.4,-5292.6,-7026.9,-6.9,-6.3,-428.7,-2530.5,-0.9,-101.1,105.3,-605.7,0,48,33554432,9,0, 
0.0300,-258.6,-222.6,-1788.9,-244.5,-176.4,-229.5,-243.9,-2736.3,-2371.2,347.4,-201.0,-94.5,-9830.1,-9827.4,-4512.6,-7391.1,-6.9,-6.0,-418.8,-2532.9,-0.6,-94.8,105.6,-598.5,0,54,33554432,10,0, 
0.0333,-263.7,-222.9,376.2,-250.2,-90.3,-246.6,-226.5,-2738.7,-2000.7,347.1,-203.1,-97.2,-9830.1,-9827.4,-2442.6,-6424.8,-6.9,-5.7,-422.7,-2534.7,-0.6,-100.5,108.9,-585.6,0,60,33554432,11,0, 
0.0367,-254.7,-221.1,1749.9,-245.4,-84.3,-243.0,-212.1,-2734.8,-2371.2,344.4,-206.4,-97.5,-9830.1,-9827.4,-1950.9,-5370.3,-7.2,-6.3,-417.6,-2542.2,-1.2,-103.5,110.1,-582.9,0,66,33554432,12,0, 
0.0400,-256.8,-228.9,356.4,-247.8,-150.0,-241.5,-242.4,-2732.4,-3038.1,342.3,-205.2,-96.0,-9830.1,-9827.4,-3672.3,-5778.9,-6.6,-6.3,-420.6,-2541.9,-1.2,-102.9,108.9,-594.6,0,72,33554432,13,0, 
0.0433,-259.2,-230.4,-1863.3,-251.4,-205.8,-243.3,-252.6,-2729.4,-3038.1,336.3,-214.8,-104.7,-9830.1,-9827.4,-5257.2,-7040.7,-6.6,-6.0,-433.8,-2547.6,-0.9,-102.0,96.3,-603.0,0,78,33554432,14,0, 
0.0467,-255.6,-222.6,-1850.4,-250.5,-164.7,-243.9,-245.7,-2727.3,-2297.1,340.2,-211.2,-101.1,-9830.1,-9827.4,-4488.3,-7410.3,-7.2,-6.3,-426.9,-2538.6,-0.6,-107.1,96.9,-608.4,0,84,33554432,15,0, 
0.0500,-257.1,-232.2,346.5,-252.9,-78.6,-239.1,-223.8,-2723.1,-1926.6,334.5,-209.1,-102.6,-9830.1,-9827.4,-2494.2,-6357.0,-6.9,-5.7,-422.7,-2539.2,-0.9,-102.9,106.2,-594.3,0,90,33554432,16,0, 
0.0533,-255.0,-232.2,1764.6,-250.2,-68.4,-233.7,-217.8,-2718.9,-2445.3,341.4,-206.4,-102.3,-9830.1,-9827.4,-1870.5,-5325.6,-6.6,-6.0,-422.7,-2535.9,-1.2,-105.9,116.1,-586.5,0,96,33554432,17,0, 
0.0567,-261.0,-227.4,338.7,-253.8,-138.9,-234.9,-244.8,-2722.2,-3112.2,331.2,-211.8,-109.8,-9830.1,-9827.4,-3657.3,-5780.4,-6.9,-5.7,-429.9,-2547.9,-0.9,-108.9,109.2,-601.8,0,102,33554432,18,0, 
0.0600,-259.2,-225.0,-1832.4,-250.5,-207.6,-236.1,-256.2,-2725.8,-3186.3,341.4,-210.6,-104.7,-9830.1,-9827.4,-5237.7,-7030.5,-6.9,-6.0,-427.5,-2536.2,-0.6,-107.7,100.8,-613.2,0,108,33554432,19,0, 
0.0633,-261.0,-230.7,-1850.7,-252.3,-165.0,-236.4,-247.2,-2727.3,-2445.3,336.3,-209.4,-101.1,-9830.1,-9827.4,-4563.0,-7425.9,-6.9,-5.7,-425.4,-2532.3,-0.9,-98.1,102.0,-607.8,0,114,33554432,20,0, 
0.0667,-259.2,-226.8,376.5,-250.5,-93.3,-241.5,-232.5,-2733.6,-1852.5,339.0,-207.3,-99.9,-9830.1,-9827.4,-2512.5,-6375.6,-7.2,-5.7,-421.5,-2531.4,-0.6,-108.3,107.4,-607.5,0,120,33554432,21,0, 
0.0700,-254.4,-226.5,1501.2,-247.2,-93.3,-234.3,-231.0,-2728.8,-2445.3,328.8,-208.2,-101.1,-9830.1,-9827.4,-2292.0,-5532.0,-6.9,-6.0,-419.1,-2532.6,-0.6,-109.2,112.5,-596.1,0,126,33554432,22,0, 
0.0733,-255.9,-229.8,210.6,-247.2,-145.8,-243.3,-244.8,-2728.8,-3112.2,339.0,-205.5,-99.9,-9830.1,-9827.4,-3872.1,-5869.8,-7.2,-6.3,-423.3,-2534.7,-0.6,-105.9,106.8,-596.1,0,132,33554432,23,0, 
0.0767,-255.0,-226.2,-2004.3,-243.3,-195.6,-240.9,-264.3,-2724.3,-3186.3,334.2,-207.0,-103.5,-9830.1,-9827.4,-5430.0,-7128.6,-6.9,-6.3,-425.1,-2536.5,-0.9,-109.2,94.2,-609.9,0,138,33554432,24,0, 
0.0800,-255.0,-226.5,-1896.3,-245.4,-168.0,-238.2,-256.2,-2727.3,-2445.3,331.8,-209.4,-104.4,-9830.1,-9827.4,-4563.3,-7399.8,-6.9,-6.3,-427.5,-2541.6,-0.3,-109.8,101.7,-612.9,0,144,33554432,25,0, 
0.0833,-255.9,-226.2,348.9,-238.5,-79.8,-232.5,-231.0,-2722.8,-1926.6,342.0,-202.5,-100.2,-9830.1,-9827.4,-2554.8,-6318.3,-6.9,-6.3,-418.5,-2536.8,-0.9,-108.0,103.5,-593.1,0,150,33554432,26,0, 
0.0867,-259.2,-233.7,1722.9,-245.7,-68.4,-241.2,-219.6,-2725.2,-2371.2,333.0,-208.5,-104.7,-9830.1,-9827.4,-2001.9,-5333.1,-6.9,-6.0,-422.7,-2537.1,-0.6,-114.9,107.7,-592.5,0,156,33554432,27,0, 
0.0900,-260.4,-231.9,388.8,-243.6,-149.1,-233.4,-251.1,-2726.1,-3038.1,322.5,-211.2,-105.3,-9830.1,-9827.4,-3672.0,-5755.8,-6.9,-5.7,-427.8,-2538.9,-1.2,-118.5,95.4,-593.1,0,162,33554432,28,0, 
0.0933,-255.3,-232.5,-1840.8,-243.0,-204.9,-231.3,-261.9,-2718.9,-3112.2,333.0,-208.2,-108.0,-9830.1,-9827.4,-5301.3,-7021.5,-6.6,-6.3,-425.1,-2542.5,-0.6,-116.4,95.7,-610.8,0,168,33554432,29,0, 
0.0967,-253.5,-224.7,-1893.6,-242.7,-167.4,-231.6,-255.0,-2715.9,-2223.0,327.0,-208.2,-103.8,-9830.1,-9827.4,-4556.4,-7366.8,-6.9,-6.0,-422.1,-2532.3,-1.2,-116.7,95.1,-606.6,0,174,33554432,30,0, 
0.1000,-255.6,-237.9,320.1,-248.4,-85.2,-233.7,-230.7,-2723.4,-2000.7,318.3,-219.3,-113.1,-9830.1,-9827.4,-2496.9,-6333.6,-6.9,-5.4,-432.3,-2542.2,-0.6,-116.7,102.0,-602.1,0,180,33554432,31,0, 
0.1033,-256.2,-230.1,1704.0,-252.3,-79.5,-241.5,-221.1,-2727.0,-2445.3,318.0,-220.5,-117.6,-9830.1,-9827.4,-1924.2,-5256.0,-6.6,-6.3,-435.0,-2545.5,-0.9,-126.3,103.2,-598.2,0,186,33554432,32,0, 
0.1067,-257.4,-237.3,299.1,-250.5,-129.0,-231.0,-237.0,-2725.5,-3112.2,323.1,-216.6,-111.6,-9830.1,-9827.4,-3662.1,-5715.6,-6.6,-5.7,-428.4,-2541.9,-0.6,-118.8,96.6,-603.3,0,192,33554432,33,0, 
0.1100,-256.8,-238.2,-1905.0,-254.1,-199.8,-239.7,-261.3,-2730.6,-3038.1,318.3,-218.7,-111.9,-9830.1,-9827.4,-5325.9,-6924.6,-6.9,-6.3,-427.5,-2546.1,-0.6,-125.1,93.6,-621.0,0,198,33554432,34,0, 
0.1133,-260.7,-231.0,-1893.3,-255.3,-165.3,-232.5,-246.6,-2724.3,-2371.2,322.8,-216.3,-112.5,-9830.1,-9827.4,-4560.0,-7312.8,-6.6,-6.0,-429.3,-2543.4,-1.2,-127.2,94.8,-631.8,0,204,33554432,35,0, 
0.1167,-264.6,-233.4,329.1,-258.9,-101.7,-250.8,-245.1,-2731.8,-2000.7,311.7,-224.4,-120.6,-9830.1,-9827.4,-2468.4,-6273.9,-7.2,-6.0,-426.3,-2552.4,-1.2,-129.0,91.5,-617.4,0,210,33554432,36,0, 
0.1200,-260.4,-230.7,1677.9,-252.0,-84.3,-239.7,-213.0,-2725.8,-2593.5,330.9,-214.8,-111.3,-9830.1,-9827.4,-1933.2,-5265.3,-6.9,-6.0,-424.8,-2542.2,-0.6,-121.8,99.9,-601.8,0,216,33554432,37,0, 
0.1233,-261.6,-229.8,440.4,-241.2,-135.9,-235.2,-232.5,-2723.7,-2964.0,327.9,-210.9,-105.3,-9830.1,-9827.4,-3632.7,-5604.0,-7.2,-6.0,-418.8,-2535.3,-0.9,-117.3,100.2,-597.3,0,222,33554432,38,0, 
0.1267,-257.4,-233.4,-1781.4,-243.6,-185.7,-234.3,-256.2,-2723.1,-2964.0,328.2,-213.9,-106.8,-9830.1,-9827.4,-5275.2,-6906.0,-6.6,-5.4,-424.8,-2536.2,-0.3,-117.0,85.2,-615.3,0,228,33554432,39,0, 
0.1300,-257.7,-227.1,-1793.1,-234.9,-131.4,-228.0,-261.3,-2723.7,-2445.3,330.0,-207.3,-99.9,-9830.1,-9827.4,-4600.5,-7248.6,-6.9,-6.6,-414.3,-2528.1,-0.9,-110.7,88.8,-613.8,0,234,33554432,40,0, 
0.1333,-261.3,-224.1,458.1,-238.8,-76.2,-239.1,-232.2,-2733.3,-2074.8,325.5,-209.1,-104.4,-9830.1,-9827.4,-2416.8,-6227.4,-6.6,-6.0,-417.6,-2535.3,-1.2,-115.2,93.0,-612.0,0,240,33554432,41,0, 
0.1367,-258.9,-232.2,1801.2,-239.1,-58.5,-234.9,-226.2,-2732.1,-2445.3,330.6,-211.8,-106.2,-9830.1,-9827.4,-1913.7,-5227.8,-6.9,-6.3,-418.5,-2534.7,-0.6,-111.9,103.8,-610.5,0,246,33554432,42,0, 
0.1400,-254.1,-233.1,462.3,-238.8,-112.8,-240.9,-241.2,-2728.2,-3112.2,330.6,-206.4,-102.3,-9830.1,-9827.4,-3590.7,-5568.0,-6.6,-6.0,-416.1,-2537.4,-0.9,-112.8,89.1,-622.2,0,252,33554432,43,0, 
0.1433,-257.1,-231.9,-1799.7,-240.9,-190.5,-234.6,-258.9,-2729.7,-2964.0,325.8,-214.5,-109.2,-9830.1,-9827.4,-5319.9,-6857.4,-6.6,-6.3,-422.7,-2541.3,-0.9,-126.3,79.2,-636.6,0,258,33554432,44,0, 
0.1467,-259.8,-240.9,-1802.1,-245.1,-158.1,-243.6,-248.7,-2738.7,-2445.3,323.7,-218.1,-112.5,-9830.1,-9827.4,-4504.5,-7183.2,-7.2,-6.3,-427.8,-2543.1,-0.6,-123.0,67.2,-643.5,0,264,33554432,45,0, 
0.1500,-261.3,-237.0,398.4,-244.5,-65.1,-238.2,-223.2,-2739.6,-1926.6,316.2,-220.2,-114.9,-9830.1,-9827.4,-2415.6,-6207.9,-6.9,-5.7,-428.7,-2540.7,-0.6,-130.8,80.4,-637.5,0,270,33554432,46,0, 
0.1533,-258.9,-236.4,1768.8,-248.1,-66.9,-240.0,-215.7,-2735.7,-2297.1,323.1,-217.2,-112.2,-9830.1,-9827.4,-1791.9,-5187.6,-6.9,-5.7,-428.4,-2545.8,-1.2,-119.7,83.1,-628.2,0,276,33554432,47,0, 
0.1567,-260.1,-237.0,389.1,-247.2,-144.6,-234.3,-239.4,-2734.8,-3112.2,313.8,-221.1,-117.0,-9830.1,-9827.4,-3578.4,-5584.5,-7.2,-5.7,-433.5,-2547.3,-1.2,-121.8,79.8,-638.4,0,282,33554432,48,0, 
0.1600,-254.4,-233.7,-1767.9,-244.5,-217.2,-237.3,-251.4,-2733.6,-3038.1,316.5,-219.6,-111.3,-9830.1,-9827.4,-5191.8,-6807.6,-7.2,-6.0,-431.1,-2539.5,-0.9,-118.5,68.4,-651.3,0,288,33554432,49,0, 
0.1633,-259.8,-234.3,-1801.2,-247.5,-171.6,-247.2,-252.0,-2736.0,-2445.3,310.8,-227.1,-120.0,-9830.1,-9827.4,-4478.7,-7208.4,-6.9,-6.0,-437.1,-2553.0,-0.9,-130.2,61.2,-661.8,0,294,33554432,50,0, 
0.1667,-259.2,-239.7,453.9,-246.9,-84.0,-235.2,-227.1,-2730.6,-1926.6,321.3,-218.7,-116.1,-9830.1,-9827.4,-2325.6,-6168.6,-6.9,-5.7,-429.3,-2545.2,-0.6,-123.0,72.6,-639.0,0,300,33554432,51,0, 
0.1700,-256.8,-237.9,1835.7,-249.3,-73.2,-247.5,-223.8,-2727.6,-2223.0,315.9,-216.9,-113.4,-9830.1,-9827.4,-1767.9,-5154.3,-6.9,-6.0,-425.7,-2544.6,-0.9,-125.4,75.0,-639.6,0,306,33554432,52,0, 
0.1733,-260.4,-244.2,479.7,-249.9,-126.0,-234.9,-243.0,-2728.2,-3112.2,318.6,-222.3,-116.7,-9830.1,-9827.4,-3401.4,-5493.3,-7.2,-6.0,-433.8,-2545.5,-0.9,-125.7,69.9,-638.7,0,312,33554432,53,0, 
0.1767,-263.1,-244.8,-1749.9,-250.2,-201.6,-243.9,-270.0,-2733.0,-3112.2,317.4,-221.7,-117.3,-9830.1,-9827.4,-5008.8,-6760.8,-7.2,-6.0,-432.6,-2547.6,-0.6,-123.9,56.4,-649.2,0,318,33554432,54,0, 
0.1800,-261.3,-238.8,-1756.2,-246.9,-157.5,-237.9,-260.4,-2731.8,-2445.3,323.7,-219.6,-114.0,-9830.1,-9827.4,-4356.6,-7185.9,-6.9,-6.0,-427.8,-2542.8,-1.2,-118.2,64.8,-640.2,0,324,33554432,55,0, 
0.1833,-262.2,-247.8,481.8,-254.4,-114.3,-244.8,-237.0,-2737.5,-1852.5,317.1,-226.2,-114.6,-9830.1,-9827.4,-2339.1,-6145.5,-6.9,-5.7,-438.0,-2539.8,-0.3,-118.8,69.6,-624.6,0,330,33554432,56,0, 
0.1867,-264.6,-247.2,1908.6,-254.1,-78.0,-239.1,-215.7,-2739.6,-2371.2,317.7,-224.4,-116.7,-9830.1,-9827.4,-1789.5,-5137.8,-7.2,-5.7,-432.3,-2542.2,-0.9,-119.1,77.4,-616.8,0,336,33554432,57,0, 
0.1900,-258.0,-238.5,523.2,-249.0,-146.7,-232.8,-247.2,-2727.9,-3038.1,322.2,-216.6,-111.0,-9830.1,-9827.4,-3494.1,-5553.6,-6.9,-5.4,-426.0,-2535.0,-0.3,-111.3,76.2,-621.3,0,342,33554432,58,0, 
0.1933,-260.7,-241.5,-1712.4,-254.1,-196.8,-233.4,-261.9,-2731.2,-3038.1,324.9,-223.2,-115.5,-9830.1,-9827.4,-5147.4,-6772.8,-7.5,-6.3,-432.6,-2540.1,-1.2,-126.0,72.9,-633.6,0,348,33554432,59,0, 
0.1967,-261.0,-239.7,-1719.6,-253.5,-172.8,-230.7,-261.3,-2728.5,-2445.3,321.3,-219.6,-111.9,-9830.1,-9827.4,-4402.2,-7132.5,-6.6,-6.3,-428.7,-2538.6,-0.6,-116.4,67.8,-621.6,0,354,33554432,60,0, 
0.2000,-258.9,-245.1,500.1,-252.0,-89.7,-234.9,-232.8,-2730.3,-2074.8,321.6,-222.0,-114.3,-9830.1,-9827.4,-2324.7,-6109.8,-6.9,-5.7,-429.3,-2540.1,-1.2,-117.6,74.4,-610.5,0,360,33554432,61,0, 
0.2033,-255.0,-239.4,1933.2,-242.7,-88.8,-232.2,-218.1,-2724.3,-2371.2,330.6,-213.9,-107.7,-9830.1,-9827.4,-1711.2,-5096.7,-6.9,-5.7,-422.1,-2529.3,-0.6,-99.6,87.3,-602.4,0,366,33554432,62,0, 
0.2067,-256.8,-233.7,537.9,-240.6,-137.1,-229.8,-247.5,-2722.8,-3038.1,327.0,-212.4,-103.5,-9830.1,-9827.4,-3384.0,-5478.9,-6.9,-6.0,-420.6,-2532.6,-1.2,-108.3,81.0,-609.0,0,372,33554432,63,0, 
0.2100,-255.3,-243.9,-1744.8,-239.4,-197.4,-226.5,-258.3,-2722.8,-3112.2,328.2,-214.2,-103.8,-9830.1,-9827.4,-5080.8,-6711.6,-7.2,-6.0,-423.0,-2526.6,-0.6,-112.8,68.1,-622.8,0,378,33554432,64,0, 
0.2133,-258.3,-237.9,-1758.0,-238.8,-152.7,-228.6,-248.1,-2721.9,-2371.2,332.1,-209.4,-96.0,-9830.1,-9827.4,-4279.8,-7158.0,-7.2,-6.3,-419.4,-2521.2,-0.9,-107.1,72.6,-615.6,0,384,33554432,65,0, 
0.2167,-262.5,-244.5,515.4,-242.1,-77.7,-229.2,-226.5,-2728.5,-2074.8,328.8,-210.3,-97.2,-9830.1,-9827.4,-2218.2,-6103.5,-6.9,-6.3,-423.6,-2519.4,-0.9,-106.5,75.0,-609.6,0,390,33554432,66,0, 
0.2200,-264.9,-237.9,1904.1,-240.9,-73.2,-229.2,-221.1,-2733.3,-2593.5,337.8,-203.4,-92.1,-9830.1,-9827.4,-1669.5,-5137.5,-6.6,-5.4,-414.9,-2515.2,-1.2,-101.4,77.4,-594.6,0,396,33554432,67,0, 
0.2233,-268.5,-246.3,520.8,-241.2,-150.9,-230.1,-237.9,-2735.7,-3112.2,335.7,-204.9,-95.4,-9830.1,-9827.4,-3387.3,-5533.5,-6.6,-6.3,-414.6,-2515.5,-1.2,-103.2,72.6,-599.7,0,402,33554432,68,0, 
0.2267,-268.5,-241.2,-1734.6,-243.3,-186.6,-224.4,-255.0,-2735.1,-3186.3,332.7,-204.9,-96.3,-9830.1,-9827.4,-4971.3,-6754.8,-7.2,-6.3,-413.4,-2516.1,-0.6,-97.8,62.7,-606.0,0,408,33554432,69,0, 
0.2300,-262.8,-238.5,-1718.7,-244.2,-162.0,-229.5,-251.7,-2734.8,-2223.0,331.8,-204.9,-94.5,-9830.1,-9827.4,-4226.4,-7110.6,-6.9,-6.0,-408.9,-2520.6,-0.9,-108.9,59.1,-607.2,0,414,33554432,70,0, 
0.2333,-261.9,-227.7,525.9,-231.6,-79.8,-222.6,-220.5,-2724.3,-1778.4,349.8,-190.5,-83.1,-9830.1,-9827.4,-2181.6,-6088.8,-7.2,-6.3,-402.0,-2509.2,-0.3,-92.1,66.0,-594.6,0,420,33554432,71,0, 
0.2367,-264.0,-234.9,1915.2,-236.1,-71.1,-231.9,-216.3,-2727.0,-2371.2,340.5,-195.0,-84.9,-9830.1,-9827.4,-1684.8,-5066.7,-6.6,-6.0,-402.0,-2505.9,-1.2,-98.4,63.9,-590.1,0,426,33554432,72,0, 
0.2400,-255.3,-226.8,609.9,-228.3,-120.3,-229.2,-234.9,-2713.5,-3038.1,351.6,-190.8,-80.7,-9830.1,-9827.4,-3274.2,-5412.3,-6.6,-6.0,-398.1,-2509.8,-0.6,-93.9,53.7,-591.6,0,432,33554432,73,0, 
0.2433,-247.2,-224.7,-1670.4,-224.7,-179.1,-225.3,-255.9,-2709.9,-3038.1,346.2,-189.3,-76.8,-9830.1,-9827.4,-4979.1,-6701.1,-6.9,-6.0,-398.7,-2503.2,-0.6,-92.1,52.2,-611.4,0,438,33554432,74,0, 
0.2467,-246.9,-213.9,-1630.2,-222.3,-139.5,-217.5,-240.3,-2705.4,-2297.1,347.7,-184.8,-77.4,-9830.1,-9827.4,-4211.1,-7055.1,-7.2,-6.0,-392.4,-2503.2,-0.9,-92.7,48.0,-611.4,0,444,33554432,75,0, 
0.2500,-245.7,-221.4,506.1,-224.7,-67.5,-238.2,-203.4,-2713.8,-1926.6,350.4,-184.8,-74.1,-9830.1,-9827.4,-2076.0,-5996.4,-6.9,-6.0,-392.4,-2501.1,-0.6,-94.5,61.8,-598.5,0,450,33554432,76,0, 
0.2533,-244.2,-218.4,1903.8,-222.9,-48.9,-225.9,-201.3,-2709.0,-2445.3,345.6,-183.9,-75.0,-9830.1,-9827.4,-1483.8,-4997.4,-7.2,-6.3,-388.2,-2499.3,-1.2,-95.1,65.4,-588.6,0,456,33554432,77,0, 
0.2567,-244.2,-220.5,518.7,-226.5,-130.2,-229.2,-227.1,-2710.8,-3038.1,341.7,-187.2,-72.9,-9830.1,-9827.4,-3187.5,-5393.7,-6.9,-6.0,-397.2,-2501.1,-0.6,-94.2,54.3,-601.8,0,462,33554432,78,0, 
0.2600,-249.0,-224.4,-1646.7,-230.4,-192.0,-227.1,-240.9,-2713.2,-3038.1,342.3,-189.9,-78.3,-9830.1,-9827.4,-4791.9,-6663.0,-6.9,-5.7,-396.9,-2511.9,-0.6,-95.7,46.2,-614.7,0,468,33554432,79,0, 
0.2633,-250.8,-225.3,-1705.5,-238.5,-156.0,-232.2,-247.8,-2720.1,-2371.2,335.4,-194.1,-87.3,-9830.1,-9827.4,-4063.5,-7010.1,-7.2,-6.3,-402.3,-2522.1,-0.6,-108.6,43.2,-624.0,0,474,33554432,80,0, 
0.2667,-256.8,-242.7,560.1,-242.7,-79.2,-234.6,-231.0,-2732.7,-2000.7,322.8,-201.6,-90.3,-9830.1,-9827.4,-1920.6,-6012.3,-6.6,-6.0,-409.5,-2526.3,-0.6,-121.8,51.6,-615.3,0,480,33554432,81,0, 
0.2700,-252.6,-234.9,1918.5,-234.6,-68.4,-232.8,-218.1,-2724.3,-2371.2,334.5,-195.3,-80.7,-9830.1,-9827.4,-1374.9,-4978.5,-7.2,-6.0,-402.0,-2519.7,-0.9,-100.8,60.0,-603.9,0,486,33554432,82,0, 
0.2733,-258.0,-231.9,531.0,-230.4,-119.1,-221.1,-239.4,-2722.5,-3038.1,330.0,-195.9,-82.2,-9830.1,-9827.4,-3143.1,-5341.2,-7.2,-6.3,-404.4,-2527.2,-1.2,-109.8,57.9,-605.7,0,492,33554432,83,0, 
0.2767,-255.9,-231.6,-1677.3,-230.7,-185.4,-224.1,-258.9,-2717.4,-3112.2,342.9,-190.2,-80.7,-9830.1,-9827.4,-4864.8,-6648.3,-6.9,-6.0,-395.7,-2523.0,-0.6,-99.3,51.3,-620.1,0,498,33554432,84,0, 
0.2800,-256.8,-225.0,-1735.2,-239.7,-149.4,-234.6,-254.7,-2723.1,-2297.1,333.6,-194.1,-81.3,-9830.1,-9827.4,-4081.2,-6931.5,-7.2,-6.0,-401.7,-2519.7,-0.6,-105.0,40.8,-635.4,0,504,33554432,85,0, 
0.2833,-258.3,-238.5,447.9,-243.9,-77.1,-229.8,-223.5,-2722.5,-2000.7,333.9,-202.8,-89.4,-9830.1,-9827.4,-2013.3,-5981.1,-6.6,-6.0,-413.1,-2526.9,-0.9,-97.5,54.9,-621.9,0,510,33554432,86,0, 
0.2867,-259.5,-242.4,1817.4,-253.5,-76.8,-234.0,-223.5,-2729.7,-2371.2,329.4,-210.9,-94.2,-9830.1,-9827.4,-1283.1,-4929.9,-6.9,-5.7,-418.2,-2526.9,-0.9,-106.8,57.9,-626.1,0,516,33554432,87,0, 
0.2900,-260.1,-240.0,508.2,-254.1,-139.8,-228.9,-234.6,-2726.1,-3038.1,341.4,-205.8,-94.2,-9830.1,-9827.4,-2952.6,-5342.1,-6.3,-5.7,-411.3,-2528.1,-0.3,-100.8,59.7,-627.3,0,522,33554432,88,0, 
0.2933,-258.6,-230.7,-1746.0,-257.4,-221.7,-237.3,-258.6,-2731.2,-2964.0,331.5,-207.6,-97.5,-9830.1,-9827.4,-4615.2,-6589.2,-7.2,-6.0,-413.4,-2537.1,-0.3,-104.4,56.4,-647.1,0,528,33554432,89,0, 
0.2967,-258.9,-238.5,-1796.1,-250.5,-186.0,-227.4,-238.2,-2731.5,-2297.1,339.3,-200.7,-86.4,-9830.1,-9827.4,-3938.4,-6954.0,-6.6,-5.7,-407.4,-2522.1,-0.9,-92.7,59.7,-639.6,0,534,33554432,90,0, 
0.3000,-257.7,-231.9,427.5,-255.6,-88.8,-231.6,-219.9,-2735.7,-1852.5,339.6,-207.0,-90.3,-9830.1,-9827.4,-1849.5,-5895.9,-6.6,-6.3,-412.5,-2525.1,-0.9,-91.5,64.8,-623.1,0,540,33554432,91,0, 
0.3033,-251.7,-225.6,1820.4,-249.0,-73.8,-236.4,-216.6,-2732.7,-2445.3,350.1,-196.8,-81.9,-9830.1,-9827.4,-1279.5,-4852.2,-6.9,-5.7,-399.3,-2514.9,-0.9,-84.6,69.3,-609.6,0,546,33554432,92,0, 
0.3067,-249.9,-228.3,569.7,-247.8,-152.4,-227.4,-227.7,-2733.0,-3038.1,349.8,-195.3,-82.2,-9830.1,-9827.4,-2904.9,-5244.6,-6.9,-6.0,-398.4,-2513.4,-0.6,-73.5,74.4,-607.8,0,552,33554432,93,0, 
0.3100,-258.9,-230.7,-1770.3,-249.9,-212.1,-231.3,-255.9,-2733.0,-3038.1,349.8,-193.8,-80.4,-9830.1,-9827.4,-4706.4,-6577.8,-6.6,-5.1,-399.9,-2511.9,-0.9,-80.1,64.8,-626.1,0,558,33554432,94,0, 
0.3133,-255.6,-228.3,-1424.4,-249.3,-132.6,-225.3,-229.5,-2727.3,-2445.3,348.9,-194.4,-79.2,-9830.1,-9827.4,-3540.9,-6677.4,-6.9,-6.6,-402.0,-2509.2,-0.9,-91.5,60.6,-623.4,0,564,33554432,95,0, 
0.3167,-257.1,-222.6,918.3,-252.6,-79.2,-234.6,-213.6,-2726.4,-1926.6,345.6,-194.7,-83.1,-9830.1,-9827.4,-1317.6,-5643.9,-6.6,-6.0,-401.7,-2513.1,-1.2,-90.9,67.8,-624.3,0,570,33554432,96,0, 
0.3200,-257.4,-227.4,2140.5,-252.3,-99.3,-234.0,-218.1,-2724.9,-2371.2,340.5,-199.2,-86.1,-9830.1,-9827.4,-989.4,-4811.7,-6.9,-5.7,-402.3,-2518.8,-0.6,-94.2,69.9,-616.2,0,576,33554432,97,0, 
0.3233,-254.7,-226.8,765.6,-246.3,-172.8,-233.1,-234.3,-2721.9,-3038.1,347.4,-193.5,-76.8,-9830.1,-9827.4,-2705.4,-5206.2,-6.9,-5.7,-399.3,-2506.5,-0.3,-89.4,56.1,-620.4,0,582,33554432,98,0, 
0.3267,-254.4,-226.8,-1477.5,-242.7,-211.8,-225.3,-261.0,-2722.2,-3038.1,340.2,-191.7,-81.6,-9830.1,-9827.4,-4440.3,-6476.4,-7.2,-5.7,-393.0,-2517.6,-0.9,-91.8,39.0,-631.2,0,588,33554432,99,0, 
0.3300,-257.7,-222.0,-1587.9,-244.5,-185.7,-234.9,-259.5,-2725.8,-2371.2,332.1,-190.5,-80.1,-9830.1,-9827.4,-3790.5,-6878.4,-6.6,-5.7,-395.4,-2513.7,-0.9,-94.8,31.8,-633.0,0,594,33554432,100,0, 
0.3333,-250.5,-220.5,589.5,-241.2,-92.7,-232.5,-236.4,-2712.9,-2000.7,338.7,-186.6,-75.0,-9830.1,-9827.4,-1715.1,-5873.4,-7.2,-6.0,-393.0,-2518.2,-0.9,-96.0,42.9,-624.0,0,600,33554432,101,0, 
0.3367,-249.3,-224.4,2095.8,-238.5,-69.6,-228.0,-226.8,-2710.5,-2445.3,336.0,-191.4,-77.4,-9830.1,-9827.4,-992.7,-4779.6,-6.9,-6.0,-398.1,-2515.2,-0.9,-100.8,48.0,-620.4,0,606,33554432,102,0, 
0.3400,-251.4,-222.0,729.6,-240.6,-139.5,-227.7,-244.8,-2706.3,-3112.2,336.0,-191.1,-76.5,-9830.1,-9827.4,-2841.9,-5178.3,-7.2,-6.3,-396.0,-2528.7,-0.6,-99.9,38.1,-635.1,0,612,33554432,103,0, 
0.3433,-253.8,-216.9,-1459.8,-243.0,-196.5,-231.3,-258.9,-2711.1,-3038.1,337.5,-190.5,-80.7,-9830.1,-9827.4,-4508.7,-6412.5,-6.6,-6.0,-395.7,-2528.1,-0.9,-106.8,27.0,-656.1,0,618,33554432,104,0, 
0.3467,-261.3,-228.9,-1546.5,-253.8,-171.6,-235.8,-260.7,-2717.7,-2371.2,327.3,-204.6,-95.4,-9830.1,-9827.4,-3753.6,-6839.4,-6.9,-6.0,-413.4,-2540.7,-0.6,-124.8,23.7,-665.4,0,624,33554432,105,0, 
0.3500,-259.2,-226.2,622.8,-251.4,-105.3,-240.0,-234.3,-2716.5,-1926.6,325.8,-202.8,-95.1,-9830.1,-9827.4,-1704.0,-5824.2,-6.9,-6.0,-408.9,-2541.0,-0.9,-118.5,28.5,-650.1,0,630,33554432,106,0, 
0.3533,-262.2,-234.6,2037.0,-256.5,-87.0,-238.2,-240.0,-2715.3,-2371.2,317.7,-210.6,-99.3,-9830.1,-9827.4,-1103.4,-4842.0,-6.6,-6.0,-412.5,-2540.7,-0.9,-130.5,30.0,-651.3,0,636,33554432,107,0, 
0.3567,-262.5,-233.4,721.5,-255.3,-144.3,-234.3,-249.3,-2712.0,-3112.2,323.7,-212.4,-97.5,-9830.1,-9827.4,-2741.4,-5156.7,-6.9,-6.0,-415.2,-2545.5,-1.2,-124.8,32.4,-660.6,0,642,33554432,108,0, 
0.3600,-266.4,-232.8,-1483.2,-251.4,-197.4,-236.7,-269.4,-2715.0,-3038.1,319.5,-206.7,-96.6,-9830.1,-9827.4,-4372.8,-6424.5,-6.9,-6.0,-409.8,-2541.9,-0.6,-125.1,16.8,-670.5,0,648,33554432,109,0, 
0.3633,-266.7,-235.5,-1575.3,-251.4,-153.3,-231.6,-255.0,-2715.6,-2371.2,318.9,-211.8,-97.2,-9830.1,-9827.4,-3735.6,-6859.2,-7.2,-5.7,-416.7,-2544.6,-1.2,-126.3,15.9,-674.4,0,654,33554432,110,0, 
0.3667,-263.7,-223.5,651.6,-241.5,-91.8,-230.1,-235.8,-2713.2,-2000.7,321.9,-202.5,-88.5,-9830.1,-9827.4,-1633.8,-5832.0,-6.9,-6.3,-407.4,-2538.6,-0.6,-114.3,30.3,-666.9,0,660,33554432,111,0, 
0.3700,-267.9,-237.3,2002.5,-241.2,-66.0,-228.6,-238.2,-2712.6,-2297.1,328.2,-197.4,-85.5,-9830.1,-9827.4,-1022.1,-4850.4,-6.9,-5.7,-400.8,-2529.6,-1.2,-110.4,34.5,-654.6,0,666,33554432,112,0, 
0.3733,-260.4,-224.1,751.8,-236.1,-129.9,-223.8,-245.1,-2709.6,-3112.2,328.2,-197.4,-85.8,-9830.1,-9827.4,-2714.4,-5166.6,-6.9,-6.3,-399.0,-2535.6,-0.6,-117.9,26.1,-658.2,0,672,33554432,113,0, 
0.3767,-261.9,-237.6,-1432.2,-244.8,-181.5,-226.8,-270.0,-2716.8,-3112.2,328.5,-204.0,-91.8,-9830.1,-9827.4,-4335.0,-6474.6,-6.6,-6.0,-411.3,-2538.0,-0.9,-125.1,19.5,-677.1,0,678,33554432,114,0, 
0.3800,-266.1,-235.2,-1527.3,-243.9,-147.3,-228.0,-261.6,-2720.4,-2371.2,322.8,-200.1,-87.0,-9830.1,-9827.4,-3618.3,-6855.9,-6.9,-6.0,-405.0,-2539.5,-1.2,-116.4,12.6,-675.3,0,684,33554432,115,0, 
0.3833,-264.6,-240.6,602.7,-253.8,-96.3,-231.0,-234.0,-2725.2,-1926.6,321.9,-205.2,-94.8,-9830.1,-9827.4,-1563.9,-5895.0,-6.6,-6.0,-411.9,-2549.4,-0.9,-118.8,19.2,-671.1,0,690,33554432,116,0, 
0.3867,-267.0,-239.1,2037.9,-253.8,-90.3,-232.5,-219.0,-2723.7,-2148.9,318.0,-206.1,-92.1,-9830.1,-9827.4,-955.5,-4833.0,-7.5,-6.3,-411.9,-2544.6,-0.6,-122.4,22.8,-661.2,0,696,33554432,117,0, 
0.3900,-263.4,-234.3,751.2,-249.0,-157.5,-231.6,-240.3,-2719.5,-3112.2,324.6,-202.2,-90.6,-9830.1,-9827.4,-2591.7,-5262.6,-6.9,-6.0,-407.1,-2543.1,-0.9,-117.0,24.0,-664.2,0,702,33554432,118,0, 
0.3933,-260.4,-231.6,-1475.7,-244.8,-198.9,-228.0,-254.4,-2715.6,-3112.2,320.1,-200.4,-86.1,-9830.1,-9827.4,-4273.8,-6528.0,-7.2,-6.0,-407.4,-2540.1,-0.9,-108.9,25.5,-668.1,0,708,33554432,119,0, 
0.3967,-267.9,-245.7,-1477.2,-251.4,-172.5,-234.9,-253.5,-2718.9,-2445.3,313.5,-206.7,-92.1,-9830.1,-9827.4,-3551.1,-6941.7,-6.9,-6.0,-414.6,-2544.6,-0.3,-111.3,17.4,-681.3,0,714,33554432,120,0, 
0.4000,-273.6,-249.0,674.4,-255.0,-92.7,-227.4,-227.4,-2720.7,-1926.6,307.5,-214.5,-100.8,-9830.1,-9827.4,-1579.5,-5955.9,-7.2,-6.3,-421.2,-2552.1,-0.6,-119.4,30.6,-659.7,0,720,33554432,121,0, 
0.4033,-268.5,-242.7,2146.2,-250.2,-77.1,-239.4,-221.4,-2716.5,-2519.4,315.3,-207.6,-92.4,-9830.1,-9827.4,-954.6,-4932.6,-7.2,-6.0,-414.0,-2540.1,-0.9,-114.0,27.9,-644.4,0,726,33554432,122,0, 
0.4067,-264.6,-246.0,807.3,-248.4,-149.1,-233.7,-237.6,-2715.6,-3112.2,317.7,-207.0,-89.4,-9830.1,-9827.4,-2611.8,-5308.5,-6.9,-6.0,-415.2,-2542.5,-0.6,-110.1,29.1,-646.2,0,732,33554432,123,0, 
0.4100,-266.7,-244.2,-1384.5,-252.3,-201.6,-236.7,-263.7,-2722.2,-2964.0,312.6,-213.9,-96.0,-9830.1,-9827.4,-4249.5,-6591.6,-6.6,-5.7,-419.1,-2541.6,-0.9,-109.2,23.7,-665.1,0,738,33554432,124,0, 
0.4133,-262.5,-243.0,-1468.8,-254.1,-165.3,-231.0,-259.8,-2724.9,-2371.2,310.5,-217.5,-101.1,-9830.1,-9827.4,-3674.1,-7082.7,-6.9,-6.0,-423.9,-2547.9,-0.9,-120.9,21.0,-654.3,0,744,33554432,125,0, 
0.4167,-261.9,-240.9,687.3,-257.1,-107.4,-236.4,-231.3,-2723.1,-1926.6,311.4,-217.8,-107.4,-9830.1,-9827.4,-1578.0,-6080.4,-6.9,-6.3,-421.8,-2544.9,-0.9,-117.6,36.0,-638.7,0,750,33554432,126,0, 
0.4200,-256.2,-237.0,2131.8,-255.9,-92.7,-231.9,-219.0,-2715.0,-2371.2,316.8,-216.6,-104.1,-9830.1,-9827.4,-951.3,-5033.4,-7.5,-6.3,-418.2,-2544.9,-1.2,-114.6,40.8,-628.5,0,756,33554432,127,0, 
0.4233,-261.9,-243.9,885.9,-255.3,-147.0,-235.2,-248.1,-2719.8,-3112.2,310.8,-214.8,-104.1,-9830.1,-9827.4,-2609.4,-5386.2,-7.2,-6.0,-419.1,-2537.1,-0.6,-126.0,33.9,-629.7,0,762,33554432,128,0, 
0.4267,-258.9,-243.9,-1414.5,-252.3,-210.6,-231.6,-258.3,-2709.3,-3038.1,311.7,-213.6,-107.1,-9830.1,-9827.4,-4372.8,-6701.4,-7.2,-6.3,-417.6,-2541.0,-0.9,-123.3,31.2,-645.0,0,768,33554432,129,0, 
0.4300,-256.8,-231.0,-1446.6,-252.0,-161.4,-231.9,-244.5,-2704.2,-2445.3,305.1,-220.2,-105.9,-9830.1,-9827.4,-3693.0,-7107.3,-6.9,-5.7,-419.1,-2544.3,-0.9,-128.7,36.0,-642.0,0,774,33554432,130,0, 
0.4333,-256.2,-241.8,672.6,-250.2,-91.8,-226.8,-228.6,-2704.8,-1926.6,321.0,-213.9,-101.4,-9830.1,-9827.4,-1653.0,-6139.5,-6.9,-6.6,-418.2,-2542.8,-0.6,-117.6,39.9,-627.6,0,780,33554432,131,0, 
0.4367,-256.5,-235.5,2067.9,-252.9,-87.9,-231.3,-217.8,-2706.6,-2445.3,318.6,-213.9,-101.7,-9830.1,-9827.4,-977.4,-5122.8,-7.2,-5.7,-414.9,-2541.6,-0.6,-127.2,43.5,-619.2,0,786,33554432,132,0, 
0.4400,-254.4,-238.8,808.8,-252.3,-156.6,-231.6,-238.2,-2703.0,-2964.0,315.3,-212.1,-102.9,-9830.1,-9827.4,-2629.8,-5505.9,-6.6,-6.3,-414.3,-2537.7,-1.2,-118.8,39.3,-620.4,0,792,33554432,133,0, 
0.4433,-257.4,-236.1,-1330.5,-248.4,-191.7,-231.3,-255.6,-2700.9,-2964.0,317.1,-207.9,-96.3,-9830.1,-9827.4,-4248.3,-6734.1,-6.6,-6.3,-415.2,-2535.6,-0.9,-121.8,28.5,-632.4,0,798,33554432,134,0, 
0.4467,-258.3,-234.0,-1504.5,-253.2,-180.3,-230.4,-253.2,-2698.2,-2445.3,318.6,-210.6,-103.2,-9830.1,-9827.4,-3730.2,-7227.3,-6.9,-6.3,-415.5,-2545.5,-0.9,-126.9,25.8,-642.3,0,804,33554432,135,0, 
0.4500,-261.6,-235.2,649.8,-260.7,-114.6,-237.6,-234.9,-2703.3,-1926.6,302.7,-219.6,-108.3,-9830.1,-9827.4,-1743.6,-6259.8,-6.9,-5.7,-426.3,-2545.5,-0.9,-141.0,33.6,-628.5,0,810,33554432,136,0, 
0.4533,-260.1,-240.9,2081.1,-255.0,-81.0,-225.6,-216.6,-2701.2,-2297.1,312.3,-217.2,-106.8,-9830.1,-9827.4,-1049.4,-5237.4,-6.9,-5.7,-418.5,-2540.1,-0.9,-142.2,41.1,-631.2,0,816,33554432,137,0, 
0.4567,-261.3,-249.0,757.5,-255.3,-153.6,-235.2,-241.5,-2701.2,-3186.3,298.8,-217.2,-110.1,-9830.1,-9827.4,-2789.7,-5597.7,-6.6,-5.4,-418.8,-2554.8,-0.9,-148.5,30.0,-627.0,0,822,33554432,138,0, 
0.4600,-260.4,-246.6,-1427.1,-255.3,-199.5,-242.1,-252.9,-2698.5,-3186.3,307.8,-219.3,-107.1,-9830.1,-9827.4,-4417.5,-6881.1,-7.2,-6.0,-423.0,-2547.0,-1.2,-145.2,16.8,-647.1,0,828,33554432,139,0, 
0.4633,-257.7,-246.0,-1525.2,-258.0,-177.3,-240.0,-254.1,-2704.5,-2297.1,305.4,-217.8,-107.4,-9830.1,-9827.4,-3776.4,-7343.7,-6.9,-5.7,-420.3,-2544.6,-0.9,-143.7,16.5,-648.0,0,834,33554432,140,0, 
0.4667,-264.0,-240.3,591.6,-260.4,-99.9,-242.1,-236.7,-2708.1,-2074.8,295.2,-225.9,-113.4,-9830.1,-9827.4,-1778.1,-6414.0,-6.9,-5.7,-427.8,-2547.9,-0.9,-155.1,13.8,-642.3,0,840,33554432,141,0, 
0.4700,-260.1,-247.5,1951.5,-265.2,-93.9,-241.5,-221.4,-2703.0,-2445.3,289.5,-240.3,-128.4,-9830.1,-9827.4,-1138.2,-5421.6,-7.2,-6.0,-441.3,-2560.5,-0.3,-152.1,26.7,-644.1,0,846,33554432,142,0, 
0.4733,-264.0,-251.4,743.1,-264.9,-158.1,-240.0,-249.0,-2699.4,-3038.1,283.2,-253.2,-143.7,-9830.1,-9827.4,-2776.5,-5765.7,-6.6,-6.3,-452.7,-2570.4,-0.6,-160.5,21.9,-650.4,0,852,33554432,143,0, 
0.4767,-257.7,-242.7,-1442.1,-256.5,-204.9,-238.5,-268.8,-2698.8,-3038.1,302.7,-224.4,-119.1,-9830.1,-9827.4,-4458.9,-7027.8,-7.2,-5.7,-423.3,-2553.0,-0.9,-148.8,12.6,-661.2,0,858,33554432,144,0, 
0.4800,-261.0,-243.3,-1491.6,-255.6,-177.6,-243.9,-267.6,-2709.0,-2519.4,304.2,-204.0,-98.4,-9830.1,-9827.4,-3798.0,-7424.7,-7.2,-6.3,-404.4,-2539.2,-0.6,-141.0,11.4,-661.8,0,864,33554432,145,0, 
0.4833,-261.3,-241.2,638.7,-249.0,-96.9,-238.2,-241.8,-2707.5,-1926.6,316.8,-194.7,-86.7,-9830.1,-9827.4,-1899.3,-6489.3,-6.9,-5.7,-398.1,-2529.0,-0.6,-129.6,18.0,-650.4,0,870,33554432,146,0, 
0.4867,-267.0,-242.7,2093.4,-252.0,-59.4,-239.7,-244.2,-2705.4,-2371.2,313.2,-202.5,-94.5,-9830.1,-9827.4,-1274.4,-5424.3,-6.6,-6.3,-402.0,-2531.4,-0.6,-138.9,21.3,-651.9,0,876,33554432,147,0, 
0.4900,-262.8,-240.6,876.6,-248.7,-128.4,-237.0,-248.7,-2700.0,-2964.0,310.5,-197.1,-89.1,-9830.1,-9827.4,-2898.6,-5815.5,-6.9,-6.0,-393.9,-2532.3,-0.9,-125.1,17.1,-655.8,0,882,33554432,148,0, 
0.4933,-264.0,-249.9,-1386.3,-260.1,-197.4,-240.9,-272.1,-2704.2,-3038.1,307.5,-209.4,-101.1,-9830.1,-9827.4,-4569.3,-7114.8,-6.9,-6.3,-408.3,-2538.9,-0.6,-132.6,9.3,-661.5,0,888,33554432,149,0, 
0.4967,-267.3,-246.3,-1474.2,-261.6,-189.0,-243.6,-270.6,-2706.9,-2371.2,310.2,-213.0,-106.2,-9830.1,-9827.4,-3972.3,-7551.3,-6.9,-6.0,-414.0,-2540.1,-0.6,-129.6,7.8,-669.9,0,894,33554432,150,0, 
0.5000,-267.3,-243.9,671.1,-259.2,-101.4,-243.3,-239.4,-2709.6,-1852.5,305.7,-209.1,-104.1,-9830.1,-9827.4,-1907.1,-6538.8,-6.6,-6.0,-408.3,-2533.8,-0.9,-133.5,13.2,-662.4,0,900,33554432,151,0, 
0.5033,-271.5,-251.4,2019.0,-261.6,-93.6,-241.8,-242.7,-2713.2,-2297.1,306.0,-220.8,-110.7,-9830.1,-9827.4,-1455.6,-5589.3,-6.9,-6.0,-416.4,-2546.1,-1.2,-131.1,21.6,-654.0,0,906,33554432,152,0, 
0.5067,-272.1,-255.9,549.6,-261.3,-175.8,-243.0,-276.0,-2714.7,-3112.2,313.5,-220.8,-108.3,-9830.1,-9827.4,-3481.5,-6138.0,-6.9,-6.0,-417.3,-2544.3,-0.6,-137.7,11.4,-665.1,0,912,33554432,153,0, 
0.5100,-275.7,-251.7,-1527.0,-265.8,-214.5,-239.7,-290.1,-2712.3,-3112.2,308.7,-220.8,-106.2,-9830.1,-9827.4,-4988.4,-7264.8,-7.2,-6.0,-419.7,-2550.3,-0.9,-139.8,4.8,-680.1,0,918,33554432,154,0, 
0.5133,-273.6,-257.4,-1637.4,-265.5,-183.3,-242.4,-275.4,-2707.8,-2297.1,318.3,-217.8,-108.0,-9830.1,-9827.4,-4305.6,-7705.5,-6.9,-6.0,-414.3,-2540.1,-0.6,-130.2,6.3,-666.3,0,924,33554432,155,0, 
0.5167,-267.3,-254.7,563.1,-260.1,-112.8,-242.1,-254.1,-2708.1,-2000.7,312.6,-218.4,-104.7,-9830.1,-9827.4,-2251.5,-6736.8,-6.9,-6.6,-414.3,-2536.5,-0.9,-127.5,13.8,-657.6,0,930,33554432,156,0, 
0.5200,-267.6,-256.2,1946.4,-259.8,-83.7,-230.4,-246.6,-2700.6,-2297.1,314.1,-215.4,-104.1,-9830.1,-9827.4,-1667.7,-5732.4,-6.9,-6.0,-409.8,-2532.3,-0.9,-122.1,25.5,-642.9,0,936,33554432,157,0, 
0.5233,-261.3,-243.9,716.1,-251.4,-137.7,-228.0,-261.6,-2691.9,-3038.1,318.9,-211.5,-96.6,-9830.1,-9827.4,-3306.0,-6070.2,-7.2,-5.7,-407.4,-2522.7,-1.2,-114.0,21.0,-646.5,0,942,33554432,158,0, 
0.5267,-266.1,-254.7,-1420.2,-262.8,-197.7,-241.8,-288.0,-2694.3,-3112.2,318.0,-218.1,-100.5,-9830.1,-9827.4,-4931.4,-7323.3,-6.9,-6.0,-415.2,-2531.4,-0.9,-124.2,7.2,-669.6,0,948,33554432,159,0, 
0.5300,-263.4,-252.3,-1563.6,-264.0,-172.8,-237.9,-274.5,-2690.4,-2445.3,313.8,-219.6,-110.7,-9830.1,-9827.4,-4391.4,-7759.5,-7.2,-5.7,-412.8,-2550.0,-0.6,-137.7,6.6,-679.2,0,954,33554432,160,0, 
0.5333,-267.3,-257.1,540.9,-272.7,-122.1,-245.4,-252.9,-2696.7,-1926.6,309.9,-223.2,-108.6,-9830.1,-9827.4,-2424.6,-6821.4,-6.9,-6.0,-416.7,-2540.4,-0.6,-135.6,8.4,-671.4,0,960,33554432,161,0, 
0.5367,-264.6,-255.9,1989.3,-265.8,-97.2,-237.6,-244.2,-2690.4,-2445.3,309.9,-215.4,-105.3,-9830.1,-9827.4,-1752.0,-5781.0,-6.9,-6.0,-412.2,-2547.3,-0.9,-127.8,11.4,-656.4,0,966,33554432,162,0, 
0.5400,-270.9,-260.1,743.7,-270.6,-160.5,-245.1,-269.4,-2694.9,-2964.0,302.4,-228.0,-118.5,-9830.1,-9827.4,-3372.6,-6198.6,-6.9,-5.7,-422.4,-2554.2,-1.2,-138.3,-1.2,-679.8,0,972,33554432,163,0, 
0.5433,-265.2,-253.2,-1456.8,-265.8,-210.9,-247.2,-296.7,-2691.9,-3112.2,309.9,-219.3,-109.5,-9830.1,-9827.4,-5064.3,-7506.6,-6.9,-6.6,-409.8,-2545.2,-0.9,-134.1,-5.7,-688.2,0,978,33554432,164,0, 
0.5467,-269.1,-258.3,-1542.6,-270.0,-194.4,-246.9,-283.8,-2696.7,-2519.4,309.0,-226.8,-117.0,-9830.1,-9827.4,-4480.2,-7915.5,-6.3,-6.0,-422.1,-2546.4,-0.3,-135.0,-9.9,-688.2,0,984,33554432,165,0, 
0.5500,-270.3,-263.7,550.5,-268.2,-120.3,-246.3,-259.8,-2696.4,-1926.6,305.1,-227.7,-117.6,-9830.1,-9827.4,-2510.7,-6956.7,-7.2,-5.7,-420.3,-2548.5,-0.9,-135.3,3.6,-677.4,0,990,33554432,166,0, 
0.5533,-264.6,-262.5,1935.6,-264.6,-95.4,-250.5,-249.0,-2693.4,-2445.3,305.7,-228.9,-117.9,-9830.1,-9827.4,-1931.7,-5975.7,-6.9,-6.0,-423.6,-2547.6,-0.9,-137.1,1.2,-678.9,0,996,33554432,167,0, 
0.5567,-270.6,-263.4,718.8,-269.1,-169.2,-252.0,-275.7,-2698.8,-2964.0,300.6,-231.6,-122.4,-9830.1,-9827.4,-3574.5,-6313.8,-6.6,-6.3,-426.3,-2562.0,-1.2,-141.0,-6.6,-695.4,0,1002,33554432,168,0, 
0.5600,-262.5,-252.3,-1454.1,-261.3,-214.5,-247.5,-291.0,-2688.3,-3038.1,315.0,-219.6,-114.9,-9830.1,-9827.4,-5352.0,-7588.8,-7.2,-6.0,-417.0,-2555.1,-0.6,-140.7,-8.7,-701.1,0,1008,33554432,169,0, 
0.5633,-266.1,-258.6,-1593.9,-264.0,-187.8,-244.2,-278.4,-2687.7,-2519.4,306.9,-222.6,-116.1,-9830.1,-9827.4,-4730.4,-8012.4,-6.9,-6.3,-417.9,-2561.7,-0.9,-141.0,-5.1,-713.7,0,1014,33554432,170,0, 
0.5667,-268.5,-263.7,397.5,-271.8,-144.0,-255.0,-258.3,-2693.4,-2000.7,297.3,-234.9,-124.5,-9830.1,-9827.4,-2836.8,-7164.6,-7.2,-6.3,-432.3,-2564.7,-0.9,-148.8,-2.4,-696.9,0,1020,33554432,171,0, 
0.5700,-266.7,-268.8,1822.5,-274.8,-114.0,-253.8,-252.3,-2690.4,-2445.3,295.5,-234.3,-124.2,-9830.1,-9827.4,-2231.1,-6110.1,-6.9,-5.7,-432.6,-2569.5,-0.6,-146.1,1.8,-696.6,0,1026,33554432,172,0, 
0.5733,-266.4,-263.4,646.5,-268.8,-165.6,-247.5,-259.8,-2687.4,-2815.8,295.5,-231.0,-118.2,-9830.1,-9827.4,-3871.5,-6491.4,-6.9,-6.3,-430.5,-2561.7,-0.9,-142.5,-7.2,-695.4,0,1032,33554432,173,0, 
0.5767,-267.6,-256.2,-1578.3,-266.1,-210.3,-243.3,-282.3,-2686.5,-2964.0,302.7,-228.9,-117.6,-9830.1,-9827.4,-5603.1,-7676.4,-7.2,-5.7,-425.4,-2561.7,-0.9,-147.0,-16.5,-702.3,0,1038,33554432,174,0, 
0.5800,-266.4,-255.9,-1761.3,-266.4,-196.5,-245.4,-279.3,-2686.8,-2445.3,302.7,-227.4,-115.8,-9830.1,-9827.4,-5052.6,-8154.6,-6.6,-6.0,-424.5,-2560.2,-0.6,-139.8,-15.6,-696.6,0,1044,33554432,175,0, 
0.5833,-269.7,-259.5,338.7,-270.3,-127.8,-248.4,-270.3,-2682.3,-1926.6,301.8,-225.9,-117.0,-9830.1,-9827.4,-3113.1,-7253.1,-7.5,-6.0,-420.6,-2559.9,-0.9,-140.7,-13.2,-687.6,0,1050,33554432,176,0, 
0.5867,-268.8,-266.7,1778.1,-272.7,-106.5,-243.0,-252.9,-2683.8,-2445.3,302.4,-225.9,-120.9,-9830.1,-9827.4,-2479.2,-6239.1,-6.9,-6.3,-422.1,-2567.4,-0.6,-144.9,0.0,-679.8,0,1056,33554432,177,0, 
0.5900,-268.8,-262.2,548.7,-272.4,-172.2,-248.4,-278.4,-2685.3,-3112.2,300.3,-227.7,-123.0,-9830.1,-9827.4,-4130.4,-6571.2,-7.2,-6.3,-424.8,-2569.2,-0.9,-148.2,-1.2,-690.6,0,1062,33554432,178,0, 
0.5933,-266.4,-268.2,-1569.9,-272.1,-231.9,-247.2,-295.8,-2690.4,-3038.1,313.5,-218.7,-111.3,-9830.1,-9827.4,-5845.5,-7860.6,-6.9,-6.0,-419.4,-2557.2,-0.6,-135.3,-15.6,-699.0,0,1068,33554432,179,0, 
0.5967,-269.4,-272.1,-1740.0,-278.1,-207.3,-255.3,-297.9,-2691.3,-2445.3,301.2,-230.1,-126.0,-9830.1,-9827.4,-5226.0,-8317.2,-6.6,-6.0,-423.6,-2573.4,-0.9,-152.7,-18.0,-705.6,0,1074,33554432,180,0, 
0.6000,-264.3,-264.3,328.5,-276.3,-134.7,-252.9,-268.2,-2691.3,-1926.6,298.2,-230.4,-121.8,-9830.1,-9827.4,-3288.6,-7347.0,-6.9,-6.0,-426.9,-2566.5,-0.9,-155.7,-11.4,-696.9,0,1080,33554432,181,0, 
0.6033,-263.4,-266.4,1716.9,-275.1,-111.0,-244.5,-255.6,-2685.9,-2445.3,304.2,-229.5,-119.7,-9830.1,-9827.4,-2660.1,-6319.2,-6.9,-6.3,-424.8,-2560.8,-0.6,-141.6,1.2,-682.5,0,1086,33554432,182,0, 
0.6067,-264.9,-263.7,521.1,-269.4,-164.7,-241.5,-269.1,-2681.7,-2964.0,304.5,-227.1,-114.3,-9830.1,-9827.4,-4351.5,-6618.3,-6.9,-6.0,-424.8,-2562.0,-1.2,-143.4,-3.3,-693.6,0,1092,33554432,183,0, 
0.6100,-266.4,-269.4,-1665.6,-268.8,-238.8,-240.6,-286.2,-2683.2,-3112.2,300.0,-231.6,-119.4,-9830.1,-9827.4,-6060.3,-7921.5,-6.6,-6.0,-428.7,-2560.5,-0.9,-140.7,-17.4,-710.7,0,1098,33554432,184,0, 
0.6133,-267.9,-263.7,-1788.6,-274.2,-204.9,-251.4,-291.0,-2686.5,-2519.4,295.8,-233.4,-123.6,-9830.1,-9827.4,-5498.4,-8380.2,-6.9,-5.7,-428.4,-2560.2,-0.9,-154.2,-21.9,-714.0,0,1104,33554432,185,0, 
0.6167,-268.5,-270.0,210.6,-279.0,-132.0,-249.3,-271.8,-2695.2,-1926.6,294.6,-236.1,-123.6,-9830.1,-9827.4,-3623.1,-7444.5,-6.6,-5.7,-431.4,-2565.0,-0.9,-157.2,-19.8,-716.7,0,1110,33554432,186,0, 
0.6200,-264.9,-270.0,1732.8,-274.5,-103.2,-245.4,-258.0,-2697.0,-2371.2,292.5,-229.8,-116.1,-9830.1,-9827.4,-2901.0,-6363.0,-6.9,-6.0,-427.5,-2559.9,-0.9,-144.9,-11.7,-691.5,0,1116,33554432,187,0, 
0.6233,-269.7,-267.9,467.7,-275.1,-171.0,-248.4,-269.4,-2700.0,-3038.1,295.5,-231.3,-117.9,-9830.1,-9827.4,-4584.3,-6704.1,-7.2,-5.7,-428.1,-2562.0,-0.9,-142.5,-14.7,-712.2,0,1122,33554432,188,0, 
0.6267,-274.2,-264.9,-1677.6,-279.3,-222.9,-249.9,-296.1,-2699.4,-3038.1,289.2,-231.6,-121.2,-9830.1,-9827.4,-6191.4,-7926.0,-6.6,-5.7,-427.5,-2554.5,-1.2,-145.8,-23.1,-725.1,0,1128,33554432,189,0, 
0.6300,-274.2,-271.8,-1824.6,-282.3,-189.6,-253.5,-297.9,-2706.9,-2445.3,288.3,-232.8,-119.4,-9830.1,-9827.4,-5748.3,-8416.5,-6.9,-6.0,-430.2,-2562.3,-0.9,-148.5,-35.4,-725.7,0,1134,33554432,190,0, 
0.6333,-276.0,-267.9,298.8,-277.5,-114.3,-249.9,-278.7,-2707.2,-1926.6,289.5,-233.7,-119.4,-9830.1,-9827.4,-3781.8,-7449.3,-6.9,-6.0,-429.0,-2553.0,-0.6,-150.3,-30.6,-719.1,0,1140,33554432,191,0, 
0.6367,-270.9,-272.7,1682.1,-275.1,-105.3,-247.8,-262.2,-2703.3,-2445.3,293.7,-234.0,-120.6,-9830.1,-9827.4,-3170.4,-6478.2,-7.2,-6.0,-427.8,-2561.1,-0.6,-143.7,-20.4,-710.7,0,1146,33554432,192,0, 
0.6400,-272.4,-269.4,495.0,-271.8,-179.4,-250.2,-273.9,-2702.7,-3112.2,290.7,-227.1,-117.9,-9830.1,-9827.4,-4779.0,-6843.0,-6.9,-6.3,-422.1,-2561.1,-0.3,-142.8,-26.1,-718.5,0,1152,33554432,193,0, 
0.6433,-276.6,-270.6,-1700.4,-276.3,-231.3,-255.6,-294.0,-2700.3,-3038.1,283.5,-234.0,-123.0,-9830.1,-9827.4,-6489.0,-8039.1,-6.9,-6.0,-430.5,-2566.8,-0.6,-145.5,-37.5,-729.3,0,1158,33554432,194,0, 
0.6467,-277.5,-270.3,-1791.3,-281.1,-205.8,-254.7,-302.1,-2704.8,-2445.3,287.1,-237.9,-130.2,-9830.1,-9827.4,-5931.3,-8446.8,-6.9,-6.0,-431.7,-2572.5,-0.9,-159.3,-39.3,-731.4,0,1164,33554432,195,0, 
0.6500,-274.2,-270.0,230.7,-277.8,-113.4,-257.7,-275.7,-2701.5,-2148.9,294.3,-231.3,-119.1,-9830.1,-9827.4,-4018.2,-7525.5,-7.2,-5.7,-428.1,-2557.5,-0.6,-148.2,-35.1,-712.8,0,1170,33554432,196,0, 
0.6533,-270.3,-261.6,1676.4,-272.7,-97.2,-250.8,-261.9,-2700.0,-2519.4,293.7,-227.4,-116.4,-9830.1,-9827.4,-3351.6,-6549.0,-6.9,-6.0,-422.7,-2556.9,-0.9,-147.0,-30.9,-708.9,0,1176,33554432,197,0, 
0.6567,-274.2,-269.1,484.2,-277.5,-174.0,-254.1,-285.6,-2703.6,-3112.2,295.8,-233.7,-118.8,-9830.1,-9827.4,-4986.0,-6840.9,-7.2,-6.0,-430.8,-2553.3,-0.6,-148.8,-37.8,-716.4,0,1182,33554432,198,0, 
0.6600,-271.5,-258.3,-1650.0,-268.2,-238.5,-253.5,-297.6,-2701.5,-3112.2,300.0,-227.1,-113.7,-9830.1,-9827.4,-6639.0,-8075.1,-6.6,-5.7,-422.7,-2549.4,-0.3,-147.6,-42.9,-726.9,0,1188,33554432,199,0, 
0.6633,-271.8,-256.2,-1790.1,-274.8,-191.1,-254.7,-294.6,-2701.8,-2371.2,290.1,-231.0,-116.1,-9830.1,-9827.4,-6090.0,-8542.2,-6.6,-6.3,-431.7,-2551.5,-0.9,-143.1,-47.4,-730.2,0,1194,33554432,200,0, 
0.6667,-274.8,-266.4,269.7,-277.5,-131.1,-255.0,-274.8,-2704.2,-1926.6,296.7,-231.9,-114.6,-9830.1,-9827.4,-4201.2,-7654.8,-6.9,-6.0,-430.5,-2548.8,-0.9,-140.4,-44.4,-716.1,0,1200,33554432,201,0, 
0.6700,-276.9,-258.3,1741.2,-279.6,-105.6,-257.7,-271.2,-2706.6,-2445.3,286.2,-235.2,-121.2,-9830.1,-9827.4,-3441.9,-6575.7,-6.9,-5.7,-432.6,-2559.3,-0.9,-144.6,-39.6,-712.5,0,1206,33554432,202,0, 
0.6733,-280.5,-272.4,550.8,-274.5,-176.1,-258.6,-289.5,-2710.5,-3038.1,292.2,-234.0,-118.5,-9830.1,-9827.4,-5149.5,-7014.9,-6.6,-6.3,-429.3,-2556.3,-0.9,-147.9,-54.0,-708.3,0,1212,33554432,203,0, 
0.6767,-276.9,-264.6,-1384.2,-273.9,-193.8,-252.9,-297.9,-2704.5,-3112.2,289.5,-229.8,-114.3,-9830.1,-9827.4,-6628.2,-8003.1,-7.2,-5.7,-428.7,-2561.4,-0.9,-147.3,-54.9,-712.8,0,1218,33554432,204,0, 
0.6800,-278.4,-262.5,-1321.8,-278.4,-173.7,-253.8,-298.2,-2705.4,-2445.3,283.8,-233.1,-121.2,-9830.1,-9827.4,-5809.8,-8386.5,-7.2,-6.0,-430.5,-2568.3,-0.9,-159.0,-62.4,-714.6,0,1224,33554432,205,0, 
0.6833,-282.3,-269.7,549.6,-283.2,-133.8,-257.1,-292.2,-2704.2,-2000.7,284.4,-236.7,-124.5,-9830.1,-9827.4,-4269.0,-7635.9,-7.2,-6.0,-435.9,-2569.2,-0.6,-158.4,-61.5,-700.8,0,1230,33554432,206,0, 
0.6867,-282.0,-270.9,1962.0,-277.2,-106.8,-248.1,-273.9,-2696.1,-2297.1,295.8,-225.3,-111.6,-9830.1,-9827.4,-3678.0,-6652.8,-7.2,-6.0,-426.3,-2555.4,-0.9,-150.3,-46.5,-680.1,0,1236,33554432,207,0, 
0.6900,-281.4,-267.6,737.4,-273.3,-155.4,-250.8,-289.2,-2694.3,-3038.1,290.7,-222.0,-113.1,-9830.1,-9827.4,-5392.2,-6994.5,-6.9,-5.7,-422.1,-2557.5,-0.9,-157.2,-52.2,-697.5,0,1242,33554432,208,0, 
0.6933,-285.0,-272.7,-1472.1,-277.5,-218.7,-248.1,-310.5,-2698.8,-2964.0,288.3,-226.8,-117.0,-9830.1,-9827.4,-7135.2,-8288.7,-7.2,-6.0,-425.1,-2564.7,-1.2,-151.8,-69.0,-702.3,0,1248,33554432,209,0, 
0.6967,-285.9,-276.0,-1665.3,-282.0,-203.7,-257.7,-309.0,-2700.6,-2445.3,282.3,-236.7,-124.5,-9830.1,-9827.4,-6611.7,-8819.1,-7.2,-5.7,-440.4,-2573.7,0.0,-158.4,-69.0,-703.8,0,1254,33554432,210,0, 
0.7000,-284.7,-281.1,379.8,-287.4,-135.3,-257.4,-292.2,-2703.3,-2000.7,288.0,-234.6,-121.5,-9830.1,-9827.4,-4742.4,-7858.2,-6.9,-6.0,-436.8,-2572.5,-0.6,-159.3,-62.4,-688.5,0,1260,33554432,211,0, 
0.7033,-285.9,-277.5,1787.4,-287.7,-102.9,-262.5,-278.4,-2701.2,-2519.4,276.9,-235.2,-124.2,-9830.1,-9827.4,-4057.2,-6772.8,-7.2,-6.0,-433.8,-2575.5,-0.9,-163.2,-59.7,-680.4,0,1266,33554432,212,0, 
0.7067,-289.8,-280.8,604.8,-285.3,-171.3,-255.3,-295.2,-2702.1,-3186.3,275.7,-234.3,-123.3,-9830.1,-9827.4,-5631.9,-7116.9,-6.6,-6.3,-434.7,-2571.9,-0.9,-155.4,-55.5,-688.8,0,1272,33554432,213,0, 
0.7100,-290.7,-274.5,-1567.8,-284.7,-233.4,-258.9,-310.2,-2704.5,-3260.4,280.5,-238.2,-127.2,-9830.1,-9827.4,-7347.3,-8417.4,-6.9,-6.0,-438.9,-2578.8,-0.6,-171.3,-62.4,-711.0,0,1278,33554432,214,0, 
0.7133,-291.6,-283.2,-1745.4,-289.8,-204.6,-261.9,-307.2,-2704.2,-2519.4,271.2,-241.2,-129.9,-9830.1,-9827.4,-6837.6,-8903.7,-6.6,-6.0,-439.2,-2578.8,-0.9,-166.8,-66.3,-714.9,0,1284,33554432,215,0, 
0.7167,-291.6,-274.8,382.2,-288.0,-141.3,-260.1,-286.8,-2701.5,-2074.8,276.9,-234.9,-125.1,-9830.1,-9827.4,-4827.0,-7988.4,-6.9,-6.3,-432.6,-2582.4,-0.6,-162.9,-56.7,-696.9,0,1290,33554432,216,0, 
0.7200,-289.2,-282.3,1832.1,-285.3,-124.5,-258.3,-269.1,-2699.7,-2519.4,282.0,-235.2,-121.5,-9830.1,-9827.4,-4213.2,-6933.6,-6.9,-6.3,-433.5,-2569.2,-0.6,-159.6,-38.4,-688.5,0,1296,33554432,217,0, 
0.7233,-283.5,-271.2,676.5,-278.4,-182.7,-255.3,-290.4,-2691.9,-3038.1,287.1,-234.3,-120.9,-9830.1,-9827.4,-5838.9,-7255.2,-7.2,-5.7,-434.7,-2571.9,-0.9,-163.5,-39.0,-693.3,0,1302,33554432,218,0, 
0.7267,-281.1,-269.4,-1536.9,-271.2,-239.1,-245.7,-295.8,-2691.3,-3038.1,279.9,-233.1,-119.7,-9830.1,-9827.4,-7525.5,-8528.1,-6.9,-5.7,-433.5,-2571.0,-0.9,-159.6,-43.5,-709.5,0,1308,33554432,219,0, 
0.7300,-281.7,-271.8,-1706.1,-271.2,-208.8,-251.4,-297.3,-2696.7,-2519.4,279.0,-229.8,-114.0,-9830.1,-9827.4,-7073.1,-9024.9,-6.9,-6.0,-430.8,-2558.1,-0.6,-160.5,-51.3,-713.7,0,1314,33554432,220,0, 
0.7333,-288.9,-272.7,350.7,-279.0,-147.9,-257.7,-285.6,-2703.0,-1926.6,276.3,-234.6,-122.4,-9830.1,-9827.4,-5084.4,-8034.6,-6.6,-6.0,-433.8,-2575.8,-0.9,-166.2,-44.1,-709.5,0,1320,33554432,221,0, 
0.7367,-286.5,-278.1,1727.7,-275.7,-129.0,-254.4,-270.3,-2705.4,-2445.3,281.7,-234.0,-119.7,-9830.1,-9827.4,-4462.5,-7066.8,-7.2,-6.3,-433.2,-2565.6,-0.9,-168.9,-38.1,-705.0,0,1326,33554432,222,0, 
0.7400,-280.5,-273.3,570.9,-270.9,-185.4,-250.8,-294.6,-2699.7,-3038.1,285.3,-229.2,-112.5,-9830.1,-9827.4,-6107.4,-7396.2,-6.9,-5.7,-426.9,-2560.5,-0.6,-155.1,-38.4,-694.8,0,1332,33554432,223,0, 
0.7433,-289.5,-284.4,-1641.3,-277.5,-264.0,-250.2,-315.6,-2700.6,-3186.3,277.8,-236.7,-117.3,-9830.1,-9827.4,-7824.6,-8620.5,-6.6,-6.0,-433.8,-2567.7,-0.9,-162.3,-51.6,-716.1,0,1338,33554432,224,0, 
0.7467,-279.9,-275.4,-1770.9,-274.2,-210.6,-245.7,-314.7,-2691.9,-2519.4,285.9,-227.1,-108.0,-9830.1,-9827.4,-7303.5,-9113.7,-6.9,-6.3,-427.8,-2555.4,-0.9,-155.1,-52.2,-712.2,0,1344,33554432,225,0, 
0.7500,-281.7,-283.2,326.1,-267.9,-147.3,-248.1,-279.6,-2691.3,-2074.8,279.9,-223.5,-106.2,-9830.1,-9827.4,-5356.2,-8150.7,-6.9,-6.0,-420.0,-2557.2,-0.9,-154.8,-43.5,-705.3,0,1350,33554432,226,0, 
0.7533,-274.8,-267.9,1733.4,-260.7,-118.2,-244.5,-268.2,-2684.7,-2297.1,283.8,-218.1,-99.6,-9830.1,-9827.4,-4710.6,-7125.3,-7.2,-6.3,-412.8,-2547.9,-0.6,-154.8,-36.3,-687.6,0,1356,33554432,227,0, 
0.7567,-278.4,-276.9,547.8,-265.5,-193.8,-244.5,-293.7,-2687.4,-3112.2,288.0,-222.3,-103.8,-9830.1,-9827.4,-6283.5,-7479.6,-6.9,-6.0,-420.3,-2556.3,-0.6,-153.9,-46.2,-692.4,0,1362,33554432,228,0, 
0.7600,-278.7,-271.8,-1642.8,-257.7,-220.5,-237.6,-304.5,-2680.8,-3038.1,282.6,-216.3,-96.9,-9830.1,-9827.4,-8088.0,-8761.2,-6.9,-6.3,-415.2,-2541.0,-0.9,-147.3,-53.7,-699.0,0,1368,33554432,229,0, 
0.7633,-276.3,-271.2,-1787.4,-266.4,-192.3,-241.5,-305.7,-2683.8,-2371.2,279.3,-221.1,-104.1,-9830.1,-9827.4,-7560.6,-9199.8,-6.9,-5.7,-420.6,-2562.6,-1.5,-148.8,-51.0,-706.5,0,1374,33554432,230,0, 
0.7667,-283.5,-281.4,289.5,-273.9,-123.3,-239.1,-281.7,-2688.0,-2074.8,280.2,-228.0,-109.5,-9830.1,-9827.4,-5568.9,-8271.6,-6.9,-6.0,-424.2,-2565.3,-0.6,-146.7,-40.2,-692.4,0,1380,33554432,231,0, 
0.7700,-284.7,-276.3,1767.0,-277.5,-121.5,-245.1,-280.2,-2691.9,-2223.0,280.8,-231.9,-112.5,-9830.1,-9827.4,-4904.4,-7222.5,-7.2,-6.3,-426.9,-2568.9,-0.3,-144.6,-37.2,-684.3,0,1386,33554432,232,0, 
0.7733,-287.1,-275.4,607.2,-271.5,-167.7,-241.5,-290.4,-2688.3,-2889.9,290.4,-223.8,-104.1,-9830.1,-9827.4,-6585.6,-7535.1,-6.6,-6.0,-425.4,-2554.2,-0.6,-144.3,-33.6,-679.5,0,1392,33554432,233,0, 
0.7767,-280.5,-264.0,-1588.5,-266.1,-231.0,-233.7,-314.1,-2680.5,-3038.1,296.7,-219.9,-100.2,-9830.1,-9827.4,-8280.0,-8751.3,-7.2,-6.0,-418.8,-2555.1,-0.9,-129.3,-32.1,-678.9,0,1398,33554432,234,0, 
0.7800,-286.8,-267.9,-1758.0,-275.1,-211.8,-242.1,-303.9,-2683.5,-2593.5,279.3,-240.6,-114.9,-9830.1,-9827.4,-7704.3,-9268.5,-6.6,-5.7,-434.1,-2565.3,-0.9,-148.2,-39.0,-689.1,0,1404,33554432,235,0, 
0.7833,-288.6,-278.1,340.8,-282.9,-140.4,-246.3,-280.2,-2691.0,-2074.8,275.1,-249.6,-129.9,-9830.1,-9827.4,-5718.6,-8333.4,-7.2,-5.4,-446.7,-2574.9,-0.9,-150.9,-29.1,-682.5,0,1410,33554432,236,0, 
0.7867,-280.8,-268.8,1760.7,-271.8,-116.1,-241.8,-272.4,-2684.7,-2371.2,289.5,-222.3,-108.9,-9830.1,-9827.4,-5181.0,-7285.2,-6.6,-5.7,-416.7,-2550.3,-0.6,-141.0,-24.9,-679.8,0,1416,33554432,237,0, 
0.7900,-277.8,-261.6,561.6,-266.7,-166.2,-236.4,-283.8,-2676.3,-3038.1,297.9,-213.9,-99.0,-9830.1,-9827.4,-6853.8,-7616.1,-7.2,-5.7,-408.6,-2548.2,-0.9,-137.4,-31.5,-690.6,0,1422,33554432,238,0, 
0.7933,-281.4,-269.7,-1623.9,-273.3,-236.4,-238.5,-319.8,-2680.5,-3112.2,298.8,-216.0,-105.0,-9830.1,-9827.4,-8587.5,-8873.4,-6.9,-5.7,-410.4,-2556.3,-0.9,-144.3,-42.9,-708.6,0,1428,33554432,239,0, 
0.7967,-278.4,-264.9,-1812.3,-270.9,-201.9,-247.5,-304.5,-2677.8,-2297.1,285.3,-227.7,-115.5,-9830.1,-9827.4,-7968.0,-9377.1,-7.5,-6.0,-423.3,-2562.3,-0.9,-143.1,-45.6,-715.2,0,1434,33554432,240,0, 
0.8000,-276.3,-262.8,245.7,-269.7,-115.2,-245.1,-286.2,-2678.7,-2074.8,294.6,-224.1,-113.7,-9830.1,-9827.4,-6069.6,-8462.7,-6.6,-6.3,-414.3,-2554.2,-0.9,-141.3,-47.4,-702.0,0,1440,33554432,241,0, 
0.8033,-276.0,-261.3,1760.7,-266.1,-88.5,-240.0,-272.7,-2679.0,-2371.2,290.7,-211.5,-94.8,-9830.1,-9827.4,-5403.9,-7413.3,-6.6,-6.3,-407.7,-2536.8,-0.9,-133.2,-37.2,-705.3,0,1446,33554432,242,0, 
0.8067,-272.1,-263.7,576.6,-262.8,-155.1,-235.2,-292.5,-2672.4,-3038.1,299.7,-216.0,-99.3,-9830.1,-9827.4,-7062.6,-7755.9,-6.9,-6.0,-409.8,-2542.5,-0.9,-137.1,-36.6,-705.6,0,1452,33554432,243,0, 
0.8100,-270.0,-255.9,-1610.4,-262.5,-225.3,-243.0,-313.5,-2667.6,-3112.2,297.9,-221.1,-107.4,-9830.1,-9827.4,-8766.0,-8981.1,-6.9,-6.3,-417.9,-2550.6,-0.6,-130.8,-50.7,-722.4,0,1458,33554432,244,0, 
0.8133,-271.2,-270.9,-1755.0,-264.3,-191.7,-238.2,-310.8,-2670.6,-2519.4,298.8,-228.9,-110.4,-9830.1,-9827.4,-8262.0,-9472.5,-6.9,-6.0,-417.0,-2547.3,-0.9,-130.5,-54.3,-724.2,0,1464,33554432,245,0, 
0.8167,-272.4,-266.7,394.2,-262.5,-95.7,-237.0,-288.6,-2670.3,-2000.7,301.2,-222.9,-105.6,-9830.1,-9827.4,-6275.4,-8529.3,-6.9,-6.0,-418.8,-2545.8,-0.9,-136.2,-42.0,-712.2,0,1470,33554432,246,0, 
0.8200,-273.9,-272.7,1819.2,-263.4,-99.3,-241.8,-290.1,-2672.4,-2519.4,295.8,-228.3,-111.9,-9830.1,-9827.4,-5693.1,-7543.2,-6.9,-6.3,-424.5,-2541.6,-0.6,-135.0,-42.9,-703.5,0,1476,33554432,247,0, 
0.8233,-272.4,-271.8,576.3,-263.1,-174.6,-237.0,-305.7,-2667.0,-3038.1,302.1,-224.7,-106.8,-9830.1,-9827.4,-7377.6,-7873.8,-7.2,-6.0,-420.0,-2540.7,-0.9,-122.7,-45.3,-708.6,0,1482,33554432,248,0, 
0.8267,-274.2,-271.8,-1540.2,-260.4,-217.2,-235.5,-321.0,-2663.1,-3112.2,297.6,-223.2,-106.8,-9830.1,-9827.4,-9151.5,-9182.1,-6.9,-6.0,-417.6,-2544.3,-0.6,-129.3,-52.8,-718.5,0,1488,33554432,249,0, 
0.8300,-268.5,-273.3,-1734.0,-261.0,-184.5,-235.8,-310.8,-2664.9,-2371.2,304.2,-216.9,-104.7,-9830.1,-9827.4,-8591.1,-9675.0,-7.2,-6.0,-413.1,-2539.5,-0.6,-131.4,-51.9,-719.7,0,1494,33554432,250,0, 
0.8333,-269.4,-266.1,415.2,-261.0,-98.1,-231.6,-288.3,-2661.6,-2000.7,303.9,-215.4,-103.5,-9830.1,-9827.4,-6549.9,-8676.6,-6.9,-6.0,-409.2,-2539.2,-0.6,-116.4,-34.2,-705.9,0,1500,33554432,251,0, 
0.8367,-261.6,-266.7,1853.7,-252.6,-94.5,-227.7,-280.5,-2657.7,-2297.1,321.6,-201.6,-91.2,-9830.1,-9827.4,-5952.9,-7644.9,-6.9,-5.7,-396.9,-2522.7,-0.9,-117.0,-24.3,-701.4,0,1506,33554432,252,0, 
0.8400,-266.4,-258.6,609.6,-250.8,-153.6,-226.5,-297.6,-2654.1,-3186.3,316.2,-201.6,-87.6,-9830.1,-9827.4,-7647.3,-7967.4,-6.6,-5.7,-393.9,-2519.7,-0.6,-118.5,-27.3,-699.6,0,1512,33554432,253,0, 
0.8433,-269.7,-264.0,-1641.9,-252.3,-206.1,-222.6,-314.1,-2658.9,-3038.1,318.9,-203.4,-89.1,-9830.1,-9827.4,-9452.1,-9293.4,-7.2,-6.3,-398.7,-2531.1,-0.3,-111.6,-40.2,-709.8,0,1518,33554432,254,0, 
0.8467,-269.1,-266.1,-1809.0,-257.1,-177.9,-224.7,-312.0,-2663.1,-2445.3,312.0,-211.8,-93.0,-9830.1,-9827.4,-8907.9,-9783.3,-6.6,-6.3,-406.2,-2528.7,-0.6,-120.9,-39.9,-709.8,0,1524,33554432,255,0, 
0.8500,-270.3,-270.3,277.8,-262.8,-106.8,-232.8,-292.8,-2677.2,-1926.6,302.1,-212.1,-101.7,-9830.1,-9827.4,-6874.8,-8881.5,-6.6,-6.3,-405.3,-2541.6,-0.9,-119.4,-33.6,-714.3,0,1530,33554432,0,0, 
0.8533,-274.2,-273.3,1741.8,-269.7,-88.8,-231.0,-278.1,-2676.9,-2445.3,299.4,-221.1,-111.6,-9830.1,-9827.4,-6312.0,-7864.2,-7.2,-6.0,-413.7,-2545.8,-0.9,-134.7,-37.5,-718.2,0,1536,33554432,1,0, 
0.8567,-278.1,-278.4,489.0,-270.3,-148.2,-247.5,-300.3,-2673.6,-2964.0,292.5,-228.9,-117.0,-9830.1,-9827.4,-8053.5,-8239.8,-7.2,-5.7,-421.8,-2552.1,-0.9,-138.0,-48.9,-726.3,0,1542,33554432,2,0, 
0.8600,-281.1,-282.6,-1715.7,-276.3,-217.2,-246.0,-322.8,-2677.8,-3186.3,283.8,-239.1,-124.8,-9830.1,-9827.4,-9785.1,-9447.0,-7.5,-6.0,-434.7,-2565.0,-0.9,-144.0,-61.5,-752.4,0,1548,33554432,3,0, 
0.8633,-282.0,-281.7,-1830.0,-273.6,-181.2,-245.1,-312.0,-2676.9,-2371.2,291.0,-231.6,-120.9,-9830.1,-9827.4,-9277.2,-9830.1,-6.9,-6.0,-426.3,-2562.6,-0.9,-141.0,-61.8,-747.3,0,1554,33554432,4,0, 
0.8667,-282.6,-285.9,285.6,-284.1,-122.1,-252.0,-299.4,-2682.6,-2074.8,287.7,-240.0,-131.4,-9830.1,-9827.4,-7324.5,-9240.6,-6.9,-6.3,-432.9,-2568.0,-0.6,-149.7,-54.3,-738.9,0,1560,2181038080,5,0, 
0.8700,-279.0,-280.8,1720.5,-282.3,-87.9,-245.7,-282.6,-2683.2,-2519.4,280.5,-241.2,-130.2,-9830.1,-9827.4,-6726.6,-8093.7,-6.9,-6.0,-435.6,-2569.2,-1.5,-159.3,-49.2,-729.6,0,1566,2181038080,6,0, 
0.8733,-280.5,-272.7,536.7,-283.5,-180.9,-251.1,-298.2,-2678.1,-3112.2,279.3,-243.3,-132.0,-9830.1,-9827.4,-8433.9,-8474.7,-6.9,-5.7,-437.4,-2568.0,-0.9,-161.1,-60.0,-734.1,0,1572,2181038080,7,0, 
0.8767,-283.2,-279.3,-1689.6,-279.0,-213.9,-238.8,-310.5,-2673.3,-3112.2,277.8,-242.1,-130.2,-9830.1,-9827.4,-9830.1,-9648.9,-6.3,-6.0,-438.3,-2565.3,-0.9,-157.5,-64.2,-738.0,0,1578,2181038080,8,0, 
0.8800,-279.9,-277.8,-1849.2,-285.0,-202.2,-254.1,-320.1,-2676.3,-2593.5,276.9,-240.9,-130.8,-9830.1,-9827.4,-9642.6,-9830.1,-6.9,-6.0,-434.1,-2561.7,-0.9,-147.9,-71.1,-754.2,0,1584,2717908992,9,0, 
0.8833,-281.1,-276.9,282.0,-279.9,-113.1,-234.6,-287.1,-2669.1,-2074.8,284.7,-237.9,-122.4,-9830.1,-9827.4,-7739.4,-9377.1,-6.9,-6.0,-431.4,-2551.2,-0.9,-138.9,-58.8,-728.7,0,1590,2717908992,10,0, 
0.8867,-272.4,-271.8,1772.7,-271.2,-96.9,-244.5,-280.8,-2664.0,-2445.3,287.4,-230.4,-113.7,-9830.1,-9827.4,-6973.5,-8198.7,-6.9,-6.0,-424.5,-2548.8,-0.6,-142.5,-54.9,-722.1,0,1596,2717908992,11,0, 
0.8900,-269.7,-275.7,555.6,-276.3,-183.9,-243.9,-307.2,-2663.1,-3112.2,284.7,-236.1,-126.0,-9830.1,-9827.4,-8817.6,-8634.9,-6.3,-5.7,-429.6,-2564.4,-0.6,-145.8,-63.0,-714.6,0,1602,2717908992,12,0, 
0.8933,-266.4,-266.7,-1651.2,-265.2,-204.9,-235.8,-321.0,-2658.3,-3112.2,293.1,-226.5,-113.4,-9830.1,-9827.4,-9830.1,-9711.3,-7.2,-6.0,-422.4,-2542.2,-0.6,-142.5,-61.8,-716.1,0,1608,2717908992,13,0, 
0.8967,-272.1,-264.6,-1831.8,-270.0,-196.2,-239.7,-321.3,-2663.7,-2371.2,282.3,-231.6,-117.0,-9830.1,-9827.4,-9799.8,-9830.1,-6.9,-5.7,-426.6,-2551.5,-0.6,-137.1,-63.6,-717.9,0,1614,2717908992,14,0, 
0.9000,-270.0,-264.0,218.4,-267.3,-100.8,-236.7,-293.7,-2661.3,-1926.6,289.5,-226.2,-115.2,-9830.1,-9827.4,-8175.0,-9567.0,-6.9,-6.3,-417.0,-2546.7,-0.9,-140.4,-52.8,-709.8,0,1620,2717908992,15,0, 
0.9033,-264.0,-262.5,1729.2,-264.9,-93.6,-235.8,-288.6,-2659.8,-2445.3,292.5,-222.0,-109.8,-9830.1,-9827.4,-7393.5,-8381.7,-6.9,-6.3,-413.1,-2542.2,-0.6,-135.3,-43.2,-699.3,0,1626,2717908992,16,0, 
0.9067,-270.0,-266.4,322.5,-272.4,-186.0,-238.8,-309.0,-2665.5,-2964.0,291.9,-227.7,-113.7,-9830.1,-9827.4,-9324.6,-9006.9,-7.2,-6.0,-424.2,-2547.0,-0.6,-139.2,-48.9,-711.0,0,1632,2717908992,17,0, 
0.9100,-271.8,-269.1,-1963.2,-270.0,-236.4,-234.3,-326.1,-2663.7,-3112.2,287.1,-228.3,-118.2,-9830.1,-9827.4,-9830.1,-9830.1,-6.9,-5.4,-424.8,-2547.9,-0.9,-145.8,-51.3,-734.1,0,1638,2717908992,18,0, 
0.9133,-276.9,-267.3,-2053.8,-276.9,-206.1,-236.4,-328.2,-2668.5,-2445.3,285.6,-229.2,-121.2,-9830.1,-9827.4,-9830.1,-9830.1,-6.6,-5.7,-420.0,-2554.5,-0.9,-148.2,-51.0,-730.5,0,1644,2717908992,19,0, 
0.9167,-273.9,-268.2,108.3,-272.1,-123.0,-234.6,-297.0,-2666.7,-2000.7,282.3,-232.8,-119.1,-9830.1,-9827.4,-8608.5,-9651.6,-6.9,-6.0,-421.8,-2554.2,-0.9,-142.2,-45.9,-715.5,0,1650,2717908992,20,0, 
0.9200,-270.6,-264.6,1544.1,-270.3,-102.9,-224.1,-284.7,-2664.6,-2519.4,284.4,-234.9,-120.6,-9830.1,-9827.4,-7751.7,-8514.6,-6.9,-6.0,-426.6,-2556.0,-0.6,-146.7,-36.3,-703.8,0,1656,2717908992,21,0, 
0.9233,-279.9,-269.4,461.7,-272.1,-182.1,-244.5,-303.3,-2663.1,-3112.2,280.2,-233.1,-120.0,-9830.1,-9827.4,-9479.4,-8848.8,-6.9,-5.7,-423.6,-2549.1,-0.6,-145.2,-47.4,-711.9,0,1662,2717908992,22,0, 
0.9267,-274.8,-268.5,-1793.1,-270.3,-235.5,-233.7,-319.5,-2660.4,-3038.1,283.8,-227.4,-115.5,-9830.1,-9827.4,-9830.1,-9788.4,-6.9,-5.7,-421.2,-2544.9,-0.6,-142.2,-45.9,-720.0,0,1668,2717908992,23,0, 
0.9300,-271.2,-262.8,-1923.0,-266.1,-178.5,-233.4,-316.5,-2655.6,-2519.4,285.9,-230.7,-117.0,-9830.1,-9827.4,-9830.1,-9830.1,-7.2,-6.3,-420.9,-2550.9,-0.6,-147.0,-47.4,-725.4,0,1674,2717908992,24,0, 
0.9333,-276.9,-267.0,209.7,-273.3,-100.5,-243.0,-303.3,-2661.6,-2074.8,281.4,-232.5,-121.2,-9830.1,-9827.4,-8921.7,-9645.6,-6.9,-6.3,-424.8,-2561.1,-0.9,-153.0,-45.0,-727.8,0,1680,2717908992,25,0, 
0.9367,-280.8,-277.8,1655.7,-276.3,-95.4,-244.2,-297.6,-2669.7,-2371.2,274.2,-236.1,-122.1,-9830.1,-9827.4,-8092.2,-8499.6,-6.6,-6.3,-425.1,-2557.8,-0.9,-155.4,-39.9,-713.7,0,1686,2717908992,26,0, 
0.9400,-281.7,-275.1,503.7,-273.6,-166.5,-238.8,-309.6,-2670.9,-3038.1,279.9,-232.2,-115.8,-9830.1,-9827.4,-9569.4,-8860.2,-6.9,-6.0,-423.6,-2557.5,-0.9,-147.3,-47.4,-717.3,0,1692,2717908992,27,0, 
0.9433,-274.8,-266.7,-1703.1,-270.6,-213.9,-242.4,-333.3,-2668.2,-3186.3,287.1,-228.0,-112.2,-9830.1,-9827.4,-9827.4,-9821.4,-6.9,-6.3,-421.8,-2550.0,-0.9,-143.7,-53.1,-721.8,0,1698,2717908992,28,0, 
0.9467,-277.2,-269.7,-1926.9,-279.9,-190.5,-241.5,-324.0,-2672.1,-2371.2,277.2,-235.5,-126.9,-9830.1,-9827.4,-9830.1,-9830.1,-6.6,-6.0,-427.5,-2557.2,-0.6,-150.6,-50.7,-730.2,0,1704,2717908992,29,0, 
0.9500,-283.2,-281.1,197.7,-285.9,-107.4,-246.0,-300.9,-2678.1,-2074.8,276.9,-241.5,-127.8,-9830.1,-9827.4,-9086.7,-9632.4,-6.9,-6.0,-431.4,-2560.5,-0.9,-152.7,-43.2,-715.5,0,1710,2717908992,30,0, 
0.9533,-288.3,-279.3,1637.1,-288.0,-111.0,-254.7,-296.1,-2682.3,-2445.3,265.2,-243.3,-128.4,-9830.1,-9827.4,-8346.0,-8473.5,-7.2,-5.7,-435.6,-2559.3,-0.6,-155.7,-44.7,-707.7,0,1716,2717908992,31,0, 
0.9567,-287.1,-287.7,439.8,-287.7,-173.4,-252.6,-313.2,-2678.1,-2964.0,267.9,-243.9,-124.5,-9830.1,-9827.4,-9738.9,-8883.9,-6.6,-5.7,-434.4,-2556.9,-0.9,-144.6,-48.6,-705.0,0,1722,2717908992,32,0, 
0.9600,-284.7,-289.5,-1794.6,-287.7,-225.0,-241.5,-322.5,-2672.7,-3038.1,273.3,-242.4,-126.9,-9830.1,-9827.4,-9811.2,-9792.0,-6.9,-6.0,-434.7,-2560.2,-0.3,-153.9,-52.8,-709.2,0,1728,2717908992,33,0, 
0.9633,-282.0,-281.1,-1956.3,-285.3,-218.4,-247.8,-324.0,-2672.1,-2371.2,276.9,-241.2,-123.9,-9830.1,-9827.4,-9830.1,-9830.1,-7.2,-5.7,-435.0,-2558.4,-1.2,-144.9,-50.4,-709.2,0,1734,2717908992,34,0, 
0.9667,-280.5,-286.5,212.1,-278.7,-122.1,-234.9,-292.8,-2675.1,-1926.6,282.0,-235.5,-117.3,-9830.1,-9827.4,-9373.8,-9613.8,-7.2,-6.3,-429.6,-2547.3,-0.9,-144.3,-39.6,-693.3,0,1740,2717908992,35,0, 
0.9700,-270.3,-278.7,1674.3,-278.1,-90.3,-237.0,-298.8,-2670.3,-2297.1,275.7,-234.3,-118.5,-9830.1,-9827.4,-8655.6,-8474.1,-6.6,-6.3,-427.8,-2542.8,-0.9,-152.4,-32.1,-687.6,0,1746,2717908992,36,0, 
0.9733,-273.9,-277.2,463.2,-281.4,-177.0,-244.2,-312.0,-2670.6,-2964.0,282.9,-232.2,-117.0,-9830.1,-9827.4,-9819.3,-8839.2,-6.9,-6.3,-426.6,-2545.5,-0.6,-141.9,-41.4,-698.1,0,1752,2717908992,37,0, 
0.9767,-271.5,-279.0,-1760.4,-285.3,-223.8,-240.3,-334.8,-2672.7,-3112.2,282.3,-240.6,-123.3,-9830.1,-9827.4,-9804.6,-9794.4,-6.9,-6.0,-436.8,-2562.3,-0.9,-149.1,-47.4,-714.0,0,1758,2717908992,38,0, 
0.9800,-270.9,-268.2,-1975.5,-275.7,-191.4,-240.3,-325.5,-2662.8,-2445.3,284.7,-229.2,-112.2,-9830.1,-9827.4,-9830.1,-9830.1,-6.9,-6.0,-419.4,-2550.3,-0.3,-142.5,-52.2,-705.9,0,1764,2717908992,39,0, 
0.9833,-271.5,-273.9,96.6,-277.2,-125.4,-245.7,-298.5,-2663.4,-2000.7,283.2,-234.0,-116.4,-9830.1,-9827.4,-9611.7,-9651.9,-7.2,-5.7,-424.5,-2538.3,-0.9,-148.8,-42.3,-703.8,0,1770,2717908992,40,0, 
0.9867,-273.9,-277.2,1602.0,-277.5,-93.6,-240.3,-282.6,-2664.0,-2593.5,276.3,-234.0,-116.1,-9830.1,-9827.4,-9022.5,-8497.2,-6.9,-6.3,-426.9,-2544.0,-0.9,-147.9,-34.5,-692.1,0,1776,2717908992,41,0, 
0.9900,-275.1,-277.2,328.2,-278.1,-161.1,-250.5,-310.8,-2670.3,-3112.2,274.2,-236.1,-120.3,-9830.1,-9827.4,-9830.1,-8859.6,-6.9,-6.3,-428.4,-2543.4,-0.9,-153.0,-50.7,-713.4,0,1782,2717908992,42,0, 
0.9933,-276.6,-281.1,-1835.1,-279.6,-225.9,-247.2,-328.8,-2667.0,-3112.2,276.6,-238.8,-123.6,-9830.1,-9827.4,-9807.6,-9822.0,-7.2,-6.0,-428.7,-2549.4,-0.3,-152.4,-47.7,-720.6,0,1788,2717908992,43,0, 
0.9967,-275.7,-279.9,-2052.0,-273.0,-203.7,-242.7,-318.0,-2670.3,-2297.1,277.2,-234.9,-117.0,-9830.1,-9827.4,-9830.1,-9830.1,-7.5,-6.0,-422.4,-2548.2,-1.2,-150.6,-39.9,-722.4,0,1794,2717908992,44,0, 
1.0000,-272.7,-275.7,59.4,-276.0,-127.2,-248.7,-299.7,-2673.6,-2074.8,276.3,-238.8,-120.9,-9830.1,-9827.4,-9696.0,-9690.6,-7.2,-6.0,-432.6,-2556.6,-0.9,-154.5,-38.4,-714.3,0,1800,2717908992,45,0, 
1.0033,-273.6,-281.4,1507.2,-276.9,-98.7,-247.8,-287.1,-2672.1,-2371.2,267.9,-238.5,-120.6,-9830.1,-9827.4,-9221.4,-8494.8,-6.6,-5.4,-426.3,-2552.7,-1.2,-158.1,-29.7,-703.8,0,1806,2717908992,46,0, 
1.0067,-269.1,-275.1,306.9,-276.3,-146.1,-240.6,-302.4,-2664.9,-3260.4,279.0,-234.9,-117.9,-9830.1,-9827.4,-9830.1,-8873.1,-7.2,-6.0,-423.6,-2552.4,-0.9,-144.0,-32.7,-696.0,0,1812,2717908992,47,0, 
1.0100,-272.4,-283.8,-1923.9,-280.8,-219.9,-244.2,-319.2,-2665.5,-3038.1,279.0,-238.2,-120.6,-9830.1,-9827.4,-9807.9,-9818.7,-6.9,-5.7,-429.9,-2546.1,-0.9,-137.7,-30.9,-708.3,0,1818,2717908992,48,0, 
1.0133,-272.4,-280.5,-2225.1,-282.9,-195.0,-246.9,-325.8,-2673.0,-2593.5,276.3,-239.1,-123.0,-9830.1,-9827.4,-9830.1,-9830.1,-6.9,-6.0,-429.9,-2545.5,-0.9,-147.3,-35.4,-709.5,0,1824,2717908992,49,0, 
1.0167,-280.5,-282.3,-128.4,-288.9,-130.2,-250.8,-303.0,-2673.9,-2148.9,277.5,-240.3,-125.1,-9830.1,-9827.4,-9810.3,-9728.4,-6.9,-5.7,-429.9,-2553.0,-0.6,-146.1,-25.8,-701.4,0,1830,2717908992,50,0, 
1.0200,-275.4,-281.4,1333.5,-284.1,-111.6,-237.9,-287.1,-2667.9,-2371.2,283.2,-238.5,-119.7,-9830.1,-9827.4,-9633.3,-8643.0,-6.9,-6.0,-426.6,-2548.2,-0.9,-143.7,-25.5,-684.6,0,1836,2717908992,51,0, 
1.0233,-279.3,-282.3,201.0,-285.0,-176.1,-256.8,-322.8,-2672.1,-2964.0,277.5,-242.1,-122.4,-9830.1,-9827.4,-9830.1,-9009.3,-6.3,-6.3,-429.3,-2547.6,-0.6,-150.0,-36.3,-703.2,0,1842,2717908992,52,0, 
1.0267,-283.8,-285.9,-2066.7,-288.3,-226.2,-254.7,-336.6,-2677.5,-3038.1,276.9,-246.3,-122.4,-9830.1,-9827.4,-9816.9,-9830.1,-7.2,-6.0,-437.4,-2554.2,-0.9,-152.1,-52.2,-723.3,0,1848,2717908992,53,0, 
1.0300,-281.7,-284.4,-2207.1,-291.0,-206.1,-253.8,-336.6,-2677.2,-2445.3,271.5,-243.3,-121.5,-9830.1,-9827.4,-9830.1,-9830.1,-6.9,-6.3,-431.1,-2553.0,-0.6,-149.7,-47.4,-722.7,0,1854,2717908992,54,0, 
1.0333,-280.2,-277.8,-192.9,-284.7,-123.6,-249.0,-313.2,-2679.6,-2000.7,276.6,-240.9,-118.5,-9830.1,-9827.4,-9828.6,-9785.7,-6.9,-6.0,-433.8,-2554.5,-0.6,-150.9,-43.8,-709.5,0,1860,2717908992,55,0, 
1.0367,-279.9,-281.7,1280.7,-286.8,-105.3,-246.6,-305.4,-2679.9,-2297.1,270.0,-243.3,-124.8,-9830.1,-9827.4,-9830.1,-8711.7,-7.2,-6.0,-432.0,-2556.6,-0.6,-156.0,-43.5,-696.3,0,1866,2717908992,56,0, 
1.0400,-278.1,-278.1,111.3,-282.6,-155.1,-249.0,-321.3,-2677.8,-3112.2,268.8,-239.7,-120.3,-9830.1,-9827.4,-9830.1,-9049.8,-6.6,-6.0,-428.7,-2554.8,-0.9,-154.2,-52.5,-703.8,0,1872,2717908992,57,0, 
1.0433,-282.6,-280.5,-2119.5,-285.3,-218.7,-246.0,-339.6,-2676.9,-3038.1,273.3,-246.0,-124.2,-9830.1,-9827.4,-9830.1,-9830.1,-6.9,-6.3,-438.6,-2557.5,-0.9,-147.9,-59.7,-721.8,0,1878,2717908992,58,0, 
1.0467,-279.0,-275.1,-2342.7,-285.0,-205.8,-251.4,-337.2,-2673.0,-2519.4,267.9,-244.5,-129.6,-9830.1,-9827.4,-9830.1,-9830.1,-6.6,-6.0,-435.0,-2563.2,-0.6,-155.1,-60.9,-723.6,0,1884,0,59,0, 
1.0500,-277.5,-275.1,-171.0,-276.9,-108.6,-250.2,-306.0,-2671.5,-1926.6,281.4,-235.2,-114.0,-9830.1,-9827.4,-9830.1,-9809.4,-6.9,-5.7,-424.5,-2548.2,-1.2,-146.4,-52.5,-712.2,0,1890,2717908992,60,0, 
1.0533,-273.9,-268.2,1262.4,-275.7,-98.1,-248.4,-303.3,-2669.4,-2371.2,280.2,-233.7,-116.1,-9830.1,-9827.4,-9830.1,-8825.1,-6.9,-5.7,-421.2,-2555.1,-0.6,-151.5,-49.5,-714.0,0,1896,2717908992,61,0, 
1.0567,-277.5,-271.8,33.3,-280.2,-173.1,-252.0,-326.7,-2673.0,-3186.3,275.1,-236.4,-119.7,-9830.1,-9827.4,-9830.1,-9139.5,-7.2,-5.7,-429.3,-2554.8,-0.3,-148.2,-46.2,-721.2,0,1902,2717908992,62,0, 
1.0600,-281.1,-277.2,-2260.2,-287.4,-227.4,-253.8,-351.9,-2675.1,-3112.2,282.9,-243.3,-127.5,-9830.1,-9827.4,-9830.1,-9830.1,-7.2,-6.0,-432.3,-2561.4,-0.9,-153.9,-52.2,-730.8,0,1908,2717908992,63,0, 
1.0633,-282.6,-274.5,-2460.0,-282.0,-195.3,-252.0,-340.5,-2676.9,-2593.5,273.6,-239.1,-122.4,-9830.1,-9827.4,-9830.1,-9816.9,-6.9,-5.7,-428.7,-2559.6,-0.9,-152.1,-47.4,-728.7,0,1914,2717908992,64,0, 
1.0667,-278.7,-280.8,-304.2,-291.3,-136.8,-259.8,-315.0,-2686.8,-2074.8,274.2,-243.3,-125.1,-9830.1,-9827.4,-9830.1,-9830.1,-6.9,-6.0,-435.0,-2555.4,-0.6,-153.3,-40.5,-713.7,0,1920,2717908992,65,0, 
1.0700,-286.5,-286.8,1134.6,-295.8,-151.2,-257.4,-305.7,-2685.9,-2371.2,273.0,-251.1,-131.1,-9830.1,-9827.4,-9830.1,-8955.6,-6.9,-6.3,-439.5,-2569.5,-0.9,-151.5,-37.8,-695.1,0,1926,2717908992,66,0, 
1.0733,-286.8,-288.6,-119.1,-298.5,-202.5,-267.6,-331.2,-2687.7,-3038.1,269.1,-250.5,-134.7,-9830.1,-9827.4,-9830.1,-9268.2,-6.3,-6.0,-438.0,-2564.1,-0.9,-160.5,-50.7,-711.0,0,1932,2717908992,67,0, 
1.0767,-294.3,-290.1,-2301.3,-289.2,-258.3,-258.0,-338.4,-2680.2,-3112.2,278.7,-241.8,-126.3,-9830.1,-9827.4,-9830.1,-9830.1,-6.9,-5.7,-428.4,-2561.4,-0.3,-150.9,-48.0,-714.9,0,1938,2717908992,68,0, 
1.0800,-294.6,-280.5,-2525.1,-287.1,-211.8,-256.5,-341.7,-2684.4,-2445.3,274.8,-241.5,-125.1,-9830.1,-9827.4,-9830.1,-9814.5,-6.6,-6.3,-432.0,-2566.8,-1.2,-155.4,-46.8,-711.6,0,1944,2717908992,69,0, 
1.0833,-294.0,-291.3,-445.2,-291.0,-145.5,-262.8,-327.0,-2686.2,-2000.7,273.9,-246.9,-124.8,-9830.1,-9827.4,-9830.1,-9830.1,-6.9,-5.4,-438.6,-2562.3,-0.9,-154.2,-42.0,-711.9,0,1950,2717908992,70,0, 
1.0867,-291.9,-284.1,978.9,-285.3,-131.7,-252.6,-312.9,-2682.9,-2371.2,273.3,-242.1,-126.3,-9830.1,-9827.4,-9830.1,-9105.0,-7.2,-6.0,-434.1,-2567.1,-0.6,-156.3,-41.4,-710.1,0,1956,2717908992,71,0, 
1.0900,-288.0,-280.5,-118.8,-286.8,-184.5,-257.1,-321.3,-2682.6,-3112.2,278.7,-237.3,-121.5,-9830.1,-9827.4,-9830.1,-9237.6,-6.6,-6.6,-430.2,-2560.2,-1.2,-139.5,-39.3,-695.7,0,1962,2717908992,72,0, 
1.0933,-288.9,-281.7,-1933.2,-292.8,-226.5,-261.6,-343.5,-2685.9,-3260.4,276.6,-237.0,-124.2,-9830.1,-9827.4,-9830.1,-9830.1,-7.2,-6.0,-429.6,-2559.6,-0.9,-148.5,-51.3,-707.7,0,1968,2717908992,73,0, 
1.0967,-293.7,-289.5,-2292.9,-295.5,-227.1,-260.7,-351.6,-2683.2,-2593.5,268.2,-248.1,-129.3,-9830.1,-9827.4,-9830.1,-9820.8,-7.2,-6.0,-440.1,-2561.1,-0.9,-154.5,-57.0,-711.6,0,1974,2717908992,74,0, 
1.1000,-295.5,-297.0,-335.7,-303.0,-172.8,-267.0,-327.3,-2686.5,-2074.8,260.4,-262.5,-140.7,-9830.1,-9827.4,-9830.1,-9830.1,-6.9,-5.7,-451.8,-2564.1,-0.6,-165.0,-52.8,-705.0,0,1980,2717908992,75,0, 
1.1033,-288.0,-293.7,1049.7,-296.1,-127.8,-262.5,-327.3,-2679.6,-2371.2,266.1,-253.5,-133.5,-9830.1,-9827.4,-9830.1,-9141.3,-6.9,-6.3,-446.1,-2550.6,-0.6,-161.1,-39.9,-690.3,0,1986,2717908992,76,0, 
1.1067,-282.6,-291.9,-231.3,-291.0,-183.0,-260.1,-338.7,-2680.5,-3112.2,278.1,-249.3,-128.7,-9830.1,-9827.4,-9830.1,-9413.1,-7.2,-6.0,-440.4,-2542.5,-0.9,-159.0,-41.1,-700.8,0,1992,2717908992,77,0, 
1.1100,-285.9,-288.6,-2414.7,-290.7,-241.5,-260.1,-364.2,-2684.1,-3334.5,263.4,-246.9,-129.3,-9830.1,-9827.4,-9830.1,-9830.1,-7.2,-6.0,-438.3,-2551.2,-0.6,-156.3,-56.7,-717.3,0,1998,2717908992,78,0, 
1.1133,-287.1,-283.8,-2621.7,-291.6,-217.8,-260.4,-353.4,-2685.0,-2445.3,262.5,-246.0,-130.5,-9830.1,-9827.4,-9830.1,-9809.1,-6.9,-5.7,-436.5,-2542.5,-0.9,-157.5,-54.6,-726.9,0,2004,2717908992,79,0, 
1.1167,-284.1,-278.1,-471.0,-292.8,-157.2,-259.8,-334.5,-2685.0,-2074.8,280.5,-243.0,-126.3,-9830.1,-9827.4,-9830.1,-9830.1,-7.2,-6.3,-430.8,-2543.4,-0.9,-153.0,-51.6,-715.2,0,2010,2717908992,80,0, 
1.1200,-280.2,-279.0,936.6,-289.5,-129.0,-262.8,-328.8,-2688.6,-2297.1,283.8,-244.2,-121.8,-9830.1,-9827.4,-9830.1,-9291.0,-7.5,-6.3,-435.6,-2538.0,-0.6,-147.9,-51.3,-703.2,0,2016,2717908992,81,0, 
1.1233,-283.5,-281.4,-255.9,-288.6,-189.6,-247.2,-350.1,-2689.8,-3038.1,282.3,-245.4,-127.8,-9830.1,-9827.4,-9830.1,-9438.9,-6.9,-5.7,-432.9,-2542.8,-0.9,-150.6,-53.7,-703.8,0,2022,2717908992,82,0, 
1.1267,-281.7,-274.5,-2573.7,-281.4,-241.8,-252.6,-355.8,-2688.6,-3186.3,282.3,-236.7,-117.6,-9830.1,-9827.4,-9830.1,-9830.1,-6.9,-5.7,-429.3,-2535.6,-0.9,-138.6,-54.9,-710.7,0,2028,2717908992,83,0, 
1.1300,-281.1,-268.5,-2832.0,-285.6,-219.9,-257.7,-350.7,-2689.5,-2297.1,289.2,-232.8,-114.6,-9830.1,-9827.4,-9830.1,-9804.3,-6.9,-5.7,-424.2,-2537.4,-0.6,-137.7,-57.0,-703.2,0,2034,2717908992,84,0, 
1.1333,-285.3,-270.9,-692.7,-287.7,-133.2,-251.7,-324.0,-2689.5,-2074.8,280.5,-237.9,-120.0,-9830.1,-9827.4,-9830.1,-9830.1,-7.2,-6.0,-429.9,-2541.3,-0.6,-144.9,-49.2,-687.3,0,2040,2717908992,85,0, 
1.1367,-287.1,-280.8,794.7,-290.7,-105.3,-252.6,-307.8,-2695.2,-2371.2,280.2,-242.1,-121.8,-9830.1,-9827.4,-9830.1,-9441.3,-6.6,-6.0,-436.5,-2544.0,-0.9,-145.8,-44.1,-682.2,0,2046,2717908992,86,0, 
1.1400,-285.6,-279.9,-420.9,-286.2,-168.6,-250.8,-325.2,-2699.1,-3038.1,278.4,-237.6,-115.5,-9830.1,-9827.4,-9830.1,-9576.3,-6.6,-6.3,-432.6,-2538.6,-1.2,-147.3,-45.6,-682.5,0,2052,2717908992,87,0, 
1.1433,-282.3,-282.0,-2726.1,-288.0,-250.2,-253.5,-348.6,-2694.6,-3260.4,282.9,-236.1,-118.2,-9830.1,-9827.4,-9830.1,-9830.1,-6.9,-6.0,-432.9,-2544.0,-0.9,-141.6,-45.9,-687.9,0,2058,2717908992,88,0, 
1.1467,-283.2,-278.1,-2940.9,-284.4,-197.4,-253.2,-347.4,-2694.6,-2445.3,277.8,-239.1,-121.5,-9830.1,-9827.4,-9830.1,-9824.1,-6.6,-5.7,-433.5,-2546.1,-0.9,-151.8,-47.1,-690.3,0,2064,2717908992,89,0, 
1.1500,-282.9,-283.5,-830.7,-285.9,-125.1,-260.1,-321.6,-2692.8,-1852.5,277.5,-239.7,-119.4,-9830.1,-9827.4,-9830.1,-9830.1,-6.9,-6.0,-433.2,-2537.7,-1.2,-147.9,-38.4,-677.4,0,2070,2717908992,90,0, 
1.1533,-286.8,-280.2,675.0,-290.1,-132.3,-254.1,-312.9,-2695.8,-2445.3,276.9,-240.6,-122.1,-9830.1,-9827.4,-9830.1,-9662.4,-7.2,-5.7,-432.6,-2553.0,-0.9,-154.5,-32.7,-670.2,0,2076,2717908992,91,0, 
1.1567,-283.2,-286.5,-596.4,-283.8,-192.3,-252.3,-328.8,-2687.1,-3112.2,281.4,-237.0,-116.7,-9830.1,-9827.4,-9830.1,-9660.6,-6.9,-6.0,-431.1,-2530.2,-0.9,-145.8,-33.0,-667.2,0,2082,2717908992,92,0, 
1.1600,-285.0,-276.6,-2919.3,-286.2,-250.2,-254.1,-361.5,-2691.6,-2964.0,259.5,-243.9,-128.1,-9830.1,-9827.4,-9830.1,-9830.1,-7.2,-6.0,-437.7,-2549.4,-0.9,-161.4,-40.8,-678.0,0,2088,2717908992,93,0, 
1.1633,-287.1,-279.9,-3074.4,-289.5,-222.9,-258.3,-346.8,-2690.1,-2519.4,264.3,-244.2,-125.7,-9830.1,-9827.4,-9830.1,-9830.1,-6.9,-5.7,-435.0,-2547.3,0.0,-163.2,-45.9,-673.5,0,2094,2717908992,94,0, 
1.1667,-288.9,-282.0,-916.5,-295.2,-148.5,-260.7,-335.1,-2694.3,-2148.9,268.8,-244.5,-127.8,-9830.1,-9827.4,-9830.1,-9830.1,-6.9,-5.7,-437.7,-2553.9,-0.6,-162.9,-37.2,-656.7,0,2100,2717908992,95,0, 
1.1700,-284.4,-279.3,538.2,-289.2,-135.0,-254.4,-316.8,-2688.0,-2223.0,272.4,-240.9,-122.4,-9830.1,-9827.4,-9830.1,-9794.4,-6.9,-5.7,-435.9,-2548.2,-1.2,-146.1,-21.3,-632.7,0,2106,2717908992,96,0, 
1.1733,-283.5,-280.8,-667.8,-291.6,-202.5,-258.3,-344.1,-2692.8,-3112.2,269.7,-238.2,-125.4,-9830.1,-9827.4,-9830.1,-9775.2,-7.2,-6.0,-432.0,-2548.5,-0.9,-156.3,-29.1,-634.2,0,2112,2717908992,97,0, 
1.1767,-287.1,-278.7,-2981.7,-289.8,-267.6,-258.0,-362.1,-2689.5,-3186.3,273.6,-238.8,-121.8,-9830.1,-9827.4,-9830.1,-9830.1,-6.6,-6.0,-432.3,-2548.2,-0.6,-160.2,-40.8,-635.7,0,2118,2717908992,98,0, 
1.1800,-285.3,-273.0,-3187.5,-291.9,-236.4,-263.4,-365.7,-2688.9,-2593.5,271.8,-243.0,-130.2,-9830.1,-9827.4,-9830.1,-9830.1,-6.9,-6.0,-427.5,-2554.8,-0.9,-159.0,-46.5,-641.7,0,2124,2717908992,99,0, 
1.1833,-282.0,-280.2,-1113.9,-290.7,-178.2,-257.7,-345.3,-2689.5,-2000.7,276.6,-243.6,-124.8,-9830.1,-9827.4,-9830.1,-9830.1,-6.9,-5.7,-435.6,-2545.2,-0.9,-157.8,-39.6,-621.3,0,2130,2717908992,100,0, 
1.1867,-281.4,-273.0,449.7,-286.2,-135.9,-254.1,-338.4,-2686.5,-2593.5,282.9,-239.4,-120.6,-9830.1,-9827.4,-9830.1,-9830.1,-6.9,-6.3,-427.5,-2531.7,-1.2,-150.6,-31.5,-614.7,0,2136,2717908992,101,0, 
1.1900,-286.5,-278.4,-800.7,-282.0,-204.3,-247.5,-348.3,-2684.4,-3038.1,287.4,-230.1,-116.7,-9830.1,-9827.4,-9830.1,-9830.1,-6.6,-6.0,-422.1,-2535.9,-0.6,-142.5,-31.5,-613.8,0,2142,2717908992,102,0, 
1.1933,-285.0,-278.1,-3166.2,-288.3,-258.0,-252.3,-377.4,-2689.2,-3112.2,283.2,-235.2,-120.9,-9830.1,-9827.4,-9830.1,-9830.1,-7.2,-6.3,-424.5,-2545.8,-0.6,-150.6,-42.6,-630.6,0,2148,2717908992,103,0, 
1.1967,-282.9,-274.8,-3380.7,-283.5,-239.1,-249.3,-370.2,-2689.5,-2519.4,288.0,-235.5,-120.9,-9830.1,-9827.4,-9830.1,-9830.1,-6.9,-5.7,-426.9,-2540.4,-1.2,-138.9,-35.4,-630.3,0,2154,2717908992,104,0, 
1.2000,-283.8,-279.0,-1346.7,-286.5,-161.7,-244.2,-338.7,-2690.1,-2074.8,285.3,-233.4,-117.0,-9830.1,-9827.4,-9830.1,-9830.1,-6.6,-6.0,-420.9,-2545.2,-0.9,-138.6,-26.1,-620.7,0,2160,2717908992,105,0, 
1.2033,-284.1,-272.4,156.9,-281.7,-122.4,-244.5,-325.8,-2684.4,-2445.3,287.7,-228.9,-110.7,-9830.1,-9827.4,-9830.1,-9830.1,-6.6,-6.0,-421.2,-2533.5,-0.9,-150.0,-14.4,-603.3,0,2166,2717908992,106,0, 
1.2067,-284.1,-278.7,-1031.4,-285.0,-199.2,-251.4,-339.0,-2687.7,-3186.3,278.4,-234.6,-122.7,-9830.1,-9827.4,-9830.1,-9830.1,-6.9,-5.7,-425.1,-2544.6,-0.6,-140.7,-21.6,-622.2,0,2172,2717908992,107,0, 
1.2100,-289.8,-286.8,-3335.1,-290.7,-263.4,-245.4,-360.0,-2686.8,-3186.3,274.5,-242.4,-128.1,-9830.1,-9827.4,-9830.1,-9830.1,-7.2,-6.3,-434.7,-2557.8,-0.9,-155.7,-26.7,-631.8,0,2178,2717908992,108,0, 
1.2133,-282.0,-274.8,-3624.6,-285.6,-228.9,-250.8,-356.4,-2684.7,-2445.3,281.7,-235.5,-117.0,-9830.1,-9827.4,-9830.1,-9830.1,-6.6,-6.0,-424.8,-2541.0,-0.3,-140.1,-33.3,-630.0,0,2184,2717908992,109,0, 
1.2167,-280.8,-270.9,-1448.1,-284.1,-159.0,-249.3,-340.5,-2681.7,-2000.7,279.6,-229.5,-115.5,-9830.1,-9827.4,-9830.1,-9830.1,-7.2,-6.3,-420.9,-2535.9,-0.9,-150.0,-22.2,-624.0,0,2190,2717908992,110,0, 
1.2200,-276.0,-279.0,49.8,-282.6,-150.0,-242.4,-324.6,-2684.4,-2445.3,277.2,-233.4,-116.4,-9830.1,-9827.4,-9830.1,-9830.1,-6.9,-6.3,-424.2,-2537.4,-0.6,-147.3,-15.9,-608.7,0,2196,2717908992,111,0, 
1.2233,-278.7,-284.4,-1144.5,-288.9,-201.6,-247.8,-351.0,-2688.9,-2964.0,275.7,-237.6,-119.7,-9830.1,-9827.4,-9830.1,-9830.1,-7.2,-5.7,-430.8,-2534.4,-0.6,-151.8,-21.0,-624.0,0,2202,2717908992,112,0, 
1.2267,-274.5,-270.3,-3471.3,-285.6,-254.4,-241.2,-374.7,-2680.5,-3186.3,275.4,-231.0,-116.1,-9830.1,-9827.4,-9830.1,-9830.1,-6.9,-6.0,-420.9,-2534.4,-0.6,-150.6,-26.7,-632.1,0,2208,2717908992,113,0, 
1.2300,-279.0,-276.3,-3705.3,-286.5,-237.6,-242.7,-364.5,-2686.5,-2445.3,274.8,-234.6,-119.4,-9830.1,-9827.4,-9830.1,-9830.1,-6.9,-6.0,-423.6,-2538.0,-0.6,-151.8,-30.0,-643.2,0,2214,2717908992,114,0, 
1.2333,-278.1,-276.0,-1582.2,-288.0,-164.1,-244.5,-332.1,-2680.2,-2074.8,269.7,-230.1,-116.1,-9830.1,-9827.4,-9830.1,-9830.1,-6.6,-6.0,-421.2,-2533.8,-0.6,-150.0,-21.9,-622.5,0,2220,2717908992,115,0, 
1.2367,-284.4,-278.7,-70.8,-282.6,-137.1,-239.1,-326.1,-2676.3,-2371.2,271.2,-228.9,-111.3,-9830.1,-9827.4,-9830.1,-9830.1,-6.9,-6.6,-422.1,-2523.0,-0.9,-148.8,-20.4,-609.9,0,2226,2717908992,116,0, 
1.2400,-281.7,-279.6,-1246.5,-279.0,-193.2,-239.1,-348.0,-2672.7,-3260.4,269.7,-229.5,-112.8,-9830.1,-9827.4,-9830.1,-9830.1,-7.5,-6.0,-423.3,-2531.1,-0.9,-156.9,-27.6,-619.8,0,2232,2717908992,117,0, 
1.2433,-289.8,-287.1,-3473.4,-286.2,-282.6,-247.8,-376.5,-2680.8,-3186.3,269.1,-232.5,-120.0,-9830.1,-9827.4,-9830.1,-9830.1,-6.9,-6.0,-420.3,-2531.1,-0.6,-151.5,-36.3,-642.6,0,2238,2717908992,118,0, 
1.2467,-288.6,-283.8,-3698.7,-286.5,-239.7,-244.5,-364.2,-2680.5,-2519.4,261.9,-244.5,-126.9,-9830.1,-9827.4,-9830.1,-9830.1,-6.9,-6.0,-436.8,-2540.4,-0.9,-156.9,-37.5,-641.1,0,2244,2717908992,119,0, 
1.2500,-285.9,-273.9,-1614.3,-282.9,-160.8,-246.9,-354.0,-2682.6,-1852.5,263.7,-236.1,-124.2,-9830.1,-9827.4,-9830.1,-9830.1,-6.9,-6.3,-422.4,-2540.4,-0.6,-157.5,-27.6,-629.4,0,2250,2717908992,120,0, 
1.2533,-290.7,-287.7,-147.3,-282.9,-118.5,-245.1,-347.7,-2684.4,-2297.1,261.0,-237.6,-120.0,-9830.1,-9827.4,-9830.1,-9830.1,-6.9,-5.7,-429.9,-2536.5,-0.9,-159.6,-24.9,-615.3,0,2256,2717908992,121,0, 
1.2567,-283.5,-273.0,-1327.8,-276.9,-200.7,-243.0,-360.3,-2676.3,-3038.1,266.1,-233.1,-117.9,-9830.1,-9827.4,-9830.1,-9830.1,-6.9,-5.7,-419.7,-2542.2,-0.9,-158.7,-26.4,-614.7,0,2262,2717908992,122,0, 
1.2600,-284.7,-282.6,-3657.9,-284.7,-265.5,-251.7,-384.6,-2679.3,-3186.3,266.4,-240.6,-122.4,-9830.1,-9827.4,-9830.1,-9830.1,-7.2,-6.0,-435.3,-2542.8,-0.9,-164.7,-39.3,-632.1,0,2268,2717908992,123,0, 
1.2633,-285.0,-272.7,-3849.3,-280.5,-238.8,-249.6,-365.1,-2675.4,-2297.1,262.8,-236.1,-120.3,-9830.1,-9827.4,-9830.1,-9830.1,-6.6,-6.0,-422.4,-2538.0,-0.9,-161.4,-33.3,-628.5,0,2274,2717908992,124,0, 
1.2667,-290.1,-283.5,-1993.5,-292.5,-185.4,-261.6,-363.9,-2686.8,-2074.8,258.9,-240.3,-126.0,-9830.1,-9827.4,-9830.1,-9830.1,-6.9,-5.7,-432.0,-2536.5,-0.9,-162.6,-27.6,-627.6,0,2280,2717908992,125,0, 
1.2700,-285.3,-278.4,-569.1,-285.3,-161.1,-258.9,-348.6,-2678.1,-2519.4,270.6,-233.7,-120.6,-9830.1,-9827.4,-9830.1,-9830.1,-6.9,-6.0,-422.1,-2542.2,-0.6,-160.8,-22.8,-618.9,0,2286,2717908992,126,0, 
1.2733,-286.2,-280.2,-1647.9,-289.5,-221.1,-255.9,-365.4,-2682.0,-3112.2,268.2,-240.3,-125.7,-9830.1,-9827.4,-9830.1,-9830.1,-6.9,-6.0,-427.2,-2538.3,-0.9,-155.4,-25.2,-632.1,0,2292,2717908992,127,0, 
1.2767,-286.2,-274.8,-3873.0,-288.6,-285.9,-256.2,-371.1,-2682.9,-3186.3,277.5,-234.0,-118.5,-9830.1,-9827.4,-9830.1,-9830.1,-7.2,-6.0,-424.8,-2533.5,-0.9,-158.7,-29.4,-638.4,0,2298,2717908992,128,0, 
1.2800,-291.0,-282.3,-4112.7,-296.4,-257.4,-254.7,-368.4,-2693.1,-2593.5,268.8,-246.3,-129.0,-9830.1,-9827.4,-9830.1,-9830.1,-7.2,-6.0,-436.5,-2544.9,-0.9,-167.7,-24.0,-641.4,0,2304,2717908992,129,0, 
1.2833,-287.4,-280.5,-2023.5,-292.8,-169.5,-257.7,-348.3,-2686.8,-2000.7,280.5,-235.5,-124.5,-9830.1,-9827.4,-9830.1,-9830.1,-6.9,-6.0,-421.5,-2547.0,-0.6,-156.3,-17.1,-630.0,0,2310,2717908992,130,0, 
1.2867,-279.0,-276.0,-429.9,-291.0,-153.0,-247.5,-332.1,-2680.2,-2445.3,275.1,-234.6,-120.6,-9830.1,-9827.4,-9830.1,-9830.1,-6.9,-6.3,-423.0,-2532.3,-0.6,-158.1,-0.3,-616.2,0,2316,2717908992,131,0, 
1.2900,-278.7,-274.2,-1602.3,-284.1,-219.3,-239.7,-351.0,-2671.5,-3038.1,277.5,-233.1,-113.4,-9830.1,-9827.4,-9830.1,-9830.1,-6.9,-6.0,-421.8,-2524.2,-0.9,-145.2,1.2,-610.8,0,2322,2717908992,132,0, 
1.2933,-283.8,-283.5,-3954.6,-293.7,-287.1,-245.7,-374.7,-2676.0,-3186.3,271.5,-240.9,-121.8,-9830.1,-9827.4,-9830.1,-9830.1,-6.6,-6.0,-427.5,-2540.1,-0.9,-153.0,-11.1,-628.2,0,2328,2717908992,133,0, 
1.2967,-283.8,-273.0,-4145.7,-286.2,-249.3,-240.0,-373.8,-2673.9,-2593.5,276.3,-230.4,-112.2,-9830.1,-9827.4,-9830.1,-9830.1,-6.9,-6.0,-421.2,-2524.2,-0.6,-138.9,-8.7,-627.0,0,2334,2717908992,134,0, 
1.3000,-285.9,-280.2,-2063.7,-288.0,-173.1,-242.7,-342.6,-2678.7,-2074.8,273.3,-229.8,-110.1,-9830.1,-9827.4,-9830.1,-9830.1,-6.9,-6.0,-418.8,-2523.3,-0.9,-146.1,-0.3,-617.1,0,2340,2717908992,135,0, 
1.3033,-285.0,-276.6,-624.6,-279.0,-148.8,-234.0,-330.3,-2670.0,-2371.2,276.9,-225.3,-101.7,-9830.1,-9827.4,-9830.1,-9830.1,-7.5,-6.0,-414.0,-2514.9,-0.6,-135.3,-3.9,-611.1,0,2346,2717908992,136,0, 
1.3067,-290.1,-281.4,-1749.0,-285.9,-211.2,-244.5,-350.7,-2666.7,-3038.1,276.3,-228.6,-109.8,-9830.1,-9827.4,-9830.1,-9830.1,-6.3,-6.3,-419.4,-2525.7,-0.9,-140.7,-8.4,-624.3,0,2352,2717908992,137,0, 
1.3100,-289.8,-279.3,-3965.1,-278.4,-262.5,-240.6,-377.1,-2658.0,-3186.3,282.0,-222.3,-103.8,-9830.1,-9827.4,-9830.1,-9830.1,-6.9,-5.7,-410.1,-2518.8,-1.2,-138.0,-12.3,-639.6,0,2358,2717908992,138,0, 
1.3133,-288.0,-274.2,-4234.5,-276.3,-231.9,-237.0,-363.9,-2658.6,-2445.3,287.4,-217.5,-97.8,-9830.1,-9827.4,-9830.1,-9830.1,-6.9,-6.0,-407.1,-2521.5,-0.9,-134.7,-12.6,-636.9,0,2364,2717908992,139,0, 
1.3167,-289.5,-271.2,-2200.2,-277.2,-164.4,-247.5,-347.7,-2658.0,-1852.5,286.5,-222.0,-105.3,-9830.1,-9827.4,-9830.1,-9830.1,-7.2,-6.6,-409.2,-2523.0,-1.2,-141.9,-9.6,-635.7,0,2370,2717908992,140,0, 
1.3200,-297.0,-291.0,-634.5,-281.1,-140.7,-237.6,-339.0,-2660.1,-2519.4,279.9,-222.3,-110.1,-9830.1,-9827.4,-9830.1,-9830.1,-7.2,-6.3,-410.4,-2520.0,-0.6,-141.0,-3.3,-628.2,0,2376,2717908992,141,0, 
1.3233,-293.1,-280.5,-1775.7,-282.6,-216.9,-246.9,-355.5,-2659.8,-3186.3,276.3,-222.9,-108.9,-9830.1,-9827.4,-9830.1,-9830.1,-7.2,-6.0,-409.8,-2517.0,-0.9,-138.3,-11.7,-631.5,0,2382,2717908992,142,0, 
1.3267,-291.6,-280.5,-4055.7,-282.0,-248.1,-243.9,-379.2,-2664.9,-3112.2,283.5,-222.6,-107.1,-9830.1,-9827.4,-9830.1,-9830.1,-6.9,-5.7,-412.5,-2514.3,-0.6,-144.6,-20.7,-636.6,0,2388,2717908992,143,0, 
1.3300,-292.2,-282.3,-4248.9,-288.9,-238.5,-249.9,-370.5,-2664.9,-2445.3,278.1,-227.7,-110.7,-9830.1,-9827.4,-9830.1,-9830.1,-6.6,-6.0,-413.7,-2524.8,-0.6,-150.3,-33.3,-646.2,0,2394,2717908992,144,0, 
1.3333,-296.4,-285.9,-2230.5,-292.8,-186.0,-252.9,-364.5,-2669.1,-1926.6,267.3,-234.6,-118.2,-9830.1,-9827.4,-9830.1,-9830.1,-6.9,-6.3,-423.6,-2526.9,-0.9,-153.6,-26.1,-629.4,0,2400,2717908992,145,0, 
1.3367,-297.6,-290.7,-665.7,-296.1,-168.3,-255.9,-370.5,-2666.1,-2371.2,259.5,-238.8,-118.2,-9830.1,-9827.4,-9830.1,-9830.1,-7.2,-6.3,-419.7,-2529.9,-0.9,-158.7,-27.9,-631.2,0,2406,2717908992,146,0, 
1.3400,-297.3,-283.2,-1881.9,-291.3,-230.4,-252.6,-373.5,-2664.0,-3186.3,274.2,-229.5,-113.1,-9830.1,-9827.4,-9830.1,-9830.1,-7.2,-6.0,-415.8,-2531.1,-1.2,-146.1,-21.0,-634.2,0,2412,2717908992,147,0, 
1.3433,-292.8,-284.4,-4041.9,-293.1,-273.6,-254.4,-383.7,-2664.9,-3112.2,265.5,-234.0,-117.0,-9830.1,-9827.4,-9830.1,-9830.1,-6.9,-6.0,-418.2,-2532.6,-0.6,-149.4,-25.8,-631.5,0,2418,2717908992,148,0, 
1.3467,-293.7,-280.8,-4211.4,-290.1,-235.2,-252.9,-386.4,-2662.8,-2445.3,268.8,-229.8,-115.5,-9830.1,-9827.4,-9830.1,-9830.1,-6.6,-6.3,-416.7,-2532.3,-0.6,-156.3,-22.5,-644.1,0,2424,2717908992,149,0, 
1.3500,-286.5,-276.9,-2306.7,-288.9,-189.3,-248.1,-364.5,-2657.7,-2000.7,269.7,-230.7,-115.5,-9830.1,-9827.4,-9830.1,-9830.1,-6.9,-6.3,-415.5,-2541.0,-0.9,-154.5,-12.9,-635.1,0,2430,2717908992,150,0, 
1.3533,-288.3,-282.6,-902.1,-294.0,-188.1,-256.2,-351.0,-2668.5,-2371.2,262.8,-239.1,-121.5,-9830.1,-9827.4,-9830.1,-9830.1,-7.5,-6.3,-423.9,-2537.4,-0.6,-159.9,-7.5,-636.9,0,2436,2717908992,151,0, 
1.3567,-291.0,-282.9,-2029.8,-290.7,-233.7,-252.9,-367.5,-2665.2,-3038.1,262.8,-236.7,-118.5,-9830.1,-9827.4,-9830.1,-9830.1,-6.6,-5.7,-424.5,-2534.4,-0.9,-158.1,-12.3,-636.0,0,2442,2717908992,152,0, 
1.3600,-286.2,-281.1,-4114.5,-291.3,-294.0,-256.5,-369.9,-2664.0,-3186.3,272.4,-231.9,-113.1,-9830.1,-9827.4,-9830.1,-9830.1,-6.9,-6.3,-417.9,-2534.4,-0.9,-148.5,-13.8,-653.1,0,2448,2717908992,153,0, 
1.3633,-288.9,-280.5,-4372.8,-295.8,-257.4,-258.0,-386.4,-2668.5,-2519.4,266.4,-240.3,-119.1,-9830.1,-9827.4,-9830.1,-9830.1,-6.6,-6.0,-428.7,-2536.8,-0.3,-159.3,-15.0,-663.9,0,2454,2717908992,154,0, 
1.3667,-288.6,-284.1,-2419.8,-294.6,-185.7,-255.9,-369.9,-2664.3,-2000.7,271.2,-239.4,-118.2,-9830.1,-9827.4,-9830.1,-9830.1,-7.2,-5.7,-424.8,-2535.3,-0.6,-153.6,-5.1,-648.9,0,2460,2717908992,155,0, 
1.3700,-284.7,-278.7,-977.7,-291.0,-179.1,-252.6,-352.8,-2661.0,-2445.3,276.3,-231.6,-112.2,-9830.1,-9827.4,-9830.1,-9830.1,-6.6,-5.7,-418.2,-2526.3,-0.9,-146.1,-0.3,-638.1,0,2466,2717908992,156,0, 
1.3733,-282.0,-278.4,-2094.9,-293.4,-235.5,-254.4,-361.2,-2661.3,-3260.4,285.0,-225.3,-108.0,-9830.1,-9827.4,-9830.1,-9830.1,-7.2,-6.6,-412.8,-2521.8,-1.2,-142.5,-6.0,-645.0,0,2472,2717908992,157,0, 
1.3767,-283.8,-271.8,-4205.7,-289.5,-282.9,-250.5,-376.2,-2659.2,-3186.3,284.4,-228.6,-108.9,-9830.1,-9827.4,-9830.1,-9830.1,-6.6,-5.7,-413.4,-2524.8,-0.9,-140.4,-12.6,-657.0,0,2478,2717908992,158,0, 
1.3800,-285.9,-284.1,-4491.9,-300.0,-260.7,-254.1,-367.8,-2664.3,-2445.3,277.8,-236.7,-120.0,-9830.1,-9827.4,-9830.1,-9830.1,-6.9,-5.1,-426.9,-2523.6,-0.9,-155.1,-10.8,-660.9,0,2484,2717908992,159,0, 
1.3833,-284.7,-272.1,-2421.9,-290.1,-183.0,-253.2,-362.1,-2662.2,-2000.7,277.2,-229.5,-110.7,-9830.1,-9827.4,-9830.1,-9830.1,-6.9,-6.0,-413.1,-2517.3,-0.6,-146.7,-4.5,-648.9,0,2490,2717908992,160,0, 
1.3867,-285.0,-279.6,-1027.5,-297.3,-187.5,-251.7,-353.1,-2664.0,-2371.2,281.4,-230.7,-113.1,-9830.1,-9827.4,-9830.1,-9830.1,-7.2,-5.7,-421.2,-2524.2,-0.6,-135.3,9.6,-646.2,0,2496,2717908992,161,0, 
1.3900,-282.0,-268.8,-2116.2,-282.6,-221.4,-247.5,-349.8,-2653.8,-2964.0,295.8,-220.5,-101.7,-9830.1,-9827.4,-9830.1,-9830.1,-6.9,-6.0,-407.1,-2511.6,-0.9,-126.6,6.3,-646.5,0,2502,2717908992,162,0, 
1.3933,-275.4,-262.5,-4323.6,-279.3,-292.8,-247.2,-366.3,-2649.3,-3186.3,294.0,-220.8,-104.7,-9830.1,-9827.4,-9830.1,-9830.1,-7.2,-6.3,-408.9,-2516.7,-0.9,-131.4,-2.4,-662.1,0,2508,2717908992,163,0, 
1.3967,-280.2,-257.7,-4617.6,-276.3,-251.4,-242.4,-362.7,-2648.4,-2445.3,295.8,-222.9,-103.2,-9830.1,-9827.4,-9830.1,-9830.1,-6.6,-6.0,-408.3,-2514.3,-0.9,-128.7,-4.8,-670.2,0,2514,2717908992,164,0, 
1.4000,-281.7,-265.2,-2518.5,-278.1,-169.2,-243.3,-348.0,-2651.1,-2148.9,291.3,-221.1,-103.2,-9830.1,-9827.4,-9830.1,-9830.1,-7.2,-5.7,-405.3,-2512.5,-0.9,-138.9,3.9,-655.2,0,2520,2717908992,165,0, 
1.4033,-281.1,-267.6,-1177.2,-268.2,-160.5,-234.6,-340.5,-2643.6,-2297.1,292.8,-215.4,-98.7,-9830.1,-9827.4,-9830.1,-9830.1,-7.2,-6.3,-396.6,-2514.9,-0.6,-135.3,10.8,-639.6,0,2526,2717908992,166,0, 
1.4067,-284.1,-268.2,-2195.7,-277.5,-225.0,-251.4,-360.3,-2655.3,-3186.3,283.2,-221.1,-108.0,-9830.1,-9827.4,-9830.1,-9830.1,-7.2,-6.0,-408.9,-2519.1,-1.2,-141.0,2.7,-650.7,0,2532,2717908992,167,0, 
1.4100,-282.3,-272.7,-4421.4,-279.0,-280.5,-240.6,-375.9,-2651.4,-3112.2,283.8,-225.6,-109.5,-9830.1,-9827.4,-9830.1,-9830.1,-6.9,-6.0,-407.4,-2523.9,-0.9,-146.1,-3.6,-659.1,0,2538,2717908992,168,0, 
1.4133,-286.8,-269.4,-4676.4,-278.7,-266.4,-253.8,-377.1,-2653.5,-2445.3,288.0,-220.2,-103.5,-9830.1,-9827.4,-9830.1,-9830.1,-6.9,-5.7,-407.7,-2510.7,-0.9,-138.0,-10.2,-665.1,0,2544,2717908992,169,0, 
1.4167,-288.0,-276.9,-2532.0,-283.2,-170.7,-247.2,-361.8,-2647.8,-2000.7,275.1,-229.5,-109.8,-9830.1,-9827.4,-9830.1,-9830.1,-6.9,-6.0,-413.7,-2522.4,-0.9,-147.9,-7.5,-656.4,0,2550,2717908992,170,0, 
1.4200,-289.8,-280.5,-1202.4,-279.3,-174.0,-248.4,-352.2,-2646.6,-2371.2,282.3,-225.6,-108.9,-9830.1,-9827.4,-9830.1,-9830.1,-7.5,-6.0,-408.3,-2514.9,-0.6,-132.9,1.5,-643.8,0,2556,2717908992,171,0, 
1.4233,-285.0,-277.8,-2307.9,-274.2,-205.5,-243.9,-368.1,-2638.5,-3038.1,277.8,-228.0,-110.1,-9830.1,-9827.4,-9830.1,-9830.1,-6.9,-5.7,-412.5,-2520.3,-0.9,-147.0,-6.0,-651.9,0,2562,2717908992,172,0, 
1.4267,-291.6,-285.6,-4565.7,-277.5,-295.8,-247.5,-390.6,-2641.2,-3186.3,283.5,-227.1,-107.4,-9830.1,-9827.4,-9830.1,-9830.1,-6.6,-6.0,-411.0,-2512.5,-0.9,-147.9,-11.7,-664.5,0,2568,2717908992,173,0, 
1.4300,-293.7,-283.2,-4771.5,-282.6,-267.6,-263.4,-383.4,-2643.9,-2445.3,273.6,-230.7,-108.9,-9830.1,-9827.4,-9830.1,-9830.1,-6.9,-6.0,-417.9,-2514.9,-1.2,-155.1,-18.3,-678.3,0,2574,2717908992,174,0, 
1.4333,-292.2,-288.0,-2649.0,-283.2,-196.5,-262.8,-370.8,-2646.3,-2148.9,274.8,-231.6,-116.4,-9830.1,-9827.4,-9830.1,-9830.1,-6.6,-6.3,-416.1,-2517.9,-0.9,-149.7,-13.2,-665.4,0,2580,2717908992,175,0, 
1.4367,-283.8,-282.3,-1211.7,-272.4,-175.5,-253.8,-357.0,-2634.3,-2297.1,280.5,-223.5,-108.0,-9830.1,-9827.4,-9830.1,-9830.1,-6.9,-5.7,-404.7,-2520.0,-0.9,-153.9,-5.4,-662.7,0,2586,2717908992,176,0, 
1.4400,-282.6,-283.2,-2296.5,-273.0,-231.9,-259.2,-375.3,-2639.7,-3112.2,276.3,-221.7,-111.0,-9830.1,-9827.4,-9830.1,-9830.1,-6.9,-6.6,-407.7,-2523.6,-1.2,-156.3,-6.6,-667.8,0,2592,2717908992,177,0, 
1.4433,-284.4,-282.0,-4549.8,-271.5,-289.5,-257.4,-390.6,-2644.5,-3038.1,276.9,-223.5,-110.1,-9830.1,-9827.4,-9830.1,-9830.1,-6.9,-6.3,-411.3,-2529.6,-0.6,-152.4,-13.5,-675.6,0,2598,2717908992,178,0, 
1.4467,-282.6,-289.8,-4799.7,-279.0,-279.9,-261.9,-389.7,-2650.5,-2519.4,269.4,-235.5,-121.8,-9830.1,-9827.4,-9830.1,-9830.1,-6.6,-5.7,-421.2,-2528.7,-0.9,-159.6,-19.5,-680.1,0,2604,2717908992,179,0, 
1.4500,-280.5,-285.6,-2665.8,-279.3,-186.9,-266.4,-363.6,-2650.5,-1926.6,272.4,-236.4,-121.8,-9830.1,-9827.4,-9830.1,-9830.1,-7.2,-6.0,-420.6,-2534.4,-0.9,-163.5,-17.1,-670.8,0,2610,2717908992,180,0, 
1.4533,-289.8,-284.7,-1133.1,-284.1,-173.4,-264.3,-362.4,-2653.8,-2297.1,260.7,-243.6,-129.6,-9830.1,-9827.4,-9830.1,-9830.1,-7.2,-6.0,-429.0,-2535.9,-0.9,-162.3,-13.2,-664.2,0,2616,2717908992,181,0, 
1.4567,-286.5,-285.0,-2353.2,-277.5,-236.7,-266.1,-381.9,-2653.2,-3038.1,265.5,-234.0,-120.3,-9830.1,-9827.4,-9830.1,-9830.1,-6.9,-6.0,-420.0,-2535.9,-0.9,-168.3,-18.6,-663.9,0,2622,2717908992,182,0, 
1.4600,-291.6,-285.6,-4341.0,-282.9,-269.4,-259.2,-382.2,-2653.2,-3186.3,264.3,-239.7,-127.5,-9830.1,-9827.4,-9830.1,-9830.1,-6.9,-6.0,-429.3,-2532.6,-0.6,-172.5,-21.3,-673.5,0,2628,2717908992,183,0, 
1.4633,-291.6,-282.6,-4425.0,-278.1,-243.0,-256.8,-371.1,-2647.2,-2445.3,277.2,-231.0,-117.0,-9830.1,-9827.4,-9830.1,-9830.1,-6.9,-6.0,-417.9,-2533.2,-0.6,-154.5,-14.7,-671.1,0,2634,2717908992,184,0, 
1.4667,-291.0,-277.8,-2526.3,-273.0,-184.5,-263.7,-365.7,-2647.8,-2000.7,266.4,-230.1,-116.7,-9830.1,-9827.4,-9830.1,-9830.1,-6.6,-6.0,-416.4,-2519.7,-0.9,-163.5,-11.1,-663.0,0,2640,2717908992,185,0, 
1.4700,-291.3,-281.4,-1087.5,-272.1,-157.5,-255.9,-351.6,-2644.8,-2297.1,266.1,-230.1,-120.6,-9830.1,-9827.4,-9830.1,-9830.1,-7.2,-6.3,-414.0,-2528.4,-0.9,-166.5,-8.1,-660.9,0,2646,2717908992,186,0, 
1.4733,-292.8,-286.8,-2305.5,-274.5,-218.1,-260.1,-359.1,-2645.4,-3112.2,275.4,-233.7,-118.2,-9830.1,-9827.4,-9830.1,-9830.1,-6.9,-5.7,-426.0,-2521.5,-0.9,-156.3,-12.0,-657.9,0,2652,2717908992,187,0, 
1.4767,-293.4,-283.2,-4674.0,-275.7,-288.0,-268.8,-390.9,-2650.2,-3186.3,274.5,-231.0,-119.4,-9830.1,-9827.4,-9830.1,-9830.1,-7.2,-6.0,-418.2,-2524.5,-0.6,-166.8,-20.4,-681.3,0,2658,2717908992,188,0, 
1.4800,-296.4,-280.5,-4942.5,-282.9,-264.6,-259.2,-396.9,-2658.6,-2519.4,264.3,-236.7,-119.7,-9830.1,-9827.4,-9830.1,-9830.1,-6.9,-6.0,-426.6,-2530.2,-0.9,-169.2,-24.0,-684.0,0,2664,2717908992,189,0, 
1.4833,-299.4,-289.5,-2812.2,-286.2,-198.3,-265.8,-373.5,-2667.3,-2074.8,260.1,-244.5,-126.6,-9830.1,-9827.4,-9830.1,-9830.1,-7.2,-6.3,-429.6,-2534.4,-1.2,-174.6,-20.1,-669.0,0,2670,2717908992,190,0, 
1.4867,-295.2,-285.0,-1226.1,-279.0,-171.9,-258.9,-361.2,-2657.1,-2519.4,261.3,-240.6,-123.0,-9830.1,-9827.4,-9830.1,-9830.1,-6.9,-6.3,-426.9,-2530.5,-0.6,-167.4,-9.9,-648.9,0,2676,2717908992,191,0, 
1.4900,-296.1,-286.5,-2387.7,-278.4,-249.9,-258.3,-360.3,-2661.6,-2964.0,264.0,-239.1,-121.5,-9830.1,-9827.4,-9830.1,-9830.1,-6.9,-6.0,-425.7,-2529.9,-1.2,-167.4,-16.5,-644.7,0,2682,2717908992,192,0, 
1.4933,-294.9,-282.9,-4632.0,-275.7,-287.4,-260.4,-394.8,-2662.2,-3186.3,267.3,-233.7,-116.1,-9830.1,-9827.4,-9830.1,-9830.1,-6.6,-6.0,-423.9,-2524.2,-0.6,-168.3,-28.5,-664.2,0,2688,2717908992,193,0, 
1.4967,-303.3,-285.9,-4905.3,-281.1,-274.8,-266.1,-395.4,-2668.8,-2445.3,258.6,-239.1,-121.8,-9830.1,-9827.4,-9830.1,-9830.1,-6.9,-5.4,-426.9,-2532.3,-0.9,-168.9,-34.2,-663.0,0,2694,2717908992,194,0, 
1.5000,-299.1,-283.5,-2731.2,-283.5,-196.8,-268.2,-369.6,-2668.8,-2074.8,259.5,-237.9,-119.1,-9830.1,-9827.4,-9830.1,-9830.1,-6.6,-6.0,-426.6,-2532.0,-0.6,-171.0,-30.3,-652.5,0,2700,2717908992,195,0, 
1.5033,-297.6,-284.7,-1200.6,-294.9,-187.5,-275.4,-363.6,-2666.4,-2297.1,257.4,-245.4,-129.0,-9830.1,-9827.4,-9830.1,-9830.1,-6.9,-6.0,-432.0,-2538.6,-0.9,-173.4,-17.7,-643.8,0,2706,2717908992,196,0, 
1.5067,-297.0,-286.8,-2304.0,-293.7,-238.8,-276.6,-386.1,-2662.2,-2964.0,252.3,-246.3,-126.9,-9830.1,-9827.4,-9830.1,-9830.1,-6.9,-6.0,-436.5,-2538.6,-0.9,-174.3,-23.4,-653.4,0,2712,2717908992,197,0, 
1.5100,-297.9,-290.4,-4662.9,-298.8,-307.2,-263.4,-399.6,-2662.8,-3186.3,246.9,-251.1,-132.3,-9830.1,-9827.4,-9830.1,-9830.1,-6.9,-5.7,-440.1,-2541.3,-0.3,-184.5,-36.3,-665.1,0,2718,2717908992,198,0, 
1.5133,-292.5,-285.6,-4900.5,-301.2,-287.7,-278.7,-397.2,-2667.6,-2593.5,245.4,-250.2,-131.7,-9830.1,-9827.4,-9830.1,-9830.1,-6.9,-5.7,-439.8,-2536.2,-0.6,-191.1,-37.2,-662.7,0,2724,2717908992,199,0, 
1.5167,-291.0,-286.5,-2687.1,-300.9,-221.7,-276.3,-369.0,-2660.1,-2000.7,237.6,-257.4,-137.4,-9830.1,-9827.4,-9830.1,-9830.1,-6.6,-6.6,-446.4,-2539.8,-1.2,-186.0,-24.0,-650.7,0,2730,2717908992,200,0, 
1.5200,-292.2,-293.4,-1158.6,-301.8,-207.0,-281.4,-369.9,-2665.2,-2371.2,246.6,-258.0,-141.3,-9830.1,-9827.4,-9830.1,-9830.1,-6.9,-6.0,-448.5,-2545.5,-0.9,-189.6,-20.7,-644.1,0,2736,2717908992,201,0, 
1.5233,-294.9,-290.4,-2251.5,-302.1,-254.4,-280.8,-392.4,-2668.2,-3186.3,241.8,-258.3,-143.1,-9830.1,-9827.4,-9830.1,-9830.1,-6.6,-5.7,-444.6,-2559.0,-0.9,-191.1,-24.6,-654.3,0,2742,2717908992,202,0, 
1.5267,-297.3,-294.3,-4526.1,-310.8,-321.6,-284.4,-401.7,-2677.2,-3112.2,244.8,-262.8,-144.6,-9830.1,-9827.4,-9830.1,-9830.1,-6.9,-6.0,-451.5,-2558.4,-0.9,-189.6,-23.1,-667.5,0,2748,2717908992,203,0, 
1.5300,-297.3,-294.6,-4798.5,-305.4,-303.0,-282.0,-398.1,-2673.6,-2593.5,252.0,-261.3,-143.1,-9830.1,-9827.4,-9830.1,-9830.1,-6.9,-5.7,-449.4,-2556.3,-0.9,-181.2,-27.9,-669.9,0,2754,2717908992,204,0, 
1.5333,-295.5,-294.9,-2567.7,-309.3,-198.6,-282.3,-372.0,-2673.6,-2000.7,246.3,-264.3,-145.8,-9830.1,-9827.4,-9830.1,-9830.1,-6.6,-5.7,-448.5,-2556.0,-0.6,-183.0,-19.2,-656.1,0,2760,2717908992,205,0, 
1.5367,-298.2,-301.5,-1140.0,-312.9,-198.9,-281.1,-366.0,-2676.0,-2519.4,254.7,-262.2,-142.5,-9830.1,-9827.4,-9830.1,-9830.1,-6.9,-6.0,-450.9,-2547.0,-1.2,-185.1,-8.1,-643.8,0,2766,2717908992,206,0, 
1.5400,-292.5,-294.3,-2204.7,-303.3,-227.1,-271.8,-368.4,-2667.0,-3112.2,255.9,-257.1,-135.6,-9830.1,-9827.4,-9830.1,-9830.1,-6.9,-6.0,-441.0,-2542.2,-0.6,-177.0,-5.4,-643.5,0,2772,2717908992,207,0, 
1.5433,-289.2,-291.0,-4479.9,-304.8,-310.5,-277.8,-395.1,-2663.1,-3186.3,265.2,-252.0,-132.0,-9830.1,-9827.4,-9830.1,-9830.1,-7.2,-6.0,-436.5,-2532.0,-0.9,-170.4,-24.9,-657.0,0,2778,2717908992,208,0, 
1.5467,-292.5,-288.0,-4774.8,-307.5,-280.2,-279.0,-387.9,-2668.8,-2445.3,255.9,-261.9,-141.9,-9830.1,-9827.4,-9830.1,-9830.1,-7.2,-5.7,-444.0,-2543.7,-0.6,-181.8,-28.2,-668.1,0,2784,2717908992,209,0, 
1.5500,-292.8,-287.7,-2636.1,-312.0,-192.9,-280.8,-372.0,-2672.1,-2148.9,253.5,-258.6,-135.3,-9830.1,-9827.4,-9830.1,-9830.1,-6.9,-6.3,-441.6,-2534.7,-0.3,-177.0,-22.2,-668.1,0,2790,2717908992,210,0, 
1.5533,-296.1,-298.8,-1142.7,-313.5,-185.1,-282.9,-370.8,-2673.6,-2445.3,245.1,-263.4,-142.8,-9830.1,-9827.4,-9830.1,-9830.1,-7.2,-6.0,-447.6,-2547.9,-0.9,-190.2,-20.7,-660.6,0,2796,2717908992,211,0, 
1.5567,-296.7,-294.3,-2211.9,-316.8,-240.3,-288.0,-368.1,-2676.6,-3334.5,247.5,-265.5,-144.6,-9830.1,-9827.4,-9830.1,-9830.1,-6.6,-5.7,-448.5,-2543.7,-0.6,-184.5,-32.7,-665.1,0,2802,2717908992,212,0, 
1.5600,-300.0,-297.6,-4430.7,-314.7,-308.1,-285.0,-398.1,-2675.4,-3112.2,247.2,-262.8,-142.8,-9830.1,-9827.4,-9830.1,-9830.1,-6.9,-6.0,-446.4,-2542.2,-0.6,-186.3,-37.2,-679.2,0,2808,2717908992,213,0, 
1.5633,-295.2,-295.2,-4628.4,-311.7,-289.8,-276.9,-381.9,-2671.8,-2519.4,255.3,-256.8,-139.2,-9830.1,-9827.4,-9830.1,-9830.1,-6.9,-5.7,-433.5,-2538.9,-0.9,-186.3,-32.7,-675.6,0,2814,2717908992,214,0, 
1.5667,-292.8,-294.6,-2430.9,-303.9,-191.7,-269.7,-353.4,-2670.6,-1852.5,256.5,-253.5,-130.2,-9830.1,-9827.4,-9830.1,-9830.1,-6.9,-6.0,-435.9,-2530.8,-0.6,-177.9,-21.6,-656.7,0,2820,2717908992,215,0, 
1.5700,-297.3,-304.5,-1035.6,-307.5,-198.0,-273.0,-351.9,-2674.2,-2371.2,261.6,-255.0,-130.5,-9830.1,-9827.4,-9830.1,-9806.7,-7.2,-6.0,-442.2,-2523.0,-0.9,-171.9,-12.0,-643.8,0,2826,2717908992,216,0, 
1.5733,-300.0,-296.7,-2058.9,-303.9,-224.7,-270.9,-368.1,-2667.3,-3038.1,254.7,-255.0,-134.1,-9830.1,-9827.4,-9830.1,-9764.4,-6.9,-6.6,-440.7,-2540.4,-0.9,-180.0,-16.2,-654.3,0,2832,2717908992,217,0, 
1.5767,-303.3,-306.0,-4287.0,-303.3,-279.0,-265.2,-383.1,-2661.6,-3186.3,259.8,-250.8,-127.5,-9830.1,-9827.4,-9830.1,-9830.1,-6.9,-6.0,-436.5,-2532.9,-0.6,-169.2,-18.3,-663.3,0,2838,2717908992,218,0, 
1.5800,-300.3,-295.5,-4523.4,-297.6,-253.8,-266.1,-373.5,-2655.3,-2593.5,259.8,-245.7,-123.9,-9830.1,-9827.4,-9830.1,-9822.9,-6.6,-6.3,-436.8,-2520.3,-0.9,-160.2,-15.9,-660.9,0,2844,2717908992,219,0, 
1.5833,-299.4,-294.0,-2372.1,-295.5,-182.7,-259.8,-352.2,-2653.8,-2000.7,258.3,-246.6,-123.6,-9830.1,-9827.4,-9830.1,-9830.1,-6.9,-6.0,-431.7,-2517.0,-0.9,-159.6,-8.1,-654.0,0,2850,2717908992,220,0, 
1.5867,-297.9,-300.3,-930.6,-294.9,-174.0,-262.2,-350.1,-2659.2,-2371.2,269.7,-246.3,-125.1,-9830.1,-9827.4,-9830.1,-9444.0,-6.9,-6.3,-430.8,-2521.5,-0.6,-162.6,-2.4,-646.2,0,2856,2717908992,221,0, 
1.5900,-300.9,-311.7,-1938.3,-302.1,-229.2,-265.8,-353.1,-2664.0,-3186.3,267.6,-249.3,-129.0,-9830.1,-9827.4,-9830.1,-9357.3,-6.6,-6.0,-436.5,-2526.3,-0.9,-158.4,-2.4,-640.8,0,2862,2717908992,222,0, 
1.5933,-299.1,-309.3,-4065.0,-303.6,-274.5,-261.6,-374.7,-2662.2,-3186.3,261.3,-250.2,-132.9,-9830.1,-9827.4,-9830.1,-9830.1,-6.6,-5.7,-439.2,-2527.8,-1.2,-168.9,-9.0,-661.2,0,2868,2717908992,223,0, 
1.5967,-296.4,-301.2,-4374.6,-297.3,-246.3,-261.9,-363.3,-2655.9,-2519.4,267.6,-243.3,-126.0,-9830.1,-9827.4,-9830.1,-9810.0,-6.9,-6.3,-432.3,-2520.0,-0.6,-165.6,-11.7,-651.0,0,2874,2717908992,224,0, 
1.6000,-295.8,-302.7,-2207.4,-299.1,-187.2,-269.4,-348.3,-2658.3,-2074.8,259.8,-244.8,-129.0,-9830.1,-9827.4,-9830.1,-9830.1,-6.6,-6.0,-429.0,-2523.9,-0.6,-161.4,-3.6,-648.3,0,2880,2717908992,225,0, 
1.6033,-298.2,-309.6,-749.1,-308.4,-169.5,-274.5,-340.8,-2658.0,-2445.3,257.7,-251.1,-131.1,-9830.1,-9827.4,-9830.1,-8885.1,-6.6,-5.7,-437.7,-2521.2,-0.3,-166.2,-6.0,-648.0,0,2886,2717908992,226,0, 
1.6067,-295.2,-312.3,-1799.1,-305.7,-217.5,-272.4,-348.0,-2658.3,-3186.3,253.2,-252.6,-135.6,-9830.1,-9827.4,-9830.1,-8947.8,-7.5,-6.3,-436.8,-2521.8,-0.6,-175.5,-12.9,-667.2,0,2892,2717908992,227,0, 
1.6100,-296.4,-306.6,-3939.3,-300.3,-270.6,-270.3,-365.7,-2656.2,-3112.2,252.9,-253.5,-133.2,-9830.1,-9827.4,-9830.1,-9810.3,-6.9,-5.7,-444.0,-2522.7,-0.9,-169.2,-19.5,-672.9,0,2898,2717908992,228,0, 
1.6133,-291.6,-305.7,-4082.4,-301.8,-234.0,-272.7,-349.8,-2661.6,-2445.3,251.1,-252.6,-132.0,-9830.1,-9827.4,-9830.1,-9830.1,-6.9,-6.3,-441.9,-2521.8,-0.9,-175.5,-21.3,-682.5,0,2904,2717908992,229,0, 
1.6167,-294.9,-317.7,-2090.4,-314.4,-195.0,-275.4,-337.2,-2671.2,-2000.7,242.7,-264.6,-142.2,-9830.1,-9827.4,-9830.1,-9664.8,-6.9,-6.0,-453.6,-2539.2,-0.6,-182.4,-19.5,-681.9,0,2910,2717908992,230,0, 
1.6200,-304.5,-322.5,-575.4,-315.9,-187.8,-280.8,-346.5,-2673.3,-2445.3,235.5,-266.7,-147.0,-9830.1,-9827.4,-9830.1,-8356.5,-7.2,-6.0,-454.2,-2536.5,-0.9,-180.3,-17.1,-677.4,0,2916,2717908992,231,0, 
1.6233,-294.9,-311.7,-1914.6,-306.0,-243.0,-272.1,-356.1,-2662.5,-3186.3,246.6,-255.0,-137.7,-9830.1,-9827.4,-9830.1,-8730.6,-6.9,-6.0,-445.5,-2523.9,-1.2,-175.8,-15.9,-681.3,0,2922,2717908992,232,0, 
1.6267,-298.5,-309.9,-4048.5,-313.5,-280.8,-275.1,-382.2,-2670.6,-3112.2,242.7,-260.1,-141.3,-9830.1,-9827.4,-9830.1,-9673.2,-6.6,-6.0,-448.8,-2529.9,-0.9,-186.6,-23.4,-695.7,0,2928,2717908992,233,0, 
1.6300,-289.2,-295.5,-4158.6,-305.7,-249.6,-269.7,-351.6,-2668.8,-2371.2,248.7,-253.5,-134.4,-9830.1,-9827.4,-9830.1,-9830.1,-6.6,-5.7,-442.8,-2520.6,-0.9,-170.1,-18.0,-681.9,0,2934,2717908992,234,0, 
1.6333,-289.2,-299.4,-2129.1,-304.2,-195.9,-268.5,-343.8,-2662.8,-2000.7,256.5,-249.9,-126.9,-9830.1,-9827.4,-9830.1,-9358.5,-7.2,-6.3,-437.7,-2518.8,-1.2,-173.4,-12.0,-667.8,0,2940,2717908992,235,0, 
1.6367,-290.1,-301.2,-444.6,-306.9,-167.1,-267.0,-326.1,-2665.2,-2445.3,257.4,-249.0,-132.0,-9830.1,-9827.4,-9830.1,-7968.9,-7.2,-6.0,-435.0,-2524.2,-0.9,-171.9,-3.6,-648.9,0,2946,2717908992,236,0, 
1.6400,-284.7,-297.0,-1566.6,-304.8,-199.5,-257.7,-348.9,-2657.4,-3038.1,253.8,-244.2,-128.4,-9830.1,-9827.4,-9830.1,-8169.0,-7.2,-6.0,-435.3,-2523.0,-0.6,-170.7,-9.0,-645.3,0,2952,2717908992,237,0, 
1.6433,-287.1,-296.1,-3753.0,-303.3,-259.5,-271.8,-365.1,-2660.1,-3186.3,257.7,-247.2,-129.9,-9830.1,-9827.4,-9830.1,-9246.0,-6.9,-6.0,-435.0,-2524.8,-0.9,-165.3,-18.6,-654.0,0,2958,2717908992,238,0, 
1.6467,-284.7,-292.8,-3999.0,-304.8,-255.0,-269.4,-353.4,-2661.6,-2445.3,255.3,-249.0,-129.3,-9830.1,-9827.4,-9830.1,-9748.2,-6.9,-6.0,-436.5,-2523.0,-0.9,-168.3,-19.8,-665.7,0,2964,2717908992,239,0, 
1.6500,-287.7,-303.3,-1982.1,-303.6,-180.0,-272.4,-333.6,-2663.1,-2000.7,252.0,-254.4,-132.3,-9830.1,-9827.4,-9830.1,-8794.8,-6.9,-5.7,-442.8,-2520.0,-0.9,-166.8,-11.7,-657.9,0,2970,2717908992,240,0, 
1.6533,-286.8,-301.2,-327.9,-300.9,-148.5,-267.0,-320.4,-2659.5,-2297.1,246.0,-252.6,-131.1,-9830.1,-9827.4,-9830.1,-7560.9,-7.5,-6.3,-442.5,-2525.1,-0.9,-165.9,-6.9,-652.5,0,2976,2717908992,241,0, 
1.6567,-289.2,-306.3,-1434.0,-301.5,-206.7,-269.4,-325.2,-2660.1,-3112.2,256.8,-255.3,-135.3,-9830.1,-9827.4,-9830.1,-7752.0,-6.9,-6.0,-445.2,-2519.7,-0.3,-169.2,-15.9,-649.8,0,2982,2717908992,242,0, 
1.6600,-289.2,-308.1,-3676.5,-308.1,-282.0,-272.4,-353.7,-2664.3,-3112.2,254.4,-256.2,-140.4,-9830.1,-9827.4,-9830.1,-8982.3,-6.9,-6.3,-444.9,-2524.2,-0.9,-172.5,-22.2,-672.6,0,2988,2717908992,243,0, 
1.6633,-287.7,-302.1,-3904.5,-313.8,-254.1,-274.2,-349.5,-2663.7,-2593.5,255.6,-255.0,-138.9,-9830.1,-9827.4,-9830.1,-9421.2,-6.9,-6.0,-439.8,-2523.6,-0.9,-170.4,-27.3,-675.3,0,2994,2717908992,244,0, 
1.6667,-279.6,-296.1,-1752.3,-303.0,-168.3,-267.3,-315.6,-2662.8,-2000.7,266.1,-245.7,-126.9,-9830.1,-9827.4,-9830.1,-8389.8,-6.6,-5.7,-432.9,-2509.5,-1.2,-161.7,-14.1,-662.4,0,3000,2717908992,245,0, 
1.6700,-282.0,-298.2,-126.0,-305.7,-145.5,-270.3,-307.5,-2665.2,-2371.2,261.3,-249.3,-132.0,-9830.1,-9827.4,-9830.1,-7179.6,-7.2,-6.0,-432.9,-2523.3,-0.9,-163.8,-10.2,-662.1,0,3006,2717908992,246,0, 
1.6733,-281.1,-301.2,-1256.1,-306.0,-212.4,-262.5,-327.6,-2667.3,-3186.3,263.4,-247.5,-131.7,-9830.1,-9827.4,-9830.1,-7410.0,-7.2,-5.7,-430.8,-2520.0,-0.6,-165.0,-6.9,-666.0,0,3012,2717908992,247,0, 
1.6767,-282.9,-302.1,-3488.7,-300.9,-262.2,-264.3,-338.7,-2666.4,-3038.1,269.7,-241.8,-124.2,-9830.1,-9827.4,-9830.1,-8537.7,-6.9,-6.0,-425.4,-2511.9,-0.9,-155.4,-10.2,-666.9,0,3018,2717908992,248,0, 
1.6800,-286.8,-304.2,-3813.6,-306.6,-239.4,-261.0,-336.3,-2671.8,-2371.2,258.6,-249.3,-132.9,-9830.1,-9827.4,-9830.1,-9059.1,-6.9,-6.3,-433.5,-2518.8,-0.6,-162.6,-7.2,-671.4,0,3024,2717908992,249,0, 
1.6833,-285.9,-304.8,-1633.2,-312.6,-163.2,-272.1,-324.0,-2678.1,-2000.7,258.3,-249.6,-132.3,-9830.1,-9827.4,-9830.1,-8053.2,-6.6,-6.0,-435.0,-2520.3,-0.6,-159.6,2.1,-665.4,0,3030,2717908992,250,0, 
1.6867,-284.7,-305.7,20.7,-305.1,-151.2,-267.0,-316.5,-2677.2,-2371.2,266.1,-248.1,-130.5,-9830.1,-9827.4,-9830.1,-6831.9,-6.9,-6.0,-431.1,-2517.3,-0.9,-157.2,5.1,-649.8,0,3036,2717908992,251,0, 
1.6900,-284.7,-305.1,-1123.8,-303.3,-203.4,-264.3,-329.7,-2666.1,-3112.2,269.4,-243.3,-125.4,-9830.1,-9827.4,-9830.1,-7032.3,-6.9,-6.0,-426.9,-2512.2,-0.6,-152.7,1.8,-650.4,0,3042,2717908992,252,0, 
1.6933,-281.4,-305.1,-3390.0,-309.0,-273.0,-265.8,-339.6,-2664.6,-3112.2,257.1,-255.6,-137.1,-9830.1,-9827.4,-9830.1,-8243.1,-6.6,-5.7,-440.4,-2524.2,-0.9,-163.5,-4.8,-657.9,0,3048,2717908992,253,0, 
1.6967,-284.7,-308.1,-3670.2,-306.9,-250.8,-268.2,-330.9,-2660.7,-2445.3,266.4,-251.4,-132.6,-9830.1,-9827.4,-9830.1,-8754.9,-6.9,-6.0,-436.2,-2521.8,-0.6,-169.5,-10.5,-665.4,0,3054,2717908992,254,0, 
1.7000,-284.4,-303.6,-1505.1,-301.8,-185.1,-271.2,-308.1,-2661.3,-2074.8,262.2,-243.9,-128.1,-9830.1,-9827.4,-9830.1,-7737.9,-6.9,-5.7,-426.9,-2514.3,-0.9,-161.1,-7.5,-651.0,0,3060,2717908992,255,0, 
1.7033,-283.8,-306.6,110.1,-303.0,-142.5,-265.8,-300.0,-2662.2,-2297.1,260.7,-251.7,-129.6,-9830.1,-9827.4,-9830.1,-6578.4,-7.2,-6.3,-437.4,-2523.9,-0.6,-168.6,1.8,-654.9,0,3066,2717908992,0,0, 
1.7067,-281.1,-303.6,-953.7,-299.1,-217.2,-264.3,-310.2,-2663.7,-3112.2,251.7,-249.6,-132.6,-9830.1,-9827.4,-9830.1,-6757.8,-6.6,-6.0,-430.5,-2522.1,-0.9,-169.2,-3.6,-657.3,0,3072,2717908992,1,0, 
1.7100,-272.7,-297.6,-3252.6,-289.8,-273.9,-255.9,-328.8,-2651.7,-3112.2,264.0,-239.4,-121.8,-9830.1,-9827.4,-9830.1,-8047.8,-7.2,-5.7,-424.2,-2506.5,-0.6,-154.8,-6.6,-666.3,0,3078,2717908992,2,0, 
1.7133,-278.7,-295.8,-3543.3,-297.9,-248.4,-263.1,-334.8,-2657.7,-2519.4,253.2,-247.2,-130.2,-9830.1,-9827.4,-9830.1,-8527.8,-6.9,-6.0,-429.3,-2516.4,-0.6,-170.4,-17.4,-673.2,0,3084,2717908992,3,0, 
1.7167,-276.0,-292.2,-1371.0,-296.1,-160.5,-258.9,-297.9,-2657.7,-1926.6,258.9,-243.6,-125.1,-9830.1,-9827.4,-9830.1,-7502.1,-6.6,-6.0,-428.4,-2512.2,-0.6,-165.9,1.5,-657.0,0,3090,2717908992,4,0, 
1.7200,-280.8,-304.2,151.2,-300.9,-153.3,-267.9,-291.0,-2666.4,-2519.4,253.2,-253.2,-135.6,-9830.1,-9827.4,-9830.1,-6378.9,-6.9,-6.0,-435.9,-2527.5,-0.9,-177.0,-0.3,-650.1,0,3096,2717908992,5,0, 
1.7233,-278.4,-295.8,-962.1,-294.6,-207.3,-267.0,-312.0,-2662.2,-2964.0,254.7,-244.8,-125.7,-9830.1,-9827.4,-9830.1,-6598.2,-6.9,-6.0,-429.3,-2520.6,-0.6,-162.6,4.8,-652.8,0,3102,2717908992,6,0, 
1.7267,-279.6,-292.8,-3268.2,-296.1,-276.6,-264.6,-331.8,-2660.4,-3186.3,254.1,-247.8,-129.6,-9830.1,-9827.4,-9830.1,-7907.1,-6.9,-6.0,-430.5,-2522.7,-0.9,-178.2,-3.9,-660.6,0,3108,2717908992,7,0, 
1.7300,-284.1,-300.0,-3532.2,-303.6,-260.7,-279.0,-328.2,-2666.4,-2445.3,246.0,-255.3,-139.8,-9830.1,-9827.4,-9830.1,-8408.1,-6.9,-6.0,-438.9,-2535.6,-1.2,-179.1,-7.2,-661.2,0,3114,2717908992,8,0, 
1.7333,-282.9,-303.9,-1401.6,-309.0,-175.5,-274.8,-307.2,-2667.3,-1926.6,250.2,-253.5,-135.0,-9830.1,-9827.4,-9830.1,-7407.9,-6.9,-6.0,-435.6,-2521.5,-0.9,-166.8,1.2,-647.7,0,3120,2717908992,9,0, 
1.7367,-282.3,-302.1,219.0,-309.3,-145.5,-276.9,-288.6,-2671.5,-2297.1,249.3,-257.1,-139.8,-9830.1,-9827.4,-9830.1,-6267.6,-6.9,-6.0,-438.9,-2527.8,-0.9,-174.3,10.2,-643.5,0,3126,2717908992,10,0, 
1.7400,-284.4,-305.4,-839.1,-309.9,-200.4,-275.1,-317.1,-2669.1,-3186.3,246.9,-257.1,-139.8,-9830.1,-9827.4,-9830.1,-6488.4,-7.5,-6.0,-442.2,-2527.2,-0.9,-178.8,3.0,-650.7,0,3132,2717908992,11,0, 
1.7433,-283.5,-308.1,-3135.9,-306.3,-261.6,-277.2,-335.4,-2667.0,-3186.3,251.7,-253.5,-137.7,-9830.1,-9827.4,-9830.1,-7734.3,-6.6,-6.3,-436.5,-2521.5,-1.2,-169.2,-0.3,-664.8,0,3138,2717908992,12,0, 
1.7467,-284.1,-309.0,-3415.2,-312.6,-235.5,-277.8,-311.7,-2675.7,-2371.2,248.7,-258.6,-137.4,-9830.1,-9827.4,-9830.1,-8282.4,-6.9,-5.4,-442.5,-2520.9,-0.6,-169.2,-3.0,-666.9,0,3144,2717908992,13,0, 
1.7500,-294.0,-323.1,-1293.6,-321.6,-165.0,-284.4,-299.7,-2685.0,-2000.7,240.6,-264.9,-150.0,-9830.1,-9827.4,-9830.1,-7293.0,-6.6,-6.3,-450.6,-2529.0,-0.6,-180.3,4.2,-664.2,0,3150,2717908992,14,0, 
1.7533,-288.0,-312.6,288.6,-318.9,-141.3,-283.2,-286.8,-2683.5,-2445.3,240.9,-266.7,-146.7,-9830.1,-9827.4,-9830.1,-6067.2,-6.9,-6.0,-448.5,-2524.2,-0.9,-176.4,15.0,-646.5,0,3156,2717908992,15,0, 
1.7567,-294.9,-323.1,-884.7,-321.9,-207.9,-285.3,-316.8,-2685.3,-3038.1,237.9,-269.4,-149.7,-9830.1,-9827.4,-9830.1,-6336.0,-6.6,-6.0,-456.0,-2535.6,-0.9,-179.4,9.0,-654.9,0,3162,2717908992,16,0, 
1.7600,-285.6,-318.0,-3082.5,-311.4,-255.9,-284.4,-328.8,-2680.8,-3260.4,246.9,-261.0,-140.4,-9830.1,-9827.4,-9830.1,-7592.7,-6.9,-5.7,-445.2,-2528.1,-1.2,-178.5,-6.0,-663.9,0,3168,2717908992,17,0, 
1.7633,-290.7,-316.5,-3427.8,-313.8,-233.7,-284.7,-327.9,-2685.0,-2519.4,240.9,-265.2,-148.8,-9830.1,-9827.4,-9830.1,-8112.3,-6.6,-6.0,-445.8,-2529.0,-0.6,-179.1,-5.4,-666.9,0,3174,2717908992,18,0, 
1.7667,-290.7,-316.5,-1364.1,-315.0,-153.0,-279.0,-309.3,-2683.2,-2000.7,241.2,-267.6,-148.8,-9830.1,-9827.4,-9830.1,-7141.5,-6.6,-6.3,-448.8,-2528.4,-0.9,-181.8,1.5,-657.9,0,3180,2717908992,19,0, 
1.7700,-281.4,-312.9,273.3,-312.3,-118.8,-281.4,-285.3,-2678.4,-2445.3,251.7,-258.0,-140.1,-9830.1,-9827.4,-9830.1,-5920.5,-6.9,-6.0,-440.1,-2517.9,-0.9,-170.4,10.2,-637.5,0,3186,2717908992,20,0, 
1.7733,-281.1,-309.9,-871.8,-307.5,-196.2,-279.0,-300.3,-2676.6,-3186.3,252.6,-260.1,-137.1,-9830.1,-9827.4,-9830.1,-6161.4,-6.9,-6.0,-440.1,-2517.6,-0.6,-168.0,6.6,-656.7,0,3192,2717908992,21,0, 
1.7767,-279.0,-313.2,-3129.9,-310.2,-253.5,-277.8,-326.1,-2679.6,-3186.3,247.5,-265.5,-145.8,-9830.1,-9827.4,-9830.1,-7431.9,-6.9,-6.0,-447.3,-2519.1,-0.9,-173.4,-11.4,-669.0,0,3198,2717908992,22,0, 
1.7800,-284.1,-317.1,-3479.7,-311.7,-229.2,-284.1,-323.1,-2684.7,-2593.5,238.2,-271.5,-150.6,-9830.1,-9827.4,-9830.1,-7948.5,-6.9,-6.0,-449.4,-2527.8,-0.9,-190.8,-18.9,-685.8,0,3204,2717908992,23,0, 
1.7833,-284.7,-323.1,-907.5,-312.6,-108.6,-273.9,-281.1,-2684.4,-2074.8,230.1,-270.0,-149.7,-9830.1,-9827.4,-9830.1,-6617.4,-6.9,-6.0,-453.0,-2531.1,-0.9,-195.9,-4.5,-657.9,0,3210,2717908992,24,0, 
1.7867,-276.0,-313.5,559.5,-304.2,-120.3,-280.5,-291.6,-2675.7,-2371.2,242.7,-260.7,-134.7,-9830.1,-9827.4,-9830.1,-5682.0,-7.2,-5.7,-440.1,-2505.3,-0.9,-172.2,-6.0,-649.5,0,3216,2717908992,25,0, 
1.7900,-277.5,-313.2,-645.0,-296.7,-177.6,-275.4,-305.7,-2670.9,-3112.2,253.5,-251.1,-130.8,-9830.1,-9827.4,-9830.1,-5926.2,-7.2,-5.7,-434.7,-2511.9,-0.9,-168.9,-15.0,-651.0,0,3222,2717908992,26,0, 
1.7933,-281.7,-313.8,-3061.5,-299.7,-254.7,-278.4,-324.0,-2670.3,-3038.1,246.9,-261.6,-140.1,-9830.1,-9827.4,-9830.1,-7329.6,-7.2,-5.7,-439.8,-2514.3,-0.6,-175.2,-20.1,-669.0,0,3228,2717908992,27,0, 
1.7967,-276.9,-312.3,-3400.5,-299.7,-237.0,-278.1,-318.3,-2668.5,-2445.3,240.6,-255.6,-136.5,-9830.1,-9827.4,-9830.1,-7842.6,-6.6,-6.3,-439.5,-2510.4,-0.6,-172.5,-18.9,-664.8,0,3234,2717908992,28,0, 
1.8000,-272.1,-305.4,-1295.1,-292.2,-135.6,-269.4,-291.6,-2661.3,-1852.5,249.6,-253.5,-130.5,-9830.1,-9827.4,-9830.1,-6918.6,-7.2,-5.7,-433.8,-2499.6,-1.2,-174.9,-5.1,-650.7,0,3240,2717908992,29,0, 
1.8033,-274.8,-311.4,291.3,-295.8,-138.3,-275.1,-290.1,-2662.8,-2297.1,248.7,-256.8,-135.3,-9830.1,-9827.4,-9830.1,-5752.2,-6.9,-6.0,-438.3,-2509.2,-0.6,-168.6,1.8,-643.2,0,3246,2717908992,30,0, 
1.8067,-278.7,-315.9,-865.5,-304.2,-190.5,-276.9,-304.5,-2670.3,-3112.2,239.7,-266.7,-141.9,-9830.1,-9827.4,-9830.1,-6018.6,-6.9,-5.7,-447.6,-2512.2,-0.6,-175.8,-0.3,-649.2,0,3252,2717908992,31,0, 
1.8100,-281.4,-312.9,-3172.5,-306.3,-260.4,-285.0,-325.5,-2668.8,-3112.2,241.5,-262.8,-139.5,-9830.1,-9827.4,-9830.1,-7307.4,-6.9,-6.0,-447.3,-2514.9,-0.9,-181.2,-11.7,-661.8,0,3258,2717908992,32,0, 
1.8133,-276.6,-309.3,-3492.6,-297.6,-228.6,-274.8,-317.7,-2662.8,-2667.6,245.4,-258.6,-137.7,-9830.1,-9827.4,-9830.1,-7843.8,-6.9,-5.7,-440.4,-2511.9,-0.9,-174.9,-9.0,-655.8,0,3264,2717908992,33,0, 
1.8167,-278.4,-311.4,-1391.7,-300.0,-164.7,-276.0,-301.8,-2668.2,-2074.8,246.6,-260.1,-140.4,-9830.1,-9827.4,-9830.1,-6922.8,-6.9,-6.3,-441.9,-2508.3,-0.9,-177.3,-0.6,-648.3,0,3270,2717908992,34,0, 
1.8200,-274.2,-316.5,200.7,-295.5,-139.2,-270.0,-275.7,-2661.6,-2445.3,248.7,-252.3,-132.6,-9830.1,-9827.4,-9830.1,-5746.2,-7.2,-5.7,-438.0,-2497.5,-0.6,-169.8,8.1,-641.1,0,3276,2717908992,35,0, 
1.8233,-278.4,-313.2,-884.1,-295.2,-198.3,-271.2,-307.2,-2653.8,-3038.1,248.1,-255.6,-135.9,-9830.1,-9827.4,-9830.1,-5986.2,-6.6,-6.0,-441.6,-2509.5,-0.6,-172.8,0.3,-652.8,0,3282,2717908992,36,0, 
1.8267,-273.3,-303.3,-3182.7,-289.8,-255.6,-267.3,-317.4,-2646.3,-3038.1,258.0,-248.1,-132.6,-9830.1,-9827.4,-9830.1,-7327.8,-6.9,-6.0,-431.1,-2504.4,-0.9,-170.7,-5.7,-651.9,0,3288,2717908992,37,0, 
1.8300,-275.7,-308.7,-3507.0,-296.7,-243.6,-278.1,-321.3,-2655.3,-2445.3,248.7,-252.0,-138.9,-9830.1,-9827.4,-9830.1,-7918.5,-7.2,-5.7,-436.2,-2507.7,-0.3,-178.8,-10.8,-656.4,0,3294,2717908992,38,0, 
1.8333,-275.4,-307.8,-1399.5,-291.3,-159.6,-273.3,-286.2,-2654.1,-2074.8,251.7,-244.2,-127.2,-9830.1,-9827.4,-9830.1,-6923.7,-7.2,-6.0,-428.4,-2493.6,-0.9,-169.8,-0.3,-639.3,0,3300,2717908992,39,0, 
1.8367,-282.0,-307.2,219.9,-291.9,-144.3,-271.8,-272.7,-2656.2,-2371.2,250.5,-246.3,-131.4,-9830.1,-9827.4,-9830.1,-5785.8,-6.9,-5.7,-433.8,-2503.8,-0.9,-181.2,3.0,-630.0,0,3306,2717908992,40,0, 
1.8400,-278.1,-311.1,-923.1,-290.7,-198.3,-270.6,-294.0,-2650.5,-3112.2,258.0,-240.9,-127.5,-9830.1,-9827.4,-9830.1,-6023.4,-6.9,-5.7,-423.9,-2499.3,-0.9,-170.4,2.1,-633.0,0,3312,2717908992,41,0, 
1.8433,-278.1,-303.6,-3142.5,-285.9,-266.4,-262.2,-320.7,-2647.8,-3112.2,253.8,-240.3,-122.4,-9830.1,-9827.4,-9830.1,-7290.0,-6.6,-5.7,-421.2,-2497.2,-0.9,-168.3,-6.9,-640.8,0,3318,2717908992,42,0, 
1.8467,-277.5,-305.7,-3459.9,-283.5,-238.2,-267.9,-319.8,-2645.7,-2371.2,263.1,-235.5,-118.8,-9830.1,-9827.4,-9830.1,-7876.5,-7.2,-5.4,-422.4,-2492.7,-0.9,-160.2,-6.3,-645.6,0,3324,2717908992,43,0, 
1.8500,-276.3,-303.0,-1337.1,-288.0,-158.4,-261.9,-297.6,-2649.9,-2074.8,253.5,-240.6,-123.9,-9830.1,-9827.4,-9830.1,-6922.8,-7.2,-6.0,-425.4,-2498.4,-0.9,-163.2,0.9,-646.5,0,3330,2717908992,44,0, 
1.8533,-275.4,-307.8,289.2,-289.2,-153.6,-265.5,-283.8,-2653.5,-2445.3,264.0,-239.4,-123.3,-9830.1,-9827.4,-9830.1,-5765.7,-6.9,-6.0,-422.4,-2499.3,-0.9,-163.8,-0.6,-646.8,0,3336,2717908992,45,0, 
1.8567,-275.1,-309.6,-765.6,-289.2,-197.7,-265.5,-301.8,-2653.2,-2964.0,252.0,-241.2,-123.9,-9830.1,-9827.4,-9830.1,-5913.6,-6.9,-6.0,-426.6,-2502.6,-0.6,-166.8,-0.6,-651.6,0,3342,2717908992,46,0, 
1.8600,-269.4,-303.6,-3062.4,-282.3,-263.7,-257.1,-310.2,-2649.0,-3038.1,269.4,-230.7,-114.9,-9830.1,-9827.4,-9830.1,-7235.4,-6.9,-5.7,-417.6,-2493.3,-0.6,-154.2,-6.3,-653.4,0,3348,2717908992,47,0, 
1.8633,-270.0,-302.1,-3361.5,-286.2,-234.0,-259.5,-307.5,-2649.6,-2593.5,255.9,-234.0,-119.1,-9830.1,-9827.4,-9830.1,-7779.9,-7.2,-6.0,-417.9,-2501.1,-0.6,-159.9,-7.2,-660.3,0,3354,2717908992,48,0, 
1.8667,-267.3,-299.7,-1320.0,-284.7,-144.3,-256.8,-271.2,-2646.6,-1926.6,259.5,-228.0,-114.0,-9830.1,-9827.4,-9830.1,-6796.2,-6.9,-6.3,-412.8,-2496.3,-0.9,-154.5,10.2,-648.3,0,3360,2717908992,49,0, 
1.8700,-265.8,-297.3,249.3,-288.9,-128.4,-261.3,-273.3,-2652.3,-2445.3,261.6,-236.1,-119.7,-9830.1,-9827.4,-9789.6,-5651.4,-7.2,-6.0,-417.0,-2495.7,-1.2,-164.4,7.8,-647.4,0,3366,2717908992,50,0, 
1.8733,-266.7,-298.2,-815.7,-291.0,-192.3,-264.3,-281.4,-2650.8,-2889.9,267.6,-237.6,-123.3,-9830.1,-9827.4,-9826.8,-5920.8,-6.9,-6.0,-421.5,-2494.5,-1.2,-161.7,5.7,-657.3,0,3372,2717908992,51,0, 
1.8767,-267.6,-300.0,-3114.0,-290.4,-249.3,-255.3,-301.8,-2651.7,-3038.1,270.6,-233.1,-120.0,-9830.1,-9827.4,-9830.1,-7196.4,-6.9,-6.3,-418.2,-2491.5,-0.9,-152.1,0.3,-660.6,0,3378,2717908992,52,0, 
1.8800,-271.2,-298.8,-3374.1,-292.5,-221.4,-253.2,-304.5,-2646.0,-2519.4,268.2,-230.4,-121.8,-9830.1,-9827.4,-9830.1,-7752.6,-6.9,-6.0,-411.9,-2499.9,-0.6,-163.2,-1.8,-663.6,0,3384,2717908992,53,0, 
1.8833,-274.2,-305.1,-1332.6,-296.7,-147.0,-254.7,-279.9,-2649.0,-2074.8,266.1,-244.2,-123.6,-9830.1,-9827.4,-9825.3,-6794.7,-7.2,-6.3,-424.2,-2493.9,-0.9,-162.3,2.7,-649.2,0,3390,2717908992,54,0, 
1.8867,-264.6,-297.0,266.7,-293.4,-142.8,-258.6,-267.6,-2641.2,-2297.1,261.6,-240.6,-120.3,-9830.1,-9827.4,-9500.7,-5622.9,-6.6,-6.0,-423.0,-2494.2,-0.9,-148.8,10.5,-646.2,0,3396,2717908992,55,0, 
1.8900,-268.8,-304.2,-793.2,-289.5,-197.7,-253.8,-270.9,-2635.5,-3112.2,266.1,-240.3,-120.6,-9830.1,-9827.4,-9830.1,-5864.7,-6.9,-6.0,-424.5,-2490.6,-0.9,-150.3,9.0,-651.0,0,3402,2717908992,56,0, 
1.8933,-273.0,-306.0,-3102.6,-295.5,-260.4,-252.3,-293.1,-2634.3,-3112.2,264.6,-244.5,-126.9,-9830.1,-9827.4,-9830.1,-7179.9,-7.2,-6.0,-429.0,-2498.4,-1.2,-152.1,3.0,-662.7,0,3408,2717908992,57,0, 
1.8967,-276.9,-300.3,-3420.3,-303.3,-242.7,-271.5,-300.0,-2636.1,-2519.4,254.1,-249.9,-133.5,-9830.1,-9827.4,-9830.1,-7745.4,-6.9,-6.3,-432.3,-2503.5,-0.9,-166.8,2.4,-668.1,0,3414,2717908992,58,0, 
1.9000,-279.9,-312.3,-1348.8,-312.3,-167.4,-267.0,-273.3,-2640.0,-1926.6,249.3,-255.0,-137.7,-9830.1,-9827.4,-9699.3,-6747.6,-6.9,-5.7,-437.1,-2506.8,-0.9,-162.9,13.2,-663.9,0,3420,2717908992,59,0, 
1.9033,-280.8,-311.4,314.1,-310.8,-124.8,-269.4,-268.2,-2646.9,-2445.3,251.1,-257.1,-140.4,-9830.1,-9827.4,-9033.0,-5580.3,-6.6,-5.7,-439.8,-2511.6,-0.9,-164.4,17.1,-661.8,0,3426,2717908992,60,0, 
1.9067,-282.0,-310.5,-781.8,-308.1,-209.7,-270.9,-291.6,-2650.8,-2964.0,267.0,-251.7,-135.9,-9830.1,-9827.4,-9824.4,-5823.9,-7.2,-6.0,-434.7,-2496.3,-0.9,-152.1,6.3,-670.8,0,3432,2717908992,61,0, 
1.9100,-286.8,-315.3,-3058.5,-314.7,-260.1,-276.3,-309.6,-2653.5,-3334.5,249.9,-260.4,-141.6,-9830.1,-9827.4,-9801.6,-7110.9,-6.9,-6.0,-443.1,-2507.1,-0.9,-163.8,-2.4,-685.8,0,3438,2717908992,62,0, 
1.9133,-284.7,-311.1,-3385.8,-312.0,-247.8,-273.3,-303.6,-2657.1,-2519.4,258.9,-253.8,-135.0,-9830.1,-9827.4,-9830.1,-7589.4,-7.2,-6.0,-437.1,-2501.4,-1.2,-155.7,0.3,-684.3,0,3444,2717908992,63,0, 
1.9167,-283.2,-313.8,-1291.5,-311.1,-174.0,-276.0,-283.2,-2656.2,-2000.7,249.6,-255.9,-136.5,-9830.1,-9827.4,-9449.7,-6652.5,-6.9,-5.7,-440.7,-2504.4,-1.2,-165.9,6.9,-674.4,0,3450,2717908992,64,0, 
1.9200,-282.3,-323.1,361.8,-308.1,-126.6,-271.5,-269.7,-2650.5,-2297.1,252.6,-255.6,-135.6,-9830.1,-9827.4,-8660.4,-5499.3,-6.9,-6.0,-436.5,-2499.3,-0.6,-167.1,9.3,-665.1,0,3456,2717908992,65,0, 
1.9233,-279.0,-314.4,-760.8,-303.0,-189.9,-270.3,-289.8,-2646.6,-3112.2,257.4,-251.4,-130.5,-9830.1,-9827.4,-9773.4,-5706.3,-6.9,-5.7,-432.9,-2506.5,-0.6,-161.4,5.7,-654.9,0,3462,2717908992,66,0, 
1.9267,-273.3,-307.2,-3113.7,-291.9,-243.0,-267.6,-315.0,-2638.8,-3112.2,266.7,-242.7,-117.3,-9830.1,-9827.4,-9810.9,-7096.8,-7.5,-6.0,-425.4,-2482.2,-0.6,-157.2,-8.7,-659.1,0,3468,2717908992,67,0, 
1.9300,-276.3,-309.3,-3468.3,-293.7,-215.1,-267.3,-320.4,-2641.5,-2593.5,255.3,-247.2,-126.9,-9830.1,-9827.4,-9830.1,-7686.3,-7.2,-5.7,-431.1,-2504.1,-0.9,-160.5,-10.2,-660.0,0,3474,2717908992,68,0, 
1.9333,-275.1,-305.4,-1442.7,-287.1,-147.0,-263.4,-287.4,-2641.8,-2000.7,258.3,-240.6,-118.2,-9830.1,-9827.4,-9467.7,-6842.7,-6.9,-6.0,-422.1,-2484.9,-0.6,-161.7,-3.0,-640.2,0,3480,2717908992,69,0, 
1.9367,-272.4,-303.6,185.7,-283.8,-106.8,-260.4,-278.7,-2641.2,-2371.2,258.6,-238.8,-118.8,-9830.1,-9827.4,-8508.0,-5739.3,-7.2,-6.0,-423.0,-2493.6,-0.9,-163.8,1.2,-637.5,0,3486,2717908992,70,0, 
1.9400,-271.8,-306.3,-915.6,-280.8,-167.7,-269.1,-294.3,-2637.3,-3038.1,269.7,-231.9,-118.5,-9830.1,-9827.4,-9741.6,-6055.5,-6.9,-5.7,-417.6,-2487.6,-0.9,-152.4,-3.3,-635.4,0,3492,2717908992,71,0, 
1.9433,-274.2,-307.5,-3292.2,-282.3,-235.2,-259.5,-301.8,-2630.7,-3186.3,257.7,-240.6,-118.8,-9830.1,-9827.4,-9803.4,-7457.7,-7.2,-6.3,-426.6,-2484.6,-0.3,-150.3,-11.1,-652.5,0,3498,2717908992,72,0, 
1.9467,-276.0,-311.7,-3620.7,-285.3,-222.9,-258.6,-308.4,-2633.7,-2593.5,256.8,-240.3,-120.9,-9830.1,-9827.4,-9830.1,-8111.1,-7.2,-6.0,-421.5,-2483.7,-0.6,-154.5,-4.2,-652.2,0,3504,2717908992,73,0, 
1.9500,-278.1,-307.5,-1548.9,-288.0,-140.7,-261.6,-291.0,-2634.9,-1926.6,259.8,-240.6,-122.1,-9830.1,-9827.4,-9379.8,-7279.2,-6.9,-6.3,-428.4,-2483.1,-1.2,-158.7,-1.8,-647.1,0,3510,2717908992,74,0, 
1.9533,-281.4,-313.2,28.8,-289.2,-121.2,-267.6,-276.6,-2640.0,-2445.3,250.8,-249.0,-126.3,-9830.1,-9827.4,-8460.0,-6258.3,-7.2,-6.3,-433.8,-2498.4,-0.9,-158.4,6.0,-639.6,0,3516,2717908992,75,0, 
1.9567,-278.7,-309.9,-1057.8,-285.3,-183.9,-260.1,-289.5,-2639.1,-3112.2,262.5,-238.5,-117.9,-9830.1,-9827.4,-9703.8,-6603.3,-7.2,-6.3,-426.0,-2478.3,-0.9,-150.9,9.9,-638.1,0,3522,2717908992,76,0, 
1.9600,-271.2,-303.9,-3403.5,-280.5,-246.3,-253.5,-312.3,-2630.1,-3186.3,260.1,-231.0,-116.1,-9830.1,-9827.4,-9821.4,-8063.1,-6.9,-6.0,-419.1,-2482.8,-0.9,-135.6,6.3,-641.1,0,3528,2717908992,77,0, 
1.9633,-273.0,-312.0,-3789.3,-288.6,-218.4,-261.3,-312.0,-2636.4,-2519.4,262.8,-236.4,-117.0,-9830.1,-9827.4,-9830.1,-8671.5,-6.6,-6.0,-418.5,-2478.6,-0.6,-153.9,3.6,-655.5,0,3534,2717908992,78,0, 
1.9667,-273.0,-306.3,-1678.2,-291.0,-153.0,-259.8,-290.7,-2641.5,-2148.9,267.9,-237.0,-120.3,-9830.1,-9827.4,-9524.4,-7814.1,-6.9,-6.3,-422.7,-2476.2,-1.2,-154.5,8.4,-642.6,0,3540,2717908992,79,0, 
1.9700,-274.2,-304.8,-100.8,-296.7,-134.4,-271.8,-288.3,-2646.3,-2519.4,261.6,-242.4,-123.9,-9830.1,-9827.4,-8689.5,-6819.0,-6.9,-6.0,-426.9,-2475.3,-0.9,-157.2,8.4,-639.9,0,3546,2717908992,80,0, 
1.9733,-278.1,-310.2,-1202.1,-297.6,-211.2,-265.2,-307.5,-2654.1,-3112.2,259.2,-245.4,-129.0,-9830.1,-9827.4,-9751.5,-7113.0,-7.2,-6.0,-430.5,-2485.2,-0.6,-152.1,8.1,-652.8,0,3552,2717908992,81,0, 
1.9767,-275.4,-311.4,-3491.7,-298.8,-265.2,-269.4,-323.7,-2652.3,-3186.3,266.7,-240.9,-125.1,-9830.1,-9827.4,-9820.5,-8487.0,-6.9,-6.0,-429.9,-2481.0,-0.9,-159.6,-2.7,-664.2,0,3558,2717908992,82,0, 
1.9800,-281.7,-316.8,-3800.7,-304.2,-232.5,-280.5,-327.0,-2660.1,-2519.4,253.2,-244.8,-132.6,-9830.1,-9827.4,-9830.1,-9065.4,-7.2,-6.6,-429.9,-2490.3,-0.9,-165.9,-16.5,-678.3,0,3564,2717908992,83,0, 
1.9833,-276.9,-316.5,-1739.1,-300.9,-164.4,-272.1,-297.9,-2660.4,-2074.8,259.8,-235.2,-120.0,-9830.1,-9827.4,-9567.9,-8165.1,-6.6,-6.0,-422.4,-2477.1,-0.6,-150.0,4.5,-647.7,0,3570,2717908992,84,0, 
1.9867,-280.8,-315.3,-63.0,-297.0,-139.2,-270.0,-286.8,-2664.3,-2297.1,269.1,-230.1,-113.4,-9830.1,-9827.4,-8835.6,-6974.4,-6.9,-6.0,-417.0,-2473.2,-0.9,-143.4,5.1,-639.3,0,3576,2717908992,85,0, 
1.9900,-283.2,-319.8,-1208.4,-301.5,-211.2,-270.6,-309.6,-2668.8,-3186.3,256.8,-239.4,-123.3,-9830.1,-9827.4,-9801.9,-7199.7,-6.9,-6.0,-427.5,-2488.8,-0.9,-148.5,2.4,-646.5,0,3582,2717908992,86,0, 
1.9933,-282.6,-318.6,-3517.2,-301.8,-281.1,-279.6,-314.4,-2671.5,-3112.2,261.0,-238.2,-123.6,-9830.1,-9827.4,-9815.1,-8476.2,-6.9,-6.0,-423.9,-2484.3,-0.9,-158.1,-10.5,-668.1,0,3588,2717908992,87,0, 
1.9967,-279.3,-312.9,-3867.9,-299.4,-240.3,-271.8,-319.5,-2667.3,-2593.5,260.7,-237.9,-120.0,-9830.1,-9827.4,-9830.1,-9113.4,-6.9,-5.7,-427.2,-2488.8,-0.9,-153.9,-5.7,-667.2,0,3594,2717908992,88,0, 
2.0000,-285.0,-321.0,-1716.9,-306.0,-190.8,-284.4,-297.9,-2666.4,-2000.7,258.6,-240.6,-126.0,-9830.1,-9827.4,-9589.2,-8192.7,-7.2,-6.0,-424.2,-2493.3,-0.6,-162.3,-5.1,-666.9,0,3600,2717908992,89,0, 
2.0033,-283.8,-322.2,-74.4,-303.3,-140.1,-275.1,-288.6,-2669.4,-2445.3,255.9,-244.5,-127.8,-9830.1,-9827.4,-8744.7,-7027.2,-6.9,-6.0,-431.7,-2492.4,-0.9,-168.3,3.3,-654.6,0,3606,2717908992,90,0, 
2.0067,-278.4,-315.6,-1155.9,-297.9,-202.2,-276.3,-303.6,-2662.5,-3038.1,254.1,-239.7,-122.4,-9830.1,-9827.4,-9780.6,-7257.9,-6.9,-6.0,-426.9,-2481.0,-0.6,-161.1,-0.3,-651.0,0,3612,2717908992,91,0, 
2.0100,-283.8,-331.8,-3481.8,-306.0,-275.1,-280.5,-323.4,-2666.7,-3186.3,251.1,-248.1,-131.4,-9830.1,-9827.4,-9809.1,-8470.5,-7.2,-6.0,-436.8,-2488.5,-1.2,-152.7,-7.8,-654.0,0,3618,2717908992,92,0, 
2.0133,-282.0,-325.8,-3857.4,-308.1,-255.0,-284.4,-320.7,-2666.4,-2593.5,250.5,-244.5,-127.2,-9830.1,-9827.4,-9830.1,-9051.9,-7.2,-6.0,-431.1,-2479.5,-1.2,-164.1,-15.9,-661.5,0,3624,2717908992,93,0, 
2.0167,-283.2,-329.1,-1706.7,-308.1,-165.3,-279.9,-301.5,-2662.5,-2000.7,248.1,-249.3,-129.9,-9830.1,-9827.4,-9548.7,-8111.4,-6.9,-5.4,-438.0,-2492.7,-0.9,-164.4,-8.1,-643.2,0,3630,2717908992,94,0, 
2.0200,-279.6,-321.9,-66.3,-309.0,-153.3,-279.0,-281.7,-2655.3,-2371.2,254.1,-244.5,-129.6,-9830.1,-9827.4,-8801.7,-6950.4,-6.3,-6.0,-430.2,-2487.6,-0.6,-169.5,-7.2,-639.3,0,3636,2717908992,95,0, 
