Time,P3,C3,F3,Fz,F4,C4,P4,Cz,CM,A1,Fp1,Fp2,T3,T5,O1,O2,X3,X2,F7,F8,X1,A2,T6,T4,Trigger,Time_Offset,ADC_Status,ADC_Sequence,Event,Comments
0.0033,-21.9,-7.2,-1479.3,-76.2,-195.9,-146.4,-31.8,231.0,-2667.6,-27.0,-142.8,-154.5,-4213.2,-4394.4,-2816.4,-1185.0,-6.9,-6.0,-29.7,-48.6,-0.9,62.1,105.3,-104.4,0,6,0,14,0, 
0.0067,-21.9,-3.0,-1523.7,-79.2,-182.4,-148.8,-22.2,232.2,-2371.2,-30.3,-144.0,-159.9,-4088.1,-4476.3,-2640.9,-1266.3,-6.9,-5.7,-35.1,-50.7,-0.9,61.8,107.4,-103.8,0,12,0,15,0, 
0.0100,-24.6,-9.0,-1578.9,-80.1,-162.0,-153.9,-15.3,231.9,-2371.2,-30.6,-145.5,-160.8,-4202.1,-4827.6,-2232.6,-796.2,-6.6,-6.0,-36.9,-48.9,-1.2,57.0,110.7,-108.3,0,18,0,16,0, 
0.0133,-26.1,-9.9,-1671.6,-84.3,-183.3,-152.1,-20.4,234.0,-2519.4,-31.2,-153.0,-166.8,-4421.4,-5070.0,-2328.9,-570.0,-7.5,-5.7,-42.0,-54.3,-0.6,49.5,102.9,-108.0,0,24,0,17,0, 
0.0167,-27.9,-15.0,-1554.0,-88.8,-189.6,-168.0,-24.0,228.0,-2667.6,-39.0,-152.4,-165.6,-4285.5,-4764.0,-2570.7,-828.6,-6.9,-6.0,-40.2,-49.5,-0.9,48.6,100.5,-115.5,0,30,0,18,0, 
0.0200,-23.1,-12.6,-1413.6,-86.7,-179.7,-166.5,-34.2,227.4,-2445.3,-32.1,-152.7,-165.6,-3901.8,-4356.0,-2718.6,-1184.1,-6.9,-5.4,-39.6,-54.3,-0.9,49.8,95.1,-120.0,0,36,0,19,0, 
0.0233,-21.3,-11.1,-1491.6,-83.7,-188.7,-165.0,-25.8,235.5,-2445.3,-31.8,-149.1,-165.0,-3827.1,-4422.0,-2497.5,-1175.7,-6.6,-6.0,-36.6,-49.5,-0.9,54.9,104.4,-111.9,0,42,0,20,0, 
0.0267,-22.8,-9.9,-1527.9,-83.7,-177.6,-159.3,-21.3,231.0,-2445.3,-37.5,-151.5,-164.7,-3961.5,-4775.7,-2221.5,-782.7,-7.2,-5.7,-43.5,-56.1,-0.6,53.7,106.2,-110.7,0,48,0,21,0, 
0.0300,-24.3,-13.2,-1591.5,-85.8,-180.0,-161.4,-28.5,228.0,-2519.4,-31.5,-146.1,-161.4,-4190.7,-4966.5,-2235.0,-508.5,-7.2,-5.7,-40.8,-54.3,-0.9,53.7,102.3,-109.5,0,54,0,22,0, 
0.0333,-24.3,-1.2,-1536.0,-82.8,-191.7,-164.4,-31.5,232.2,-2297.1,-33.6,-151.5,-168.3,-4106.4,-4671.3,-2602.8,-750.6,-7.2,-6.0,-45.6,-57.0,-0.9,51.6,97.2,-113.4,0,60,0,23,0, 
0.0367,-22.5,-7.5,-1369.5,-86.7,-204.9,-165.0,-29.1,233.4,-2519.4,-27.3,-149.7,-166.5,-3786.3,-4260.6,-2734.8,-1095.3,-6.9,-5.7,-38.4,-51.9,-0.6,49.2,97.8,-120.0,0,66,0,24,0, 
0.0400,-23.4,-13.5,-1414.5,-90.0,-179.7,-158.4,-24.0,225.9,-2445.3,-35.4,-160.8,-172.2,-3703.2,-4357.5,-2541.6,-1102.2,-7.2,-6.0,-53.7,-54.9,-0.6,47.7,99.9,-115.5,0,72,0,25,0, 
0.0433,-17.7,-11.1,-1496.1,-88.5,-173.1,-154.8,-14.1,229.2,-2445.3,-35.7,-155.1,-170.7,-3927.0,-4797.3,-2191.5,-673.2,-6.9,-5.7,-50.7,-53.4,-0.6,53.7,110.1,-117.0,0,78,0,26,0, 
0.0467,-18.0,-9.3,-1524.3,-84.6,-176.4,-154.5,-7.5,230.7,-2519.4,-32.7,-151.8,-159.9,-4138.8,-4912.2,-2127.6,-423.9,-6.9,-6.0,-44.7,-46.8,-0.3,58.2,114.3,-111.3,0,84,0,27,0, 
0.0500,-15.9,-12.0,-1397.1,-79.8,-183.6,-150.3,-15.9,232.5,-2519.4,-30.6,-146.4,-151.8,-3993.3,-4599.3,-2481.3,-622.8,-6.9,-6.0,-38.4,-36.0,-1.2,63.0,109.2,-113.7,0,90,0,28,0, 
0.0533,-19.2,-7.5,-1322.1,-81.9,-166.5,-151.8,-16.5,231.9,-2519.4,-36.0,-156.0,-165.6,-3710.7,-4255.2,-2728.8,-1035.9,-6.9,-6.0,-50.1,-42.6,-0.6,59.7,105.3,-115.2,0,96,0,29,0, 
0.0567,-21.9,-6.3,-1389.3,-80.4,-168.6,-155.1,-13.8,230.7,-2445.3,-42.3,-149.4,-164.4,-3570.6,-4288.8,-2501.1,-1010.1,-6.6,-5.4,-43.8,-42.0,-0.9,57.6,107.4,-121.5,0,102,0,30,0, 
0.0600,-15.0,0.9,-1475.1,-77.7,-153.0,-149.1,-8.7,238.5,-2445.3,-45.0,-152.1,-156.9,-3767.1,-4673.1,-2198.4,-651.0,-6.9,-5.7,-48.6,-49.2,-0.9,57.0,106.8,-108.3,0,108,0,31,0, 
0.0633,-16.8,-4.8,-1449.6,-71.4,-174.3,-150.3,-8.1,239.7,-2519.4,-40.8,-144.0,-153.0,-3906.3,-4805.7,-2094.6,-313.5,-6.9,-6.0,-38.7,-45.3,-0.9,71.4,101.7,-115.8,0,114,0,32,0, 
0.0667,-22.8,-8.7,-1377.9,-74.1,-179.7,-155.1,-21.3,238.8,-2593.5,-43.8,-151.2,-160.2,-3842.7,-4587.9,-2504.7,-624.6,-7.2,-5.7,-45.3,-51.6,-0.9,53.4,93.6,-120.0,0,120,0,33,0, 
0.0700,-21.3,-9.3,-1145.1,-69.9,-166.8,-154.5,-25.5,237.9,-2593.5,-36.0,-144.6,-153.0,-3454.8,-4152.0,-2626.2,-994.8,-7.2,-5.7,-37.2,-46.8,-0.9,53.1,93.0,-112.8,0,126,0,34,0, 
0.0733,-15.0,-4.5,-1100.1,-69.3,-160.8,-144.3,-11.4,239.1,-2371.2,-42.3,-146.1,-155.1,-3265.2,-4201.5,-2364.0,-967.5,-7.5,-6.0,-42.6,-45.9,-1.2,50.1,94.5,-113.7,0,132,0,35,0, 
0.0767,-12.6,-4.8,-1273.5,-66.0,-162.3,-147.9,-9.6,236.7,-2445.3,-44.4,-144.0,-151.5,-3497.7,-4692.9,-2081.7,-588.6,-6.9,-5.7,-38.4,-52.2,-1.2,63.3,96.3,-97.5,0,138,0,36,0, 
0.0800,-12.9,5.7,-1236.0,-54.9,-159.0,-150.3,-2.4,243.6,-2445.3,-36.0,-137.1,-146.4,-3730.5,-4735.5,-2048.7,-338.7,-6.9,-5.7,-32.4,-47.1,-0.6,59.7,100.8,-104.4,0,144,0,37,0, 
0.0833,-10.5,6.6,-1135.5,-49.2,-155.4,-147.3,-10.8,244.8,-2593.5,-29.4,-126.9,-136.8,-3607.5,-4492.2,-2439.3,-600.6,-6.6,-5.7,-21.0,-33.6,-1.2,70.5,100.8,-99.3,0,150,0,38,0, 
0.0867,-12.0,8.1,-1000.8,-52.5,-165.6,-148.8,-13.8,240.9,-2445.3,-27.3,-128.1,-137.4,-3282.6,-4047.0,-2628.0,-993.9,-6.9,-5.7,-24.6,-36.0,-1.2,66.3,93.6,-101.4,0,156,0,39,0, 
0.0900,-12.9,10.8,-945.9,-51.0,-154.2,-144.3,-5.7,237.6,-2519.4,-28.8,-126.0,-129.6,-3086.4,-4145.1,-2351.4,-1045.8,-7.5,-5.7,-23.7,-32.7,-0.9,75.9,96.3,-94.5,0,162,0,40,0, 
0.0933,-8.4,8.1,-1094.1,-48.9,-143.4,-146.4,-2.4,245.1,-2371.2,-21.9,-119.7,-127.8,-3242.7,-4467.0,-1959.6,-544.2,-6.3,-6.0,-16.8,-28.8,-0.9,73.8,100.2,-90.3,0,168,0,41,0, 
0.0967,-13.8,-0.3,-1086.9,-57.6,-146.1,-153.6,-14.4,239.1,-2445.3,-35.1,-126.0,-141.3,-3390.9,-4670.7,-1963.5,-326.1,-6.9,-6.0,-28.2,-37.2,-0.6,72.3,105.3,-91.2,0,174,0,42,0, 
0.1000,-14.7,5.4,-1038.0,-60.9,-172.2,-154.2,-17.4,233.7,-2593.5,-30.9,-131.7,-141.3,-3290.1,-4335.3,-2305.5,-575.7,-7.2,-6.0,-29.4,-42.9,-0.9,58.5,98.7,-93.9,0,180,0,43,0, 
0.1033,-12.9,2.4,-918.0,-57.6,-180.0,-156.9,-22.5,229.5,-2519.4,-30.6,-123.9,-137.4,-2946.9,-3973.5,-2536.8,-938.7,-6.6,-5.7,-13.8,-46.5,-0.9,65.7,96.6,-102.3,0,186,0,44,0, 
0.1067,-17.1,4.2,-900.0,-62.4,-153.9,-153.3,-13.5,230.1,-2519.4,-29.4,-134.4,-139.5,-2831.4,-4047.0,-2237.1,-928.5,-7.2,-6.0,-27.9,-50.1,-0.6,62.1,104.7,-90.9,0,192,0,45,0, 
0.1100,-15.3,7.8,-986.7,-57.6,-141.3,-153.3,-9.6,229.5,-2519.4,-26.7,-125.7,-132.6,-2993.1,-4406.7,-1921.5,-518.4,-6.9,-5.7,-22.8,-43.2,-0.9,63.3,108.3,-85.2,0,198,0,46,0, 
0.1133,-13.5,9.9,-1068.9,-56.1,-158.4,-148.2,-7.8,230.7,-2519.4,-30.9,-129.0,-138.9,-3168.3,-4581.3,-1941.6,-279.9,-6.9,-6.3,-21.3,-46.8,-1.2,70.5,110.4,-78.6,0,204,0,47,0, 
0.1167,-12.9,11.1,-908.4,-51.9,-147.9,-143.4,-10.2,234.6,-2667.6,-20.4,-122.7,-131.7,-3033.3,-4266.6,-2214.0,-522.0,-7.2,-6.0,-16.5,-39.0,-0.9,77.4,110.4,-80.1,0,210,0,48,0, 
0.1200,-15.0,11.7,-794.4,-57.3,-171.0,-146.7,-8.4,236.1,-2519.4,-24.9,-124.8,-131.4,-2646.9,-3855.0,-2364.3,-899.7,-7.2,-6.0,-17.4,-40.2,-0.9,75.0,111.0,-81.6,0,216,0,49,0, 
0.1233,-14.4,12.3,-800.7,-52.2,-144.6,-138.6,-5.4,242.1,-2519.4,-20.7,-116.7,-129.6,-2507.7,-3921.6,-2164.2,-868.2,-6.9,-6.0,-11.4,-36.0,-0.6,75.3,121.2,-70.5,0,222,0,50,0, 
0.1267,-15.9,13.5,-949.2,-54.9,-143.4,-144.6,2.4,240.6,-2297.1,-28.8,-120.6,-133.2,-2649.9,-4257.3,-1816.8,-400.5,-6.6,-5.7,-15.3,-38.4,-1.2,73.5,124.2,-70.8,0,228,0,51,0, 
0.1300,-14.1,14.1,-967.8,-49.2,-142.2,-134.1,5.7,244.5,-2445.3,-19.2,-114.3,-124.8,-2829.0,-4398.0,-1860.0,-190.2,-7.5,-5.7,-7.5,-29.4,-0.9,81.3,116.7,-78.0,0,234,0,52,0, 
0.1333,-13.2,8.4,-851.4,-50.4,-153.9,-136.8,-9.9,243.0,-2445.3,-19.2,-115.5,-130.8,-2730.0,-4135.2,-2239.5,-462.3,-6.9,-6.0,-6.3,-33.0,-1.2,79.8,119.7,-76.5,0,240,0,53,0, 
0.1367,-13.8,10.8,-687.0,-52.5,-143.1,-141.6,-16.2,237.9,-2667.6,-17.7,-114.0,-129.3,-2345.4,-3782.1,-2437.8,-801.6,-6.9,-6.0,-9.6,-28.5,-0.9,87.0,115.8,-75.9,0,246,0,54,0, 
0.1400,-15.3,10.5,-695.4,-57.6,-147.6,-143.1,-18.6,237.0,-2445.3,-25.5,-122.7,-129.0,-2197.5,-3808.5,-2183.4,-817.5,-7.2,-6.3,-19.2,-36.6,-1.2,76.2,119.1,-82.2,0,252,0,55,0, 
0.1433,-20.7,4.8,-813.0,-58.2,-145.2,-143.1,-10.5,232.8,-2445.3,-24.0,-127.5,-135.0,-2403.0,-4219.8,-1713.9,-368.4,-7.2,-6.3,-20.1,-33.0,-0.9,65.7,117.6,-79.8,0,258,0,56,0, 
0.1467,-15.3,8.1,-852.0,-57.0,-159.6,-155.7,-6.9,233.7,-2445.3,-30.0,-123.6,-137.7,-2574.3,-4339.2,-1760.1,-162.6,-7.2,-6.0,-20.1,-37.5,-1.2,61.8,114.0,-86.1,0,264,0,57,0, 
0.1500,-13.2,2.7,-673.5,-54.9,-156.0,-153.0,-15.3,234.3,-2519.4,-34.8,-127.5,-143.4,-2334.6,-3995.4,-1979.4,-402.6,-7.5,-6.0,-22.2,-33.9,-0.6,60.9,109.5,-90.6,0,270,0,58,0, 
0.1533,-10.2,4.5,-552.9,-55.5,-171.9,-153.3,-11.7,235.5,-2445.3,-31.2,-124.8,-137.1,-1992.0,-3657.9,-2249.1,-846.6,-6.9,-6.0,-30.9,-42.0,-0.9,65.1,105.3,-86.7,0,276,0,59,0, 
0.1567,-10.8,8.1,-470.1,-52.8,-149.1,-146.4,-10.8,241.2,-2223.0,-33.6,-119.4,-126.0,-1799.4,-3659.7,-1971.9,-761.4,-6.9,-6.0,-16.8,-36.0,-0.6,68.4,104.4,-75.0,0,282,0,60,0, 
0.1600,-10.2,11.4,-643.5,-51.0,-136.8,-152.1,6.6,237.9,-2445.3,-22.5,-114.9,-123.6,-1986.9,-4053.6,-1720.5,-389.7,-6.9,-6.0,-12.0,-36.6,-1.2,79.2,111.6,-76.2,0,288,0,61,0, 
0.1633,-10.2,9.9,-671.7,-45.6,-130.8,-141.9,-6.0,244.8,-2519.4,-23.4,-113.4,-120.9,-2204.4,-4255.5,-1674.0,-139.5,-7.2,-6.0,-7.8,-23.7,-0.9,76.8,114.6,-73.8,0,294,0,62,0, 
0.1667,-11.1,2.1,-505.5,-53.4,-152.7,-149.1,-5.4,239.1,-2593.5,-26.7,-121.5,-124.8,-2029.2,-3897.9,-1962.9,-356.1,-6.9,-6.3,-20.4,-26.4,-0.6,75.3,108.0,-78.0,0,300,0,63,0, 
0.1700,-14.4,6.0,49.2,-56.4,-120.0,-149.1,-10.2,244.5,-2519.4,-24.3,-125.1,-134.7,-1408.8,-3323.1,-1626.9,-414.9,-7.2,-5.4,-25.5,-36.0,-1.2,61.5,109.2,-79.5,0,306,0,64,0, 
0.1733,-20.4,-7.5,-138.9,-61.8,-140.7,-160.5,-23.7,237.0,-2371.2,-31.8,-135.0,-147.0,-1421.1,-3528.9,-1623.3,-564.9,-6.9,-5.7,-35.4,-43.8,-0.6,60.0,102.0,-87.3,0,312,0,65,0, 
0.1767,-22.2,-8.7,-310.5,-60.6,-127.8,-150.3,-23.4,240.6,-2371.2,-28.8,-134.7,-138.0,-1672.2,-3941.1,-1467.3,-244.2,-7.2,-6.0,-33.9,-30.9,-0.6,65.4,113.7,-74.4,0,318,0,66,0, 
0.1800,-19.8,-4.8,-436.2,-51.9,-122.1,-148.5,-15.0,237.6,-2519.4,-21.3,-120.0,-123.9,-1878.0,-4096.2,-1464.6,-40.2,-7.2,-6.0,-15.3,-22.2,-0.9,74.4,111.3,-73.2,0,324,0,67,0, 
0.1833,-15.9,-0.9,-335.4,-55.5,-147.0,-151.5,-18.6,236.4,-2519.4,-17.7,-112.2,-119.7,-1744.8,-3731.1,-1829.4,-344.4,-6.9,-6.0,-12.9,-17.7,-0.9,87.3,115.5,-71.1,0,330,0,68,0, 
0.1867,-18.9,-4.5,-223.2,-49.2,-136.8,-133.8,-8.4,240.0,-2519.4,-15.9,-103.8,-112.5,-1484.7,-3351.6,-2014.8,-744.6,-6.6,-5.7,-14.7,-15.3,-0.9,77.1,113.1,-66.9,0,336,0,69,0, 
0.1900,-20.1,-9.0,-252.9,-53.1,-130.5,-145.5,-18.9,235.5,-2445.3,-8.4,-100.8,-109.8,-1354.8,-3415.8,-1778.7,-730.8,-7.2,-6.0,-12.0,-4.5,-0.9,87.6,112.5,-62.7,0,342,0,70,0, 
0.1933,-14.7,4.5,-369.0,-47.4,-116.7,-139.5,-4.5,239.1,-2297.1,-19.2,-109.2,-113.1,-1476.3,-3806.4,-1372.2,-283.5,-6.9,-6.0,-15.6,-16.2,-0.9,86.4,119.7,-63.3,0,348,0,71,0, 
0.1967,-16.5,3.6,-421.5,-49.5,-137.4,-141.6,-6.6,239.4,-2445.3,-13.8,-112.2,-115.5,-1620.3,-3981.0,-1468.2,-64.8,-7.5,-6.0,-21.6,-11.4,-1.2,86.1,120.6,-63.6,0,354,0,72,0, 
0.2000,-12.9,3.9,-342.3,-49.8,-151.5,-138.0,-14.4,241.8,-2519.4,-14.4,-109.8,-110.1,-1476.9,-3636.3,-1753.8,-331.5,-6.9,-6.0,-12.6,-7.5,-0.9,91.8,118.8,-66.3,0,360,0,73,0, 
0.2033,-15.9,6.3,-221.1,-52.8,-159.6,-143.1,-23.7,242.4,-2667.6,-22.5,-114.3,-113.1,-1123.5,-3244.2,-1903.2,-727.8,-7.2,-5.7,-21.6,-6.6,-0.6,87.0,106.8,-70.8,0,366,0,74,0, 
0.2067,-15.3,2.7,-224.4,-56.4,-147.3,-142.5,-9.6,243.0,-2223.0,-25.8,-120.6,-122.1,-957.3,-3320.1,-1634.4,-643.8,-7.2,-6.0,-24.6,-11.1,-0.9,81.3,111.9,-72.0,0,372,0,75,0, 
0.2100,-12.9,4.8,-330.9,-63.0,-141.6,-146.1,-12.9,237.6,-2445.3,-30.9,-129.3,-132.3,-1147.2,-3704.4,-1283.7,-238.2,-6.9,-6.0,-36.6,-22.8,-0.9,74.7,113.1,-77.7,0,378,0,76,0, 
0.2133,-14.4,3.9,-321.6,-61.2,-147.9,-147.3,-9.6,237.3,-2445.3,-30.0,-123.3,-127.2,-1329.0,-3873.3,-1256.7,-58.2,-6.6,-6.3,-31.2,-14.1,-0.9,76.5,114.3,-75.9,0,384,0,77,0, 
0.2167,-11.7,8.4,-191.1,-57.6,-160.8,-142.5,-18.9,235.2,-2593.5,-24.9,-118.8,-119.1,-1219.5,-3510.6,-1643.7,-272.7,-7.2,-6.0,-24.3,-15.6,-0.3,73.2,113.7,-79.2,0,390,0,78,0, 
0.2200,-16.2,4.5,13.8,-59.1,-157.5,-142.8,-21.6,233.4,-2445.3,-24.9,-120.9,-122.7,-834.3,-3162.0,-1710.0,-669.9,-6.9,-5.7,-32.4,-18.3,-1.5,77.7,111.9,-82.5,0,396,0,79,0, 
0.2233,-19.2,3.9,-18.6,-60.9,-156.3,-142.8,-20.1,232.5,-2519.4,-29.4,-125.4,-126.9,-756.9,-3241.2,-1487.7,-642.3,-6.9,-6.3,-33.0,-19.2,-0.9,76.2,112.8,-75.6,0,402,0,80,0, 
0.2267,-19.2,-0.6,-136.8,-59.1,-147.3,-138.3,-8.1,228.3,-2297.1,-26.4,-120.0,-123.3,-915.6,-3619.5,-1156.2,-248.4,-6.9,-5.7,-26.4,-14.4,-0.9,79.8,117.3,-73.8,0,408,0,81,0, 
0.2300,-19.8,3.3,-207.6,-63.3,-147.6,-139.8,-1.8,228.3,-2445.3,-31.2,-128.7,-132.6,-1157.7,-3771.0,-1162.8,-30.6,-6.9,-6.3,-31.2,-21.0,-0.6,80.1,122.7,-72.6,0,414,0,82,0, 
0.2333,-17.7,-0.6,-125.7,-68.1,-163.2,-141.9,-7.2,225.9,-2593.5,-32.1,-132.0,-133.8,-955.2,-3427.5,-1449.0,-271.2,-7.2,-5.7,-37.2,-22.8,-0.9,76.2,118.8,-77.1,0,420,0,83,0, 
0.2367,-22.2,-6.3,9.9,-71.1,-160.5,-145.8,-17.7,217.8,-2593.5,-35.1,-131.4,-130.5,-632.1,-3062.7,-1684.2,-643.5,-7.2,-6.0,-35.4,-21.9,-0.6,71.4,113.7,-76.2,0,426,0,84,0, 
0.2400,-19.5,-5.1,57.0,-72.6,-147.9,-142.5,-7.2,220.5,-2371.2,-32.4,-138.3,-139.8,-469.2,-3099.3,-1362.0,-583.2,-6.9,-5.7,-43.2,-29.7,-1.2,73.5,116.7,-76.5,0,432,0,85,0, 
0.2433,-24.6,-13.8,-73.2,-77.1,-148.8,-147.9,-5.1,214.8,-2445.3,-36.6,-143.1,-143.4,-699.0,-3459.0,-999.3,-156.6,-7.2,-6.0,-43.8,-34.2,-0.9,64.2,118.2,-74.7,0,438,0,86,0, 
0.2467,-21.0,-4.2,-115.5,-73.5,-155.4,-153.0,-7.2,220.2,-2519.4,-34.2,-144.3,-140.7,-894.3,-3669.6,-1080.9,18.9,-6.9,-5.7,-49.2,-27.9,-0.9,68.1,113.1,-81.3,0,444,0,87,0, 
0.2500,-15.9,-4.2,8.1,-70.5,-161.4,-143.1,-0.3,232.2,-2593.5,-29.4,-136.8,-134.7,-784.8,-3330.6,-1409.7,-208.5,-7.5,-6.0,-39.0,-27.6,-0.6,67.2,115.2,-71.1,0,450,0,88,0, 
0.2533,-17.4,-8.7,131.7,-66.3,-155.1,-153.9,-16.2,229.5,-2593.5,-30.6,-134.7,-132.6,-452.7,-2924.4,-1577.7,-592.8,-7.5,-5.7,-38.7,-19.8,-0.9,76.2,107.1,-70.8,0,456,0,89,0, 
0.2567,-17.1,-0.9,153.0,-64.2,-158.7,-147.0,-19.5,234.0,-2371.2,-31.5,-132.0,-132.9,-328.5,-3036.9,-1323.0,-521.7,-6.9,-6.0,-33.9,-27.3,-0.6,70.8,113.4,-74.7,0,462,0,90,0, 
0.2600,-18.3,-6.9,42.0,-63.0,-151.5,-153.6,-0.3,234.0,-2371.2,-30.3,-130.5,-131.7,-501.3,-3430.8,-998.7,-107.4,-6.6,-5.7,-33.6,-23.7,-0.3,69.0,118.2,-70.5,0,468,0,91,0, 
0.2633,-18.0,-1.8,-60.9,-64.8,-157.8,-154.2,-9.9,233.1,-2445.3,-30.6,-135.3,-133.8,-700.5,-3524.1,-1045.8,124.5,-7.2,-6.0,-37.2,-29.7,-0.6,72.3,112.8,-73.5,0,474,0,92,0, 
0.2667,-14.4,-1.8,9.6,-65.7,-169.8,-152.4,-15.0,240.3,-2519.4,-28.2,-124.8,-124.8,-551.7,-3276.0,-1387.8,-174.6,-6.9,-5.4,-27.6,-17.1,-0.9,72.9,111.3,-77.4,0,480,0,93,0, 
0.2700,-14.4,3.9,119.1,-61.8,-175.2,-147.9,-18.9,242.4,-2519.4,-26.4,-123.9,-123.3,-254.4,-2862.9,-1509.3,-616.5,-6.6,-6.3,-31.8,-15.9,-0.6,77.7,113.4,-75.3,0,486,0,94,0, 
0.2733,-19.2,-0.9,115.8,-67.5,-170.7,-153.6,-6.6,241.2,-2519.4,-28.8,-127.5,-131.4,-81.6,-2939.1,-1271.7,-528.9,-7.2,-5.7,-30.6,-27.9,-0.9,73.2,115.5,-71.4,0,492,0,95,0, 
0.2767,-13.2,-2.1,-17.7,-65.1,-161.1,-150.9,-8.4,244.8,-2297.1,-31.2,-131.4,-132.9,-299.4,-3335.1,-996.3,-165.3,-6.9,-5.7,-33.9,-29.7,-1.2,67.2,118.5,-69.3,0,498,0,96,0, 
0.2800,-17.4,-3.6,-76.8,-65.7,-156.9,-150.6,-7.2,250.5,-2445.3,-33.3,-133.5,-131.7,-443.7,-3439.8,-952.8,88.2,-6.9,-5.7,-31.8,-24.9,-0.9,70.8,117.9,-65.7,0,504,0,97,0, 
0.2833,-13.2,-2.7,42.9,-65.1,-168.9,-146.7,-7.2,256.8,-2593.5,-36.3,-132.6,-132.6,-344.1,-3154.2,-1316.7,-263.4,-6.6,-6.3,-34.8,-22.8,-0.9,70.8,119.7,-72.6,0,510,0,98,0, 
0.2867,-18.9,-8.1,189.6,-66.6,-171.0,-142.2,-16.2,263.4,-2297.1,-33.9,-133.8,-135.0,1.5,-2795.7,-1511.4,-674.4,-6.9,-5.7,-32.7,-27.0,-1.2,72.3,112.2,-68.7,0,516,0,99,0, 
0.2900,-16.8,-1.2,180.6,-70.5,-168.9,-148.2,-17.7,257.1,-2371.2,-37.2,-141.0,-141.9,96.3,-2848.8,-1246.5,-647.4,-6.6,-5.4,-42.0,-30.3,-0.9,66.0,119.1,-71.7,0,522,0,100,0, 
0.2933,-18.0,-3.9,58.2,-68.4,-152.1,-145.5,-6.9,256.5,-2223.0,-36.6,-141.0,-139.5,-120.0,-3254.1,-975.3,-190.2,-6.9,-6.0,-37.5,-23.1,-0.6,68.4,122.1,-66.3,0,528,0,101,0, 
0.2967,-15.0,-3.6,-46.2,-69.9,-169.8,-144.3,3.9,252.9,-2371.2,-35.1,-144.9,-144.0,-339.9,-3447.9,-1014.9,8.7,-6.9,-5.7,-48.0,-32.1,-0.9,63.0,123.9,-66.9,0,534,0,102,0, 
0.3000,-14.7,-1.5,133.5,-69.0,-193.5,-146.4,1.5,252.0,-2519.4,-39.6,-136.8,-140.1,-192.6,-3107.7,-1346.4,-278.1,-6.6,-6.0,-36.6,-29.4,-1.2,62.4,125.7,-73.8,0,540,0,103,0, 
0.3033,-12.3,-3.3,243.3,-67.8,-192.9,-146.1,-4.8,252.3,-2445.3,-32.1,-141.0,-146.1,148.8,-2745.9,-1440.6,-589.2,-6.9,-6.0,-45.3,-32.4,-0.9,60.9,127.8,-77.1,0,546,0,104,0, 
0.3067,-16.8,-8.4,219.0,-74.4,-176.4,-146.7,-6.3,252.0,-2297.1,-42.9,-145.8,-153.0,297.9,-2759.1,-1207.2,-601.8,-6.6,-6.0,-45.6,-35.4,-1.2,53.7,124.8,-78.9,0,552,0,105,0, 
0.3100,-15.9,-14.4,50.1,-78.0,-174.6,-150.9,6.6,249.6,-2445.3,-51.0,-153.3,-155.4,43.2,-3189.0,-934.8,-161.7,-7.2,-6.0,-54.3,-43.5,-0.9,60.3,126.0,-72.6,0,558,0,106,0, 
0.3133,-19.2,-17.1,-40.5,-79.5,-189.9,-153.0,-6.9,247.2,-2445.3,-56.7,-158.1,-156.9,-128.7,-3362.1,-908.4,54.0,-6.9,-6.0,-59.4,-53.4,-0.9,56.4,125.1,-67.8,0,564,0,107,0, 
0.3167,-21.3,-15.6,115.2,-78.9,-184.5,-157.5,-7.5,246.0,-2667.6,-57.6,-152.7,-148.8,24.3,-2986.8,-1159.8,-174.3,-6.9,-6.3,-60.6,-42.9,-0.6,56.1,122.7,-76.2,0,570,0,108,0, 
0.3200,-23.1,-16.8,261.3,-77.1,-180.3,-147.3,-10.8,244.2,-2519.4,-49.5,-149.7,-147.3,342.6,-2695.8,-1451.7,-550.2,-6.9,-6.0,-53.4,-44.4,-1.2,44.7,117.9,-76.2,0,576,0,109,0, 
0.3233,-23.1,-10.5,186.9,-81.6,-165.6,-149.4,-7.8,239.1,-2519.4,-51.9,-159.6,-153.3,467.1,-2708.7,-1179.0,-516.0,-6.9,-5.7,-59.7,-45.9,-0.9,55.2,119.7,-65.4,0,582,0,110,0, 
0.3267,-25.2,-9.0,77.1,-78.3,-159.0,-157.2,-8.4,236.4,-2297.1,-52.2,-152.4,-146.1,255.0,-3139.5,-798.3,-138.0,-6.6,-5.7,-51.3,-43.2,-0.9,57.6,117.3,-69.0,0,588,0,111,0, 
0.3300,-22.8,-7.8,-16.2,-77.7,-153.0,-152.1,-13.8,236.1,-2519.4,-57.0,-146.1,-141.6,-1.8,-3287.1,-859.8,55.8,-6.6,-5.7,-51.9,-44.1,-0.6,51.3,115.5,-64.5,0,594,0,112,0, 
0.3333,-26.1,-16.2,130.5,-78.9,-162.0,-151.2,-20.7,236.4,-2593.5,-51.3,-144.3,-139.5,165.9,-2978.4,-1104.0,-194.7,-6.6,-6.0,-52.8,-41.7,-0.6,44.4,109.2,-61.2,0,600,0,113,0, 
0.3367,-17.7,-4.2,305.7,-69.0,-160.8,-150.6,-20.1,247.5,-2519.4,-44.7,-136.8,-134.7,426.0,-2570.1,-1261.5,-587.1,-6.9,-5.4,-43.2,-37.5,-1.2,57.9,116.1,-66.0,0,606,0,114,0, 
0.3400,-24.0,-4.8,131.7,-63.9,-153.0,-147.3,-15.6,250.8,-2297.1,-44.4,-135.0,-129.9,538.8,-2686.2,-1083.9,-569.4,-6.9,-6.0,-42.0,-31.8,-1.5,63.0,118.5,-67.5,0,612,0,115,0, 
0.3433,-17.7,-2.1,101.1,-60.6,-146.7,-151.5,-12.3,252.0,-2519.4,-38.1,-129.6,-126.0,336.3,-3050.1,-769.8,-133.5,-6.6,-5.7,-32.4,-26.4,-1.2,70.5,118.2,-55.5,0,618,0,116,0, 
0.3467,-23.1,-9.9,-12.9,-62.1,-158.1,-154.5,0.0,248.7,-2445.3,-41.1,-131.1,-129.3,155.7,-3206.1,-750.3,54.0,-6.6,-5.7,-34.8,-35.1,-0.6,70.5,116.4,-56.4,0,624,0,117,0, 
0.3500,-14.4,-3.6,162.9,-63.0,-168.9,-160.5,-13.2,248.4,-2445.3,-39.9,-129.9,-126.6,284.4,-2908.5,-1066.2,-120.0,-6.9,-5.7,-34.2,-27.0,-0.9,70.5,117.6,-54.0,0,630,0,118,0, 
0.3533,-17.4,-7.8,211.2,-61.8,-182.7,-157.8,-23.4,247.8,-2519.4,-38.1,-124.8,-123.6,530.7,-2533.8,-1307.1,-593.4,-6.9,-6.0,-30.0,-25.8,-1.2,74.7,111.3,-65.4,0,636,0,119,0, 
0.3567,-15.9,-7.5,237.3,-64.5,-167.1,-163.5,-18.0,250.5,-2445.3,-35.7,-129.3,-123.9,632.7,-2629.8,-1051.5,-524.1,-6.6,-5.7,-31.2,-30.3,-0.6,70.5,109.2,-60.9,0,642,0,120,0, 
0.3600,-18.6,-12.0,42.0,-60.9,-151.8,-157.2,-12.6,250.2,-2445.3,-36.6,-122.4,-116.7,427.2,-3052.5,-747.9,-154.5,-6.9,-6.0,-27.3,-25.5,-0.6,67.8,110.1,-63.9,0,648,0,121,0, 
0.3633,-14.7,-7.8,21.9,-60.9,-150.6,-157.5,-18.0,249.0,-2371.2,-32.4,-120.6,-117.9,192.9,-3112.8,-774.0,79.8,-6.6,-5.4,-27.0,-30.3,-1.2,51.0,105.0,-66.0,0,654,0,122,0, 
0.3667,-16.2,-7.5,140.7,-60.3,-172.5,-154.5,-26.4,242.1,-2519.4,-36.3,-120.0,-117.0,254.1,-2842.8,-1035.0,-220.5,-6.6,-5.7,-22.8,-25.2,-0.9,66.6,107.4,-67.2,0,660,0,123,0, 
0.3700,-16.5,-15.3,309.6,-63.9,-201.9,-156.6,-16.5,242.7,-2519.4,-29.1,-119.4,-120.3,571.8,-2481.9,-1173.3,-577.8,-6.9,-5.4,-23.1,-28.2,-0.9,72.9,106.2,-64.5,0,666,0,124,0, 
0.3733,-17.1,-16.8,275.7,-66.0,-172.8,-156.0,-11.7,240.3,-2371.2,-30.9,-121.8,-117.9,629.1,-2528.7,-953.1,-557.7,-6.9,-6.0,-28.2,-29.7,-1.2,74.1,108.9,-64.8,0,672,0,125,0, 
0.3767,-15.6,-15.9,82.8,-71.7,-169.5,-153.0,-2.7,240.0,-2371.2,-40.5,-130.8,-125.7,405.6,-2944.5,-675.9,-156.6,-6.9,-6.0,-38.4,-41.1,-0.9,66.0,107.1,-59.1,0,678,0,126,0, 
0.3800,-12.9,-13.8,59.4,-70.2,-177.9,-149.1,-5.1,242.4,-2371.2,-40.2,-133.2,-135.6,246.6,-3132.0,-594.9,30.0,-6.9,-6.0,-36.0,-42.3,-0.9,69.9,106.8,-62.7,0,684,0,127,0, 
0.3833,-14.4,-17.1,164.1,-75.9,-182.1,-146.7,-14.7,243.9,-2445.3,-34.8,-129.0,-128.7,354.0,-2852.4,-966.0,-245.4,-7.2,-6.3,-36.3,-38.1,-0.3,73.8,107.1,-62.1,0,690,0,128,0, 
0.3867,-20.4,-17.4,338.1,-78.0,-189.9,-156.0,-28.8,243.3,-2445.3,-38.7,-139.2,-132.9,642.6,-2455.5,-1050.3,-629.1,-6.6,-5.7,-53.4,-43.2,-0.6,60.3,99.0,-74.1,0,696,0,129,0, 
0.3900,-21.0,-22.5,294.0,-81.0,-169.2,-150.6,-23.7,245.4,-2371.2,-41.1,-138.3,-136.8,748.5,-2553.9,-853.5,-597.0,-7.2,-6.3,-46.8,-36.0,-0.6,65.4,97.8,-61.8,0,702,0,130,0, 
0.3933,-20.7,-21.6,110.1,-80.7,-170.1,-148.5,-20.4,246.9,-2371.2,-45.3,-141.6,-138.6,550.2,-2932.2,-520.2,-130.2,-7.2,-6.0,-45.9,-40.5,-1.2,57.0,102.6,-62.4,0,708,0,131,0, 
0.3967,-24.6,-17.7,86.1,-79.5,-178.8,-141.3,-11.7,249.9,-2519.4,-43.8,-144.6,-138.3,324.9,-3119.4,-597.9,15.9,-6.9,-6.0,-46.5,-39.0,-1.2,61.8,108.6,-64.2,0,714,0,132,0, 
0.4000,-21.0,-15.0,256.5,-78.9,-172.2,-143.7,-17.1,252.9,-2445.3,-40.8,-139.2,-138.6,417.3,-2819.7,-943.5,-200.4,-6.6,-5.7,-42.0,-42.9,-0.9,68.7,100.2,-65.7,0,720,0,133,0, 
0.4033,-20.1,-10.2,377.4,-71.7,-159.9,-137.7,-25.5,254.7,-2445.3,-34.2,-134.1,-129.3,701.7,-2439.3,-1113.6,-594.3,-7.2,-6.0,-41.7,-32.7,-0.6,66.0,99.6,-66.6,0,726,0,134,0, 
0.4067,-19.5,-18.6,294.6,-74.1,-177.0,-143.1,-14.7,245.7,-2445.3,-32.1,-133.8,-135.6,803.4,-2502.3,-896.7,-610.2,-6.6,-5.7,-39.0,-41.4,-0.9,72.0,99.6,-60.9,0,732,0,135,0, 
0.4100,-19.2,-12.3,178.5,-70.8,-148.2,-137.7,0.3,246.0,-2371.2,-27.9,-126.6,-128.4,574.2,-2890.2,-563.4,-204.6,-7.2,-6.0,-33.0,-31.5,-0.6,75.6,110.1,-63.9,0,738,0,136,0, 
0.4133,-17.4,-12.9,57.3,-72.3,-173.4,-142.8,-10.2,249.3,-2445.3,-23.7,-132.6,-135.3,306.9,-3117.9,-678.6,-84.0,-6.9,-5.7,-35.1,-42.3,-0.9,76.8,110.7,-61.5,0,744,0,137,0, 
0.4167,-18.0,-12.3,-50.4,-66.9,-192.9,-135.6,-20.4,254.7,-2519.4,-21.0,-129.3,-125.7,281.1,-2881.5,-1325.7,-461.1,-6.9,-6.0,-31.5,-30.0,-0.6,79.8,99.9,-64.5,0,750,0,138,0, 
0.4200,-12.9,-12.6,203.4,-69.6,-173.4,-136.8,-25.5,257.4,-2445.3,-27.0,-129.9,-129.3,711.9,-2375.1,-1286.7,-761.7,-6.6,-5.7,-32.7,-34.8,-1.2,77.4,104.7,-59.4,0,756,0,139,0, 
0.4233,-12.9,-15.0,198.0,-67.8,-159.6,-137.7,-14.4,255.9,-2593.5,-21.6,-125.4,-131.1,821.7,-2481.6,-1006.2,-674.7,-6.9,-6.0,-30.9,-33.3,-0.6,75.3,107.7,-58.5,0,762,0,140,0, 
0.4267,-14.7,-20.4,58.5,-78.0,-176.7,-139.8,-9.9,247.5,-2371.2,-29.4,-134.4,-131.7,560.1,-2914.8,-648.0,-260.7,-6.9,-6.0,-39.3,-45.6,-1.2,78.3,112.2,-48.0,0,768,0,141,0, 
0.4300,-17.1,-21.3,70.2,-72.9,-162.0,-143.4,-4.8,246.6,-2519.4,-34.5,-133.8,-129.3,348.9,-3032.1,-668.4,-9.0,-6.6,-6.0,-42.0,-40.5,-0.6,79.5,105.0,-48.3,0,774,0,142,0, 
0.4333,-14.1,-21.3,185.7,-73.2,-176.1,-145.2,-16.8,244.5,-2519.4,-33.3,-138.6,-134.1,508.2,-2729.1,-932.7,-265.2,-6.9,-5.7,-41.4,-42.3,-0.9,76.8,108.3,-52.5,0,780,0,143,0, 
0.4367,-23.4,-25.2,262.5,-79.5,-194.7,-153.9,-18.0,241.5,-2519.4,-36.9,-143.7,-141.3,807.3,-2377.8,-1091.4,-679.8,-6.6,-6.0,-48.0,-48.0,-1.2,59.7,99.9,-60.9,0,786,0,144,0, 
0.4400,-20.7,-25.8,253.5,-81.0,-192.9,-158.4,-16.8,239.4,-2519.4,-45.3,-147.3,-146.1,924.6,-2447.4,-892.8,-642.9,-6.9,-6.0,-59.7,-54.3,-0.6,60.0,100.8,-61.5,0,792,0,145,0, 
0.4433,-26.1,-32.1,209.7,-74.1,-177.0,-156.3,-10.2,236.7,-2593.5,-34.2,-138.0,-135.6,634.5,-2855.7,-482.7,-252.3,-7.5,-6.0,-43.2,-49.5,-0.6,57.0,108.6,-57.6,0,798,0,146,0, 
0.4467,-20.4,-17.7,183.0,-73.2,-157.5,-150.3,-17.7,243.3,-2445.3,-42.0,-137.1,-132.6,433.2,-2994.9,-561.0,-22.8,-6.9,-5.7,-39.3,-47.1,-1.5,64.5,109.5,-53.4,0,804,0,147,0, 
0.4500,-18.9,-16.5,277.8,-71.1,-171.3,-155.7,-26.4,247.2,-2519.4,-38.7,-136.8,-132.0,491.7,-2697.3,-871.8,-294.3,-6.6,-6.0,-37.8,-45.0,-1.2,66.0,105.3,-63.0,0,810,0,148,0, 
0.4533,-19.2,-16.8,361.5,-72.0,-171.6,-146.7,-23.7,244.2,-2445.3,-43.8,-138.0,-141.9,784.5,-2338.5,-1154.4,-658.5,-6.9,-6.0,-44.1,-50.7,-1.2,60.3,99.3,-66.6,0,816,0,149,0, 
0.4567,-20.1,-19.2,365.4,-67.5,-160.5,-156.3,-17.1,251.4,-2371.2,-44.4,-129.9,-133.2,845.4,-2440.5,-878.4,-577.8,-6.9,-5.7,-39.3,-38.7,-0.9,60.6,100.8,-57.9,0,822,0,150,0, 
0.4600,-19.5,-18.3,169.2,-71.1,-162.0,-160.8,-12.0,251.1,-2371.2,-42.0,-136.8,-135.9,626.4,-2804.7,-623.4,-213.9,-7.2,-6.0,-39.3,-48.6,-0.9,53.4,102.6,-55.8,0,828,0,151,0, 
0.4633,-21.3,-24.9,131.7,-74.1,-175.8,-153.9,-10.5,253.8,-2371.2,-50.4,-143.7,-140.1,424.5,-2946.3,-597.9,52.2,-6.6,-6.0,-48.3,-44.4,-1.2,58.8,108.0,-54.6,0,834,0,152,0, 
0.4667,-18.0,-15.3,246.9,-72.6,-170.7,-149.4,-22.2,257.1,-2519.4,-39.3,-145.5,-145.2,530.1,-2660.1,-871.8,-256.2,-6.9,-6.0,-45.3,-52.2,-0.9,55.8,94.2,-55.5,0,840,0,153,0, 
0.4700,-19.5,-17.1,370.2,-74.7,-184.2,-149.1,-34.5,256.5,-2519.4,-56.1,-156.6,-158.7,785.1,-2342.1,-1098.6,-663.9,-7.5,-5.7,-61.2,-65.7,-0.9,42.6,91.8,-66.3,0,846,0,154,0, 
0.4733,-22.2,-18.9,348.6,-75.6,-180.6,-151.5,-30.3,252.3,-2297.1,-50.7,-144.9,-137.7,869.4,-2402.7,-864.3,-642.3,-7.2,-6.0,-53.7,-49.2,-0.9,49.5,96.3,-58.2,0,852,0,155,0, 
0.4767,-21.3,-22.2,227.4,-66.9,-162.3,-145.5,-19.5,257.4,-2297.1,-39.6,-119.7,-114.9,639.3,-2804.1,-553.5,-187.8,-6.6,-5.7,-32.1,-26.7,-0.6,58.8,102.3,-57.3,0,858,0,156,0, 
0.4800,-20.7,-16.8,162.9,-65.1,-140.7,-141.9,-21.6,259.5,-2371.2,-36.6,-111.3,-106.8,357.3,-2997.3,-625.2,-2.4,-6.9,-5.7,-25.8,-19.2,-0.9,64.8,104.4,-47.7,0,864,0,157,0, 
0.4833,-21.6,-24.3,309.3,-73.2,-164.7,-141.6,-19.2,258.0,-2519.4,-48.6,-135.9,-133.5,454.8,-2676.0,-975.6,-293.7,-7.2,-5.7,-50.7,-40.8,-0.6,47.4,102.0,-60.9,0,870,0,158,0, 
0.4867,-23.7,-27.3,417.9,-77.7,-183.9,-146.7,-28.8,253.5,-2445.3,-49.8,-136.8,-126.3,767.4,-2301.9,-1079.4,-647.1,-6.3,-5.7,-51.3,-32.7,-0.9,51.9,102.0,-61.5,0,876,0,159,0, 
0.4900,-21.0,-26.1,332.7,-69.0,-181.2,-141.3,-23.1,257.4,-2371.2,-54.9,-123.3,-113.4,800.7,-2418.3,-958.5,-657.0,-6.9,-5.7,-39.6,-20.4,-0.9,61.5,108.9,-47.4,0,882,0,160,0, 
0.4933,-23.1,-17.4,252.3,-69.6,-150.9,-136.2,-12.0,261.6,-2223.0,-49.5,-127.5,-122.4,593.7,-2770.8,-565.2,-239.7,-6.9,-5.7,-42.3,-30.0,-0.9,66.0,118.2,-39.3,0,888,0,161,0, 
0.4967,-19.2,-20.1,190.5,-68.4,-143.4,-130.8,-9.3,260.1,-2445.3,-47.7,-126.6,-121.8,363.6,-3048.9,-643.2,-15.9,-6.9,-5.7,-39.9,-24.3,-0.9,63.0,115.2,-39.6,0,894,0,162,0, 
0.5000,-23.1,-19.8,300.9,-72.9,-160.2,-134.7,-14.4,258.6,-2371.2,-43.8,-126.9,-116.1,451.2,-2701.5,-956.1,-268.5,-7.2,-6.3,-40.8,-21.0,-0.6,61.2,107.1,-45.9,0,900,0,163,0, 
0.5033,-18.6,-17.4,435.6,-67.8,-161.1,-132.6,-27.6,260.7,-2371.2,-46.2,-123.9,-114.3,739.8,-2348.4,-1092.6,-606.0,-7.2,-5.7,-44.1,-19.5,-0.9,68.1,108.0,-39.9,0,906,0,164,0, 
0.5067,-17.4,-17.7,364.2,-65.7,-152.1,-132.6,-22.2,257.7,-2371.2,-46.2,-125.7,-116.7,804.9,-2435.1,-877.2,-614.1,-6.9,-6.0,-42.6,-21.6,-0.9,72.0,115.2,-39.9,0,912,0,165,0, 
0.5100,-14.1,-8.1,201.3,-54.9,-127.2,-123.3,-8.4,264.0,-2445.3,-41.7,-119.7,-112.8,584.4,-2855.1,-520.2,-219.9,-6.9,-6.0,-31.8,-20.4,-0.9,71.1,114.0,-35.4,0,918,0,166,0, 
0.5133,-11.1,-14.1,102.6,-52.5,-119.4,-119.7,-4.8,264.6,-2371.2,-36.0,-115.5,-107.4,337.5,-3047.7,-612.3,-51.6,-6.9,-6.0,-29.7,-15.6,-0.9,73.5,116.7,-25.8,0,924,0,167,0, 
0.5167,-13.8,-15.9,179.7,-48.9,-137.4,-124.8,-15.9,267.3,-2519.4,-35.4,-116.1,-101.7,376.5,-2754.0,-950.4,-283.5,-7.2,-5.7,-31.2,-4.8,-0.9,76.2,114.3,-33.6,0,930,0,168,0, 
0.5200,-14.1,-12.6,271.5,-53.1,-153.9,-126.0,-20.7,267.9,-2519.4,-34.8,-114.0,-107.7,609.0,-2364.3,-1205.4,-684.9,-6.9,-5.7,-28.2,-12.3,-1.2,78.9,112.2,-38.7,0,936,0,169,0, 
0.5233,-16.8,-17.7,255.3,-60.6,-153.9,-128.1,-16.5,261.6,-2371.2,-42.9,-126.3,-119.4,716.1,-2436.9,-946.5,-662.4,-6.9,-5.7,-46.2,-22.5,-1.5,75.0,114.9,-41.4,0,942,0,170,0, 
0.5267,-18.3,-29.4,141.0,-69.9,-157.8,-132.0,-12.0,251.4,-2297.1,-47.1,-135.0,-123.3,451.8,-2866.5,-530.4,-261.0,-6.9,-6.0,-52.2,-28.2,-0.9,72.3,113.7,-36.3,0,948,0,171,0, 
0.5300,-19.8,-34.2,117.6,-64.8,-157.2,-134.7,-6.6,249.9,-2371.2,-37.2,-123.0,-114.3,203.7,-3046.2,-561.0,-15.9,-6.9,-5.7,-40.8,-19.5,-0.9,73.8,116.4,-40.5,0,954,0,172,0, 
0.5333,-15.6,-28.2,192.3,-68.7,-166.5,-138.0,-24.3,240.6,-2519.4,-39.3,-124.2,-117.9,260.4,-2715.6,-973.2,-297.3,-7.2,-6.0,-42.0,-27.3,-0.3,71.4,115.2,-44.7,0,960,0,173,0, 
0.5367,-18.3,-33.0,280.8,-72.0,-175.5,-146.1,-15.3,240.6,-2297.1,-38.1,-124.8,-120.9,545.1,-2414.7,-1145.1,-699.0,-6.9,-5.7,-37.8,-33.0,-0.9,67.2,106.8,-47.7,0,966,0,174,0, 
0.5400,-13.8,-29.4,200.4,-70.8,-164.7,-144.6,-14.7,243.3,-2371.2,-39.6,-126.6,-126.3,611.7,-2494.5,-907.2,-690.9,-6.9,-5.7,-42.3,-28.8,-0.6,68.1,113.1,-43.8,0,972,0,175,0, 
0.5433,-18.0,-32.4,122.7,-77.1,-144.9,-148.8,-12.0,246.3,-2445.3,-42.0,-131.4,-123.9,339.9,-2914.2,-587.1,-242.4,-7.2,-6.0,-42.3,-27.0,-0.9,66.6,108.9,-41.7,0,978,0,176,0, 
0.5467,-18.0,-34.2,36.3,-78.9,-154.2,-146.1,-9.6,246.3,-2445.3,-42.6,-132.3,-122.7,109.8,-3069.9,-622.2,-62.1,-6.9,-6.0,-46.8,-25.8,-0.6,74.7,112.2,-43.8,0,984,0,177,0, 
0.5500,-17.1,-31.8,126.3,-81.6,-180.0,-149.4,-16.8,246.6,-2519.4,-39.3,-133.5,-128.7,168.6,-2745.3,-992.7,-292.8,-7.2,-5.7,-43.8,-31.5,-0.9,63.9,104.4,-59.4,0,990,0,178,0, 
0.5533,-11.7,-24.6,263.7,-78.6,-169.8,-147.0,-17.7,251.1,-2445.3,-39.9,-132.6,-126.3,468.0,-2346.0,-1135.8,-700.5,-7.2,-6.3,-45.9,-36.6,-0.9,67.2,108.9,-57.0,0,996,0,179,0, 
0.5567,-14.7,-23.7,240.6,-82.8,-174.3,-151.5,-9.6,252.6,-2445.3,-42.3,-133.5,-123.6,534.9,-2467.2,-905.7,-671.7,-6.9,-6.6,-54.0,-33.9,-0.9,65.1,111.6,-60.0,0,1002,0,180,0, 
0.5600,-14.7,-22.5,135.3,-76.8,-146.4,-144.9,-4.8,256.5,-2371.2,-38.1,-134.4,-121.2,344.1,-2853.6,-575.4,-267.3,-6.9,-5.7,-52.2,-34.2,-0.9,70.8,121.2,-53.7,0,1008,0,181,0, 
0.5633,-17.4,-29.7,58.8,-80.4,-166.5,-144.9,-3.0,252.0,-2371.2,-42.9,-138.0,-127.8,118.5,-3034.5,-618.6,-18.0,-6.9,-5.7,-46.2,-39.3,-0.9,71.4,121.2,-48.0,0,1014,0,182,0, 
0.5667,-15.6,-22.2,86.1,-76.5,-160.5,-143.7,-12.9,253.5,-2593.5,-48.6,-133.2,-133.5,154.5,-2753.1,-1010.1,-391.2,-6.9,-6.0,-45.0,-40.2,-1.5,64.8,123.6,-49.2,0,1020,0,183,0, 
0.5700,-11.1,-19.5,138.9,-69.0,-172.8,-141.0,-17.1,255.3,-2445.3,-37.2,-123.9,-122.4,450.9,-2394.6,-1248.6,-733.5,-7.2,-6.3,-31.2,-26.1,-1.2,73.2,118.2,-47.7,0,1026,0,184,0, 
0.5733,-14.1,-16.8,128.7,-69.6,-148.8,-140.7,-16.5,252.6,-2445.3,-39.3,-123.9,-118.8,515.4,-2447.4,-921.3,-763.2,-6.6,-6.0,-36.3,-25.5,-1.2,71.1,126.6,-36.6,0,1032,0,185,0, 
0.5767,-10.2,-21.6,39.6,-63.0,-147.3,-135.6,-9.9,254.1,-2297.1,-27.3,-115.5,-108.0,272.4,-2826.3,-574.2,-319.8,-6.9,-5.7,-29.1,-18.0,-0.9,75.0,135.6,-32.4,0,1038,0,186,0, 
0.5800,-8.7,-20.1,-18.9,-61.2,-144.9,-138.0,-0.9,257.1,-2519.4,-32.7,-121.5,-110.7,15.0,-3015.3,-669.9,-107.4,-6.6,-6.0,-33.6,-21.3,-0.9,74.1,133.2,-36.3,0,1044,0,187,0, 
0.5833,-5.7,-15.6,82.2,-55.5,-160.2,-130.8,-15.0,259.5,-2593.5,-30.0,-115.2,-107.7,106.5,-2700.9,-963.6,-363.0,-6.9,-6.0,-26.7,-22.2,-0.9,79.8,133.2,-45.0,0,1050,0,188,0, 
0.5867,-7.8,-21.0,176.1,-63.0,-152.1,-139.8,-23.7,255.6,-2445.3,-34.2,-120.3,-115.5,381.9,-2345.7,-1192.5,-734.1,-6.6,-6.3,-33.0,-22.2,-0.6,71.4,123.6,-47.4,0,1056,0,189,0, 
0.5900,0.6,-13.2,141.0,-57.9,-141.0,-142.2,-11.1,258.9,-2297.1,-29.1,-112.2,-105.9,504.0,-2410.2,-920.7,-648.6,-6.9,-6.0,-23.7,-20.7,-0.6,76.5,127.5,-44.4,0,1062,0,190,0, 
0.5933,-2.4,-13.5,-29.4,-60.6,-142.2,-142.8,-4.5,255.0,-2297.1,-25.8,-113.1,-108.3,225.6,-2836.2,-663.0,-232.5,-6.6,-6.0,-22.2,-21.6,-0.6,79.2,130.8,-47.4,0,1068,0,191,0, 
0.5967,-1.5,-15.3,-45.9,-58.2,-151.8,-135.0,-4.5,259.2,-2371.2,-18.3,-109.2,-98.4,36.3,-2994.0,-621.6,25.2,-7.2,-5.7,-23.4,-12.0,-0.6,83.4,132.0,-48.0,0,1074,0,192,0, 
0.6000,-4.2,-8.1,49.5,-60.3,-157.8,-129.6,-8.4,253.8,-2519.4,-31.2,-120.0,-109.8,122.7,-2701.5,-1069.8,-298.2,-6.9,-6.0,-31.2,-20.4,-0.9,79.5,128.1,-54.0,0,1080,0,193,0, 
0.6033,0.0,-6.6,130.2,-67.8,-181.2,-142.5,-18.9,251.7,-2593.5,-24.0,-114.3,-104.1,408.9,-2341.2,-1202.7,-656.1,-6.6,-5.7,-33.3,-18.9,-0.9,83.4,122.4,-59.4,0,1086,0,194,0, 
0.6067,-5.1,-12.3,127.8,-67.2,-161.4,-135.9,-14.1,251.7,-2297.1,-27.3,-117.3,-110.4,522.6,-2401.5,-889.8,-606.0,-6.9,-5.7,-37.2,-23.1,-0.9,72.3,126.9,-48.0,0,1092,0,195,0, 
0.6100,-7.2,-16.2,-43.5,-67.8,-150.0,-140.7,-0.6,247.5,-2519.4,-33.9,-119.7,-108.6,266.4,-2853.0,-648.0,-206.4,-6.6,-6.0,-42.0,-23.1,-0.9,72.3,127.8,-44.7,0,1098,0,196,0, 
0.6133,-12.3,-22.2,-141.3,-75.6,-168.6,-147.6,-6.3,242.1,-2519.4,-41.4,-130.5,-118.5,13.8,-3003.0,-703.2,-93.6,-6.9,-6.3,-43.5,-32.1,-0.9,62.1,123.3,-60.6,0,1104,0,197,0, 
0.6167,-17.7,-25.2,1.5,-74.7,-180.9,-149.4,-18.6,240.6,-2445.3,-45.0,-137.1,-128.1,102.3,-2711.1,-992.4,-294.9,-6.9,-6.0,-48.3,-36.0,-0.3,55.8,114.3,-67.5,0,1110,0,198,0, 
0.6200,-9.6,-24.3,145.5,-70.5,-175.2,-144.3,-16.8,244.8,-2445.3,-44.1,-131.4,-126.0,377.1,-2330.4,-1216.2,-670.8,-6.9,-6.0,-38.7,-37.8,-1.2,63.0,112.2,-65.7,0,1116,0,199,0, 
0.6233,-8.4,-18.0,109.5,-63.6,-154.5,-141.6,-21.0,247.2,-2445.3,-39.3,-126.3,-111.6,480.3,-2418.6,-978.3,-643.2,-6.9,-5.7,-37.2,-26.4,-0.9,65.7,112.8,-66.3,0,1122,0,200,0, 
0.6267,-9.3,-20.7,-36.3,-68.7,-156.9,-140.7,-13.5,246.9,-2445.3,-38.1,-129.6,-115.5,237.0,-2803.8,-666.0,-295.5,-6.9,-6.3,-42.0,-25.2,-0.6,66.6,116.4,-60.0,0,1128,0,201,0, 
0.6300,-6.3,-16.2,-69.0,-70.2,-176.1,-145.2,-13.8,246.0,-2593.5,-40.5,-126.9,-119.1,27.9,-3032.4,-762.9,-34.2,-6.9,-5.7,-40.8,-28.8,-1.2,69.6,116.1,-62.1,0,1134,0,202,0, 
0.6333,-8.4,-18.0,-28.8,-72.3,-177.3,-141.6,-18.9,247.8,-2519.4,-38.4,-131.4,-119.7,52.2,-2704.2,-1016.4,-389.4,-6.9,-6.0,-48.3,-32.4,-0.9,62.1,112.2,-67.8,0,1140,0,203,0, 
0.6367,-4.8,-16.8,219.0,-71.4,-170.1,-146.7,-18.0,246.6,-2519.4,-41.1,-127.8,-115.2,441.0,-2237.4,-1041.0,-592.8,-6.9,-6.0,-42.9,-31.8,-0.6,62.1,106.8,-77.4,0,1146,0,204,0, 
0.6400,-2.4,-12.0,545.7,-71.1,-141.3,-136.5,3.3,251.1,-2371.2,-30.6,-126.0,-112.2,718.5,-2231.7,-380.1,-339.9,-6.6,-5.7,-39.9,-28.5,-0.9,70.2,122.7,-56.4,0,1152,0,205,0, 
0.6433,-10.2,-19.5,187.8,-81.6,-162.0,-145.5,-3.0,243.3,-2593.5,-49.2,-134.4,-120.9,329.4,-2767.2,-429.6,-189.6,-6.9,-5.7,-49.5,-38.7,-1.2,57.9,114.3,-63.0,0,1158,0,206,0, 
0.6467,-12.3,-21.0,141.9,-81.3,-144.9,-137.1,-10.2,246.3,-2519.4,-45.0,-130.8,-120.3,72.6,-2951.1,-490.5,57.9,-7.2,-6.0,-39.0,-40.8,-0.6,62.1,114.6,-55.8,0,1164,0,207,0, 
0.6500,-11.4,-16.5,162.9,-77.7,-156.9,-148.2,-13.8,249.3,-2667.6,-35.4,-125.4,-112.2,141.3,-2638.5,-959.1,-265.5,-6.6,-5.4,-42.6,-26.7,-0.6,72.9,119.1,-55.8,0,1170,0,208,0, 
0.6533,-6.3,-14.7,222.0,-76.8,-164.7,-146.7,-26.4,256.5,-2519.4,-39.0,-128.7,-112.5,402.0,-2305.2,-1113.3,-678.6,-6.9,-5.7,-40.8,-24.0,-0.9,73.5,112.5,-63.0,0,1176,0,209,0, 
0.6567,-11.7,-29.7,120.3,-78.0,-153.3,-146.1,-20.7,252.0,-2371.2,-36.9,-126.3,-112.8,469.8,-2390.7,-915.0,-646.8,-6.9,-6.3,-46.8,-31.5,-0.6,65.1,117.9,-55.2,0,1182,0,210,0, 
0.6600,-10.2,-26.7,-52.5,-71.4,-152.4,-144.3,-10.8,254.1,-2445.3,-39.9,-124.8,-107.7,206.1,-2835.3,-564.6,-271.8,-7.2,-5.7,-42.0,-25.2,-0.6,72.3,123.9,-47.1,0,1188,0,211,0, 
0.6633,-12.9,-27.9,-75.0,-76.5,-146.1,-138.9,-2.7,250.8,-2445.3,-39.6,-127.5,-114.9,-29.7,-2959.8,-637.2,-28.8,-6.6,-5.7,-37.8,-30.6,-1.2,64.2,138.3,-45.3,0,1194,0,212,0, 
0.6667,-18.3,-43.2,15.6,-87.6,-172.8,-153.6,-18.9,240.9,-2519.4,-50.7,-136.5,-123.3,69.9,-2670.3,-986.4,-269.1,-7.5,-5.7,-47.7,-41.4,-0.9,59.7,120.9,-72.3,0,1200,0,213,0, 
0.6700,-15.3,-24.6,181.5,-82.8,-183.3,-148.2,-26.1,246.0,-2519.4,-50.7,-136.2,-118.2,378.6,-2333.1,-1191.9,-761.1,-6.9,-5.7,-50.1,-36.6,-0.6,56.4,111.9,-73.5,0,1206,0,214,0, 
0.6733,-16.5,-32.1,128.7,-84.6,-173.4,-146.4,-16.8,245.7,-2519.4,-46.8,-134.4,-123.0,414.3,-2389.2,-977.1,-629.7,-7.2,-5.7,-47.1,-44.7,-0.6,59.1,114.3,-63.6,0,1212,0,215,0, 
0.6767,-12.9,-30.0,57.3,-79.2,-165.3,-149.4,-17.7,247.5,-2445.3,-42.3,-126.3,-114.6,246.0,-2856.0,-682.5,-234.0,-7.2,-6.0,-39.3,-38.4,-0.9,64.5,119.4,-52.2,0,1218,0,216,0, 
0.6800,-12.9,-28.5,-12.6,-79.8,-163.5,-151.2,-9.3,245.4,-2445.3,-47.1,-128.7,-114.6,-16.2,-2958.6,-740.1,-61.8,-7.2,-6.0,-44.1,-41.4,-0.9,63.9,114.3,-51.3,0,1224,0,217,0, 
0.6833,-9.9,-18.3,45.3,-70.2,-159.3,-141.9,-1.8,250.5,-2445.3,-39.6,-120.9,-108.0,83.4,-2631.3,-1060.5,-338.7,-6.9,-5.7,-39.6,-30.6,-0.9,69.3,117.0,-52.5,0,1230,0,218,0, 
0.6867,-15.3,-26.1,156.0,-70.8,-168.9,-143.4,-3.9,253.5,-2445.3,-42.6,-135.0,-129.3,388.5,-2296.5,-1178.4,-702.9,-7.2,-6.3,-47.1,-49.8,-0.9,56.4,119.4,-60.6,0,1236,0,219,0, 
0.6900,-10.8,-23.1,90.3,-74.7,-181.5,-144.6,-4.2,255.9,-2445.3,-65.4,-162.3,-155.7,433.5,-2422.5,-988.2,-698.4,-7.5,-6.3,-72.9,-71.1,-0.9,53.1,123.0,-57.9,0,1242,0,220,0, 
0.6933,-15.0,-27.0,-62.1,-69.6,-145.5,-135.3,6.3,258.3,-2371.2,-59.7,-151.5,-135.6,159.9,-2823.6,-699.0,-251.1,-6.3,-6.0,-64.8,-53.4,-0.6,63.3,132.9,-48.9,0,1248,0,221,0, 
0.6967,-15.6,-15.9,-99.0,-66.0,-136.2,-136.5,7.2,252.9,-2371.2,-43.5,-113.7,-94.2,-48.0,-2988.9,-719.7,-15.0,-6.6,-6.0,-31.8,-12.6,-0.9,83.4,132.6,-39.0,0,1254,0,222,0, 
0.7000,-18.3,-21.0,60.6,-65.4,-136.8,-133.8,-2.4,251.4,-2519.4,-45.6,-109.2,-81.6,70.5,-2630.4,-1041.6,-339.6,-6.9,-6.0,-32.1,-0.6,-0.9,75.6,128.1,-39.3,0,1260,0,223,0, 
0.7033,-21.6,-31.8,174.0,-71.7,-153.9,-138.6,-3.0,246.3,-2519.4,-51.3,-120.3,-94.2,343.8,-2333.4,-1205.1,-742.8,-6.6,-5.7,-43.5,-14.4,-1.2,66.6,124.2,-47.7,0,1266,0,224,0, 
0.7067,-27.3,-40.8,139.5,-84.0,-174.3,-141.0,-3.9,238.8,-2371.2,-58.5,-132.9,-113.4,398.1,-2408.7,-1016.1,-700.2,-6.3,-5.7,-59.7,-29.7,-1.2,48.9,118.2,-52.8,0,1272,0,225,0, 
0.7100,-22.2,-36.3,-36.6,-90.0,-174.3,-151.8,1.5,235.2,-2371.2,-63.0,-140.4,-114.9,128.4,-2842.8,-669.3,-318.0,-6.9,-5.7,-65.1,-21.6,-0.9,59.4,117.6,-50.7,0,1278,0,226,0, 
0.7133,-24.0,-42.6,-110.4,-96.0,-180.3,-155.1,3.6,229.5,-2445.3,-64.2,-143.7,-120.9,-106.5,-3009.3,-701.4,-115.2,-6.9,-6.0,-72.0,-21.6,-0.9,55.5,114.0,-63.3,0,1284,0,227,0, 
0.7167,-18.6,-35.4,36.6,-87.6,-165.9,-147.6,0.9,234.0,-2519.4,-58.8,-132.9,-107.1,-59.7,-2654.4,-1033.8,-360.0,-6.6,-6.0,-61.8,-11.4,-1.2,59.4,115.5,-60.3,0,1290,0,228,0, 
0.7200,-21.0,-35.7,145.2,-83.7,-157.5,-142.2,-7.8,237.9,-2371.2,-56.1,-121.8,-90.3,289.5,-2297.1,-1225.2,-715.8,-6.6,-5.4,-53.7,3.3,-0.6,66.6,117.3,-55.5,0,1296,0,229,0, 
0.7233,-14.7,-33.9,33.3,-74.4,-147.6,-138.9,-5.7,241.5,-2371.2,-52.8,-120.0,-88.5,346.2,-2424.9,-1051.5,-651.9,-6.9,-5.7,-55.8,8.4,-1.2,68.7,125.1,-48.6,0,1302,0,230,0, 
0.7267,-18.9,-35.7,-74.7,-83.1,-149.1,-141.0,-8.4,234.9,-2445.3,-56.7,-132.0,-98.7,105.6,-2810.4,-698.1,-240.9,-6.9,-5.7,-67.8,2.4,-0.9,67.5,126.0,-45.9,0,1308,0,231,0, 
0.7300,-19.8,-31.2,-119.7,-73.2,-156.3,-144.0,-6.6,237.6,-2519.4,-47.4,-114.9,-84.6,-114.9,-2969.1,-717.0,-49.2,-6.9,-6.3,-58.5,16.8,-0.9,69.6,120.0,-41.7,0,1314,0,232,0, 
0.7333,-13.8,-34.5,-73.2,-74.1,-175.8,-138.0,-13.5,233.1,-2445.3,-57.0,-120.0,-88.8,-19.2,-2648.7,-1068.3,-382.2,-6.9,-6.0,-57.9,18.9,-0.9,78.0,125.1,-35.4,0,1320,0,233,0, 
0.7367,-15.9,-38.4,161.1,-77.7,-154.5,-139.8,-16.2,230.7,-2371.2,-61.5,-126.9,-95.4,287.4,-2298.9,-1257.9,-711.6,-6.9,-6.0,-60.6,19.8,-0.9,74.1,123.0,-43.8,0,1326,0,234,0, 
0.7400,-20.7,-41.1,73.5,-81.6,-155.1,-140.7,-19.8,229.5,-2371.2,-64.8,-132.3,-102.9,316.8,-2458.8,-1052.7,-741.6,-6.9,-6.0,-68.7,8.7,-0.3,61.2,127.2,-47.7,0,1332,0,235,0, 
0.7433,-22.8,-39.6,-49.8,-84.3,-148.5,-138.0,-4.8,225.3,-2371.2,-61.8,-132.3,-96.0,108.3,-2797.8,-690.6,-271.2,-6.9,-6.0,-70.5,18.0,-0.9,78.9,135.9,-34.8,0,1338,0,236,0, 
0.7467,-21.9,-40.2,-138.3,-85.5,-148.8,-142.8,1.2,222.0,-2519.4,-62.4,-129.3,-100.8,-110.1,-2965.2,-799.5,-79.8,-6.9,-6.0,-63.9,12.9,-0.6,73.2,132.9,-34.8,0,1344,0,237,0, 
0.7500,-20.4,-36.9,36.0,-81.6,-151.8,-141.3,0.6,228.6,-2667.6,-61.5,-133.8,-99.0,-27.3,-2637.3,-1097.7,-340.2,-6.9,-6.6,-63.6,18.0,-0.6,74.1,129.9,-42.0,0,1350,0,238,0, 
0.7533,-19.2,-37.8,97.2,-81.0,-175.2,-140.4,-15.3,231.9,-2445.3,-55.2,-127.5,-97.2,262.2,-2322.0,-1288.5,-787.2,-6.9,-6.0,-63.0,25.8,-0.6,81.3,126.0,-37.5,0,1356,0,239,0, 
0.7567,-22.8,-36.0,70.8,-84.0,-155.4,-144.6,-9.9,230.1,-2519.4,-56.7,-134.4,-104.7,330.6,-2438.4,-1012.2,-703.8,-6.9,-6.0,-69.0,18.0,-0.9,73.2,130.5,-45.6,0,1362,0,240,0, 
0.7600,-23.1,-39.6,-81.0,-82.5,-145.5,-147.6,-0.6,235.2,-2223.0,-58.8,-133.2,-98.4,132.0,-2815.2,-678.0,-325.2,-7.2,-6.0,-68.4,18.9,-0.6,78.6,123.6,-44.4,0,1368,0,241,0, 
0.7633,-21.3,-32.1,-94.2,-75.6,-148.2,-138.3,5.1,245.7,-2445.3,-60.9,-123.6,-91.2,-111.9,-3002.7,-692.7,-50.4,-7.2,-6.0,-63.9,29.7,-0.9,81.6,118.5,-40.2,0,1374,0,242,0, 
0.7667,-22.2,-34.2,-1.2,-76.5,-162.3,-141.3,-10.8,245.1,-2593.5,-60.9,-128.7,-93.6,-55.2,-2706.9,-1101.6,-344.1,-6.6,-6.3,-64.8,23.4,-0.9,74.4,111.9,-48.0,0,1380,0,243,0, 
0.7700,-18.3,-31.5,133.8,-71.1,-174.9,-136.5,2.7,250.5,-2519.4,-59.1,-125.1,-88.5,220.5,-2361.0,-1318.5,-745.2,-7.2,-6.0,-62.7,30.0,-0.9,76.8,113.1,-49.5,0,1386,0,244,0, 
0.7733,-23.4,-32.1,20.7,-74.4,-155.1,-143.1,5.4,248.4,-2371.2,-63.6,-126.6,-90.0,277.8,-2454.3,-1071.9,-727.8,-6.6,-6.3,-60.6,23.7,-0.9,76.2,108.3,-42.3,0,1392,0,245,0, 
0.7767,-22.8,-38.7,-96.6,-71.4,-147.3,-140.1,-2.4,243.3,-2593.5,-60.6,-122.7,-91.8,9.3,-2867.1,-730.5,-306.0,-6.9,-5.7,-65.7,22.5,-1.2,70.2,108.6,-42.6,0,1398,0,246,0, 
0.7800,-21.0,-44.4,-103.8,-69.6,-152.7,-135.6,4.2,238.2,-2371.2,-58.8,-115.8,-85.2,-212.1,-3017.7,-677.4,-97.5,-7.2,-6.0,-51.3,27.6,-0.9,75.0,121.5,-32.4,0,1404,0,247,0, 
0.7833,-22.2,-38.7,-54.6,-76.5,-167.4,-141.0,-12.9,235.8,-2593.5,-58.5,-124.8,-92.7,-126.6,-2709.9,-1110.0,-377.1,-6.9,-5.4,-74.7,21.0,-1.2,81.9,118.5,-45.0,0,1410,0,248,0, 
0.7867,-23.4,-42.3,97.2,-75.3,-146.4,-134.7,-11.7,244.2,-2519.4,-62.7,-123.0,-90.3,122.7,-2350.2,-1284.0,-739.5,-6.6,-6.3,-63.6,20.1,-0.9,78.3,116.4,-45.0,0,1416,0,249,0, 
0.7900,-25.5,-41.7,12.3,-79.5,-159.9,-147.3,-11.1,236.4,-2371.2,-59.7,-127.2,-94.5,165.6,-2426.4,-1137.3,-720.0,-6.9,-6.0,-64.8,17.1,-1.2,72.6,116.7,-45.6,0,1422,0,250,0, 
0.7933,-20.7,-36.6,-108.6,-76.2,-139.5,-136.2,-0.9,243.9,-2445.3,-59.1,-128.1,-96.3,-93.3,-2858.1,-720.0,-319.5,-6.6,-6.0,-63.9,13.5,-0.9,70.5,124.2,-31.8,0,1428,0,251,0, 
0.7967,-24.9,-43.8,-224.1,-82.5,-162.9,-141.6,-8.7,242.4,-2445.3,-65.1,-131.1,-99.0,-340.5,-3038.4,-798.9,-107.1,-7.2,-5.7,-64.2,12.6,-0.9,72.9,116.7,-39.6,0,1434,0,252,0, 
0.8000,-28.8,-51.3,-144.3,-92.4,-178.8,-142.2,-17.1,242.1,-2519.4,-74.1,-147.6,-113.1,-252.0,-2745.9,-1127.7,-390.6,-6.9,-5.7,-86.7,3.0,-0.9,67.2,115.8,-44.4,0,1440,0,253,0, 
0.8033,-23.4,-47.1,1.8,-88.2,-181.5,-148.2,-21.9,240.3,-2593.5,-68.1,-140.4,-108.6,92.1,-2421.3,-1259.4,-727.5,-7.2,-6.0,-78.0,6.3,-0.9,65.4,111.9,-42.0,0,1446,0,254,0, 
0.8067,-32.1,-58.5,15.6,-93.0,-171.0,-146.4,-16.8,234.9,-2371.2,-72.3,-147.0,-114.0,137.7,-2514.0,-1000.5,-746.7,-6.9,-6.0,-81.9,3.0,-0.9,69.9,119.1,-38.7,0,1452,0,255,0, 
0.8100,-28.2,-53.7,-161.4,-94.8,-173.4,-147.9,-12.9,230.1,-2297.1,-77.7,-150.6,-120.0,-83.7,-2901.9,-693.6,-319.8,-6.9,-5.7,-87.3,-1.5,-0.6,62.4,127.5,-36.6,0,1458,0,0,0, 
0.8133,-33.6,-63.6,-252.3,-97.5,-171.0,-146.4,-6.0,226.8,-2593.5,-81.3,-156.0,-129.6,-363.9,-3074.4,-812.4,-184.2,-7.2,-6.3,-89.4,-11.7,-0.6,59.1,128.7,-38.4,0,1464,0,1,0, 
0.8167,-30.9,-61.2,-86.4,-99.3,-188.7,-145.5,-11.4,226.8,-2445.3,-77.4,-156.6,-123.6,-236.7,-2734.2,-1195.2,-419.7,-7.2,-6.3,-94.5,-8.7,-0.6,59.4,122.7,-44.1,0,1470,0,2,0, 
0.8200,-31.8,-59.1,-27.6,-98.4,-180.3,-151.5,-22.2,225.0,-2445.3,-81.0,-153.3,-121.2,-3.0,-2396.4,-1410.9,-830.7,-7.2,-5.7,-86.7,-7.2,-0.9,55.8,119.1,-56.1,0,1476,0,3,0, 
0.8233,-28.8,-61.8,-41.1,-98.1,-163.2,-147.0,-7.5,229.5,-2519.4,-74.1,-151.2,-113.4,120.9,-2494.8,-1219.5,-797.1,-7.2,-5.7,-90.3,-4.2,-0.6,71.1,126.3,-40.8,0,1482,0,4,0, 
0.8267,-30.0,-62.1,-151.2,-96.0,-156.6,-139.2,10.8,233.7,-2445.3,-76.2,-151.2,-110.1,-99.6,-2906.7,-913.5,-323.7,-6.6,-5.7,-92.1,-1.8,-1.2,68.4,129.9,-37.8,0,1488,0,5,0, 
0.8300,-27.0,-48.6,-226.8,-88.5,-157.2,-133.2,8.4,239.7,-2445.3,-72.9,-147.3,-106.2,-388.8,-3104.1,-962.1,-191.4,-7.2,-6.3,-85.2,4.5,-0.6,74.4,135.9,-31.8,0,1494,0,6,0, 
0.8333,-28.2,-46.5,-73.2,-84.6,-165.6,-142.2,3.9,243.6,-2519.4,-71.4,-145.5,-104.4,-302.7,-2725.8,-1221.6,-413.1,-6.9,-6.0,-81.6,2.7,-1.2,69.3,132.6,-38.7,0,1500,0,7,0, 
0.8367,-20.1,-35.7,47.4,-80.1,-171.9,-137.1,4.2,248.1,-2445.3,-66.9,-138.6,-100.8,-14.1,-2432.1,-1483.2,-855.9,-6.9,-5.7,-74.7,3.3,-0.9,64.8,137.1,-38.1,0,1506,0,8,0, 
0.8400,-18.3,-36.9,37.8,-79.2,-154.5,-139.2,11.1,247.2,-2445.3,-74.4,-138.9,-99.3,103.2,-2526.3,-1258.2,-789.0,-7.2,-6.0,-74.7,2.1,-0.9,63.9,135.9,-34.8,0,1512,0,9,0, 
0.8433,-19.2,-39.6,-129.3,-80.7,-151.5,-133.5,9.6,247.8,-2371.2,-72.9,-135.6,-100.5,-185.7,-2932.8,-954.3,-385.5,-6.9,-6.0,-76.8,-5.4,-1.2,65.4,136.5,-29.4,0,1518,0,10,0, 
0.8467,-17.7,-35.1,-190.2,-75.9,-154.2,-133.8,11.1,252.0,-2371.2,-67.5,-136.2,-101.7,-418.8,-3063.6,-966.6,-186.6,-6.9,-6.3,-72.6,-0.6,-0.9,64.8,128.7,-34.2,0,1524,0,11,0, 
0.8500,-17.7,-32.4,-108.6,-70.8,-163.8,-137.1,4.8,252.6,-2519.4,-66.0,-130.8,-94.8,-317.7,-2764.5,-1330.2,-493.5,-6.3,-6.0,-66.3,2.7,-1.5,70.5,123.0,-39.0,0,1530,0,12,0, 
0.8533,-21.6,-34.5,30.0,-69.0,-166.2,-134.1,-6.3,254.4,-2593.5,-68.1,-129.9,-95.7,-2.4,-2354.7,-1529.4,-825.0,-7.5,-6.0,-66.6,0.6,-0.6,64.5,120.6,-33.0,0,1536,0,13,0, 
0.8567,-24.6,-39.0,1.2,-72.3,-154.5,-139.5,-2.4,248.7,-2371.2,-73.2,-132.3,-95.7,61.8,-2504.4,-1264.5,-738.9,-6.9,-6.0,-72.3,4.5,-0.9,67.2,117.0,-35.1,0,1542,0,14,0, 
0.8600,-20.4,-30.6,-166.2,-69.6,-150.0,-135.0,-0.6,256.2,-2371.2,-69.0,-131.1,-96.3,-156.0,-2885.1,-1027.5,-411.6,-7.2,-5.7,-65.1,9.3,-1.2,70.2,118.2,-27.9,0,1548,0,15,0, 
0.8633,-18.9,-38.4,-195.0,-70.2,-156.0,-138.6,-0.6,253.5,-2371.2,-66.6,-130.5,-96.9,-390.3,-3037.2,-979.5,-223.8,-6.9,-6.0,-62.1,-4.2,-0.6,56.4,119.7,-35.1,0,1554,0,16,0, 
0.8667,-18.3,-30.3,-2.4,-69.3,-165.0,-141.9,0.6,253.8,-2519.4,-66.9,-130.2,-96.6,-266.4,-2710.5,-1324.2,-512.4,-6.9,-5.7,-61.8,-1.2,-0.9,68.1,110.1,-38.4,0,1560,0,17,0, 
0.8700,-18.0,-37.5,91.5,-73.8,-165.6,-152.1,-15.0,251.4,-2519.4,-63.9,-130.8,-98.7,36.6,-2391.3,-1510.8,-942.6,-6.9,-5.7,-67.2,-2.7,-0.9,60.3,106.5,-39.3,0,1566,0,18,0, 
0.8733,-16.2,-36.9,33.0,-76.5,-156.9,-147.9,-8.7,250.2,-2371.2,-63.6,-127.5,-95.4,111.3,-2466.0,-1265.7,-922.5,-6.9,-6.0,-67.5,1.2,-0.9,72.0,107.7,-38.1,0,1572,0,19,0, 
0.8767,-15.0,-35.4,-101.7,-73.5,-136.5,-144.9,-9.0,249.3,-2297.1,-55.5,-128.7,-95.7,-166.8,-2886.3,-1002.9,-529.2,-7.2,-6.0,-68.4,11.4,-0.6,71.7,113.1,-31.2,0,1578,0,20,0, 
0.8800,-9.3,-27.3,-75.0,-69.0,-123.6,-136.2,-6.3,251.7,-2371.2,-53.1,-125.7,-93.9,-384.9,-3057.9,-1071.9,-329.4,-6.9,-5.7,-63.6,8.4,-0.9,69.6,118.5,-27.3,0,1584,0,21,0, 
0.8833,-9.0,-30.6,49.5,-72.6,-136.8,-137.4,-11.7,249.9,-2667.6,-48.6,-124.5,-87.9,-263.7,-2732.4,-1461.6,-562.5,-6.9,-5.7,-64.5,14.4,-0.9,77.4,125.1,-34.8,0,1590,0,22,0, 
0.8867,-12.6,-32.7,168.3,-75.6,-147.9,-138.9,-17.1,240.9,-2445.3,-60.3,-129.3,-93.6,-15.0,-2430.9,-1642.8,-938.4,-6.9,-5.7,-71.1,9.3,-0.9,76.2,117.0,-38.7,0,1596,0,23,0, 
0.8900,-18.3,-39.9,185.7,-78.3,-135.6,-129.3,-10.2,239.1,-2519.4,-53.4,-129.9,-100.2,40.5,-2524.2,-1449.3,-934.2,-7.2,-6.0,-66.3,10.2,-0.9,78.0,124.8,-18.3,0,1602,0,24,0, 
0.8933,-14.7,-30.9,114.0,-75.9,-117.3,-133.5,14.1,244.5,-2445.3,-63.3,-127.5,-93.6,-224.1,-2993.4,-1120.8,-513.0,-7.2,-5.4,-66.9,14.4,-0.6,79.8,119.4,-20.1,0,1608,0,25,0, 
0.8967,-15.6,-34.8,-16.2,-79.8,-131.1,-136.5,1.2,243.0,-2371.2,-54.9,-131.1,-93.9,-460.2,-3154.2,-1223.4,-397.5,-7.5,-6.0,-67.2,10.8,-1.2,78.0,119.1,-24.3,0,1614,0,26,0, 
0.9000,-17.7,-34.5,85.5,-81.9,-137.4,-132.3,-9.6,243.0,-2445.3,-63.6,-134.4,-97.2,-334.5,-2833.5,-1572.0,-627.0,-7.2,-6.0,-72.0,5.7,-1.2,74.1,114.9,-36.9,0,1620,0,27,0, 
0.9033,-26.4,-44.7,201.3,-89.7,-167.7,-145.2,-22.8,235.5,-2519.4,-65.7,-137.4,-99.0,-37.5,-2499.0,-1758.6,-1029.3,-7.2,-5.7,-79.2,1.5,-0.9,67.2,114.6,-41.1,0,1626,0,28,0, 
0.9067,-20.1,-39.3,154.2,-83.4,-146.1,-136.5,-5.7,244.2,-2445.3,-64.5,-131.7,-92.7,1.5,-2601.0,-1524.9,-943.2,-6.9,-6.0,-73.5,8.7,-0.9,71.7,121.5,-30.3,0,1632,0,29,0, 
0.9100,-20.4,-44.7,12.0,-79.8,-121.2,-133.2,7.5,246.9,-2371.2,-65.4,-129.3,-92.4,-252.0,-3024.3,-1251.6,-582.6,-6.9,-6.3,-66.0,11.7,-0.6,69.9,126.6,-21.3,0,1638,0,30,0, 
0.9133,-19.5,-34.2,1.5,-82.2,-134.4,-134.1,13.8,253.5,-2519.4,-65.4,-134.1,-100.2,-512.4,-3185.4,-1323.9,-418.2,-6.9,-5.7,-78.0,9.9,-0.9,72.9,130.8,-24.9,0,1644,0,31,0, 
0.9167,-22.8,-39.3,71.7,-82.8,-145.2,-134.1,-7.2,253.5,-2445.3,-64.5,-134.7,-93.0,-524.1,-2903.7,-1677.3,-733.5,-6.9,-5.7,-78.6,12.6,-0.6,74.1,125.4,-27.6,0,1650,0,32,0, 
0.9200,-22.2,-35.1,222.6,-86.1,-152.7,-138.0,-1.5,251.4,-2445.3,-60.3,-132.0,-96.9,-186.3,-2583.6,-1776.9,-1068.3,-6.9,-5.7,-72.0,9.0,-1.2,67.8,120.9,-38.1,0,1656,0,33,0, 
0.9233,-20.1,-37.5,207.3,-86.4,-144.6,-138.9,-10.2,253.5,-2519.4,-68.7,-135.6,-101.4,-162.0,-2620.8,-1593.0,-1039.2,-7.2,-5.7,-69.9,2.1,-0.6,56.4,123.3,-42.3,0,1662,0,34,0, 
0.9267,-17.4,-39.6,82.8,-91.8,-141.3,-133.5,2.4,250.2,-2445.3,-64.5,-141.6,-104.4,-370.2,-3074.7,-1291.8,-626.4,-7.5,-6.0,-78.6,2.1,-0.6,67.5,127.8,-34.2,0,1668,0,35,0, 
0.9300,-17.4,-32.4,39.0,-92.7,-136.8,-137.4,2.1,250.5,-2445.3,-70.8,-145.8,-105.0,-603.3,-3220.8,-1391.1,-440.1,-6.6,-6.0,-78.3,-2.1,-0.6,66.6,126.6,-33.6,0,1674,0,36,0, 
0.9333,-16.5,-31.8,103.5,-89.1,-145.5,-133.2,0.6,254.4,-2445.3,-62.7,-142.5,-97.5,-564.9,-2903.4,-1762.5,-785.4,-7.2,-6.3,-75.6,4.2,-0.6,80.4,121.8,-31.2,0,1680,0,37,0, 
0.9367,-21.6,-34.2,221.7,-89.7,-165.9,-140.7,-26.1,251.4,-2519.4,-69.9,-145.5,-107.7,-245.7,-2494.5,-1946.4,-1148.7,-6.9,-5.7,-81.0,-5.7,-0.9,68.7,119.1,-37.2,0,1686,0,38,0, 
0.9400,-16.8,-38.4,191.4,-82.8,-144.6,-135.9,-0.9,257.1,-2371.2,-68.1,-138.3,-106.5,-113.1,-2613.3,-1760.4,-1092.9,-7.2,-6.3,-71.7,0.0,-0.9,67.2,124.2,-33.0,0,1692,0,39,0, 
0.9433,-16.5,-36.9,73.5,-81.6,-143.4,-140.7,2.7,258.3,-2371.2,-68.7,-135.3,-98.4,-380.1,-3014.7,-1489.2,-685.8,-6.9,-5.7,-72.0,3.6,-0.9,61.8,123.9,-36.9,0,1698,0,40,0, 
0.9467,-17.1,-36.3,24.3,-78.3,-130.8,-137.1,1.5,260.4,-2371.2,-65.1,-137.7,-97.8,-564.3,-3197.1,-1582.2,-501.6,-7.2,-5.7,-72.0,3.3,-0.9,62.1,128.1,-34.8,0,1704,0,41,0, 
0.9500,-19.2,-30.9,111.9,-79.2,-160.5,-142.2,-11.4,256.8,-2445.3,-60.6,-133.5,-95.1,-508.5,-2868.6,-1823.4,-757.8,-6.6,-6.0,-70.8,5.1,-0.6,60.9,124.5,-33.0,0,1710,0,42,0, 
0.9533,-20.4,-34.2,-58.8,-72.3,-177.9,-135.9,-14.7,264.0,-2519.4,-57.6,-125.4,-85.2,-410.1,-2660.7,-2445.3,-1354.5,-6.9,-5.7,-62.1,11.4,-0.9,68.7,124.5,-39.6,0,1716,0,43,0, 
0.9567,-18.9,-27.3,-43.5,-78.0,-156.0,-141.9,-7.8,261.9,-2445.3,-60.3,-131.4,-93.0,-297.0,-2626.5,-2071.2,-1180.2,-6.6,-6.0,-68.4,8.7,-0.6,66.3,126.0,-34.2,0,1722,0,44,0, 
0.9600,-18.6,-30.0,-111.6,-68.7,-130.8,-136.8,-12.0,264.3,-2371.2,-55.2,-126.3,-82.8,-445.5,-3026.1,-1820.4,-771.0,-6.9,-6.3,-57.6,13.8,-1.2,79.2,142.5,-23.1,0,1728,0,45,0, 
0.9633,-26.1,-33.3,-78.0,-73.2,-142.5,-131.4,3.9,259.8,-2371.2,-56.1,-126.9,-85.2,-640.5,-3180.6,-1719.3,-495.3,-6.3,-6.0,-63.9,14.4,-0.9,74.1,142.5,-36.3,0,1734,0,46,0, 
0.9667,-19.8,-30.3,-2.1,-75.6,-151.8,-136.5,-6.6,258.3,-2593.5,-57.6,-121.5,-89.4,-465.6,-2903.4,-2115.6,-735.0,-7.2,-5.7,-63.0,12.6,-0.9,71.1,137.1,-38.7,0,1740,0,47,0, 
0.9700,-26.4,-32.4,141.9,-79.5,-162.9,-141.6,0.3,255.9,-2519.4,-58.5,-125.7,-90.0,-177.6,-2534.4,-2245.8,-1165.8,-7.2,-5.7,-72.3,5.1,-1.2,66.0,134.1,-42.6,0,1746,0,48,0, 
0.9733,-31.8,-42.3,71.4,-82.5,-144.0,-135.6,-0.6,255.0,-2297.1,-67.5,-129.9,-93.9,-93.0,-2595.9,-2012.4,-1164.3,-6.6,-5.7,-75.0,2.4,-0.6,68.4,137.7,-46.5,0,1752,0,49,0, 
0.9767,-31.5,-44.4,-3.9,-84.0,-131.1,-144.9,1.5,249.6,-2371.2,-59.7,-132.3,-93.0,-339.0,-3063.0,-1758.3,-685.8,-6.9,-6.0,-70.8,9.3,-0.9,64.8,135.0,-39.3,0,1758,0,50,0, 
0.9800,-30.3,-42.6,-11.1,-78.3,-126.6,-136.8,2.1,255.0,-2371.2,-66.0,-130.5,-95.7,-504.3,-3170.1,-1807.2,-477.3,-6.9,-5.7,-67.2,3.9,-0.6,69.6,143.4,-32.4,0,1764,0,51,0, 
0.9833,-31.5,-45.9,61.8,-77.4,-138.9,-135.3,-3.6,256.2,-2519.4,-57.3,-129.0,-84.9,-452.7,-2863.8,-2190.0,-769.8,-6.6,-6.0,-67.8,10.8,-0.9,74.1,135.9,-31.5,0,1770,0,52,0, 
0.9867,-27.9,-42.0,210.0,-73.8,-147.9,-138.6,-8.4,259.2,-2519.4,-58.5,-123.3,-83.1,-119.7,-2471.1,-2309.4,-1119.9,-7.2,-6.0,-61.8,17.4,-0.6,75.0,132.9,-35.1,0,1776,0,53,0, 
0.9900,-26.4,-42.0,111.9,-84.0,-154.5,-134.1,-9.6,258.6,-2593.5,-56.1,-127.5,-84.0,-59.7,-2561.4,-2059.2,-1102.5,-6.9,-6.3,-66.6,16.2,-0.6,79.2,137.4,-26.4,0,1782,0,54,0, 
0.9933,-25.2,-25.5,-1.5,-81.0,-129.6,-136.2,-0.9,258.9,-2445.3,-63.6,-126.9,-84.9,-309.6,-3037.5,-1755.9,-684.6,-6.6,-5.7,-61.2,12.9,-0.6,76.5,130.8,-27.3,0,1788,0,55,0, 
0.9967,-26.1,-34.5,-87.0,-91.5,-140.4,-141.0,-4.5,253.8,-2519.4,-55.5,-131.4,-92.7,-547.2,-3223.8,-1838.4,-447.6,-6.9,-6.0,-69.3,6.0,-1.2,68.7,127.8,-24.6,0,1794,0,56,0, 
1.0000,-24.0,-33.6,90.0,-88.2,-136.5,-141.0,-14.4,251.4,-2519.4,-55.8,-130.5,-92.1,-361.5,-2833.8,-2144.4,-720.0,-7.5,-6.0,-67.5,10.5,-0.6,76.2,122.1,-33.0,0,1800,0,57,0, 
1.0033,-20.7,-30.0,166.2,-86.7,-149.1,-139.8,-26.7,254.1,-2519.4,-57.0,-129.9,-96.3,-83.1,-2493.9,-2368.8,-1099.5,-7.2,-6.6,-68.4,4.8,-0.9,66.6,123.9,-27.9,0,1806,0,58,0, 
1.0067,-24.0,-23.1,73.5,-85.8,-135.3,-140.7,-8.7,255.0,-2445.3,-54.9,-128.7,-89.4,39.3,-2620.5,-2125.8,-942.0,-6.9,-5.7,-67.8,8.4,-1.2,75.0,130.8,-33.0,0,1812,0,59,0, 
1.0100,-20.4,-28.5,-64.8,-87.3,-127.5,-136.2,1.8,254.1,-2445.3,-54.9,-129.9,-89.1,-177.6,-3090.6,-1833.3,-555.3,-6.9,-6.0,-71.4,6.0,-0.6,66.0,137.1,-30.0,0,1818,0,60,0, 
1.0133,-19.2,-27.0,-144.6,-84.3,-125.4,-132.0,2.7,258.9,-2445.3,-51.3,-126.0,-87.3,-397.2,-3259.8,-1955.1,-396.3,-6.9,-5.7,-60.3,6.3,-1.2,75.9,136.2,-24.6,0,1824,0,61,0, 
1.0167,-24.0,-28.8,33.6,-84.6,-154.8,-135.6,-16.8,258.0,-2519.4,-54.6,-126.3,-86.4,-321.3,-2865.9,-2228.7,-669.9,-6.9,-5.7,-64.2,9.0,-0.9,68.4,128.1,-28.2,0,1830,0,62,0, 
1.0200,-23.4,-25.5,143.1,-84.9,-154.2,-133.2,-11.4,259.2,-2519.4,-60.3,-128.4,-86.1,-18.0,-2519.4,-2364.3,-1060.5,-6.9,-5.7,-70.2,9.6,-1.2,75.0,135.6,-23.4,0,1836,0,63,0, 
1.0233,-23.1,-20.1,104.7,-81.0,-141.3,-128.4,-2.7,260.1,-2371.2,-52.8,-123.3,-83.7,-8.1,-2606.7,-2204.1,-1011.6,-6.6,-6.0,-67.2,10.5,-0.6,76.5,136.5,-26.1,0,1842,0,64,0, 
1.0267,-24.9,-27.9,-50.1,-81.6,-124.2,-134.1,4.8,264.3,-2371.2,-56.7,-127.8,-87.0,-272.1,-3059.7,-1957.2,-614.7,-7.2,-6.3,-69.0,9.9,-1.2,71.1,135.6,-27.0,0,1848,0,65,0, 
1.0300,-26.4,-28.5,-62.1,-80.4,-130.5,-139.8,3.6,264.9,-2519.4,-54.0,-131.4,-85.5,-531.6,-3270.9,-2035.5,-444.0,-7.2,-6.0,-73.5,12.6,-0.6,72.9,137.1,-33.0,0,1854,0,66,0, 
1.0333,-23.4,-30.6,90.6,-77.4,-135.0,-134.7,-4.2,264.3,-2445.3,-53.4,-127.8,-82.8,-417.9,-2920.8,-2361.3,-735.9,-6.9,-5.7,-70.2,11.7,-1.2,63.6,133.2,-40.8,0,1860,0,67,0, 
1.0367,-22.5,-24.3,179.7,-73.5,-154.2,-138.3,-2.1,265.5,-2519.4,-57.9,-126.0,-85.5,-133.8,-2569.2,-2528.1,-1139.1,-6.9,-6.0,-65.1,12.3,-0.6,74.4,129.3,-33.6,0,1866,0,68,0, 
1.0400,-26.7,-28.2,138.3,-74.7,-127.2,-139.8,6.3,259.5,-2593.5,-51.9,-123.9,-83.4,-103.2,-2640.3,-2214.6,-1017.3,-6.9,-5.4,-59.4,17.4,-0.6,73.8,130.8,-30.3,0,1872,0,69,0, 
1.0433,-24.3,-16.2,-25.2,-72.3,-123.3,-135.0,9.6,261.0,-2297.1,-63.9,-122.1,-81.3,-367.8,-3132.6,-1966.5,-647.1,-6.9,-6.0,-59.1,12.9,-0.9,76.8,139.5,-22.8,0,1878,0,70,0, 
1.0467,-25.2,-28.2,-79.8,-75.0,-130.8,-138.0,5.7,259.8,-2445.3,-52.5,-119.1,-78.0,-628.2,-3264.3,-2086.8,-467.1,-6.6,-5.7,-56.4,16.5,-1.2,70.5,136.8,-18.6,0,1884,0,71,0, 
1.0500,-24.9,-31.5,67.2,-76.5,-140.1,-140.1,-11.1,260.1,-2593.5,-63.6,-126.3,-84.9,-508.5,-2949.6,-2440.8,-767.4,-7.5,-5.7,-64.2,6.0,-0.9,73.8,132.0,-27.0,0,1890,0,72,0, 
1.0533,-24.3,-24.0,263.1,-67.5,-138.6,-132.0,-4.5,261.0,-2593.5,-49.5,-114.6,-74.4,-215.7,-2603.7,-2659.8,-1116.6,-6.9,-6.0,-54.3,13.8,-0.9,79.5,136.5,-16.2,0,1896,0,73,0, 
1.0567,-24.0,-20.4,189.3,-64.2,-132.6,-129.6,-0.3,257.7,-2371.2,-51.9,-110.4,-64.5,-157.8,-2687.4,-2448.9,-1063.8,-6.9,-6.3,-54.0,26.7,-1.2,82.5,138.9,-11.4,0,1902,0,74,0, 
1.0600,-27.6,-18.6,93.6,-60.3,-106.2,-126.9,14.4,265.8,-2371.2,-50.7,-109.5,-67.8,-434.7,-3147.6,-2128.2,-708.9,-7.2,-6.3,-47.4,27.3,-0.9,86.7,140.4,-10.5,0,1908,0,75,0, 
1.0633,-30.3,-24.6,4.8,-65.4,-118.8,-129.6,2.7,262.5,-2371.2,-55.8,-117.3,-77.7,-685.5,-3324.9,-2182.8,-515.1,-7.2,-5.4,-58.5,17.1,-0.9,87.0,143.7,-8.4,0,1914,0,76,0, 
1.0667,-29.7,-28.2,82.2,-63.0,-114.9,-118.8,3.3,264.9,-2593.5,-51.3,-117.3,-79.8,-551.7,-2979.0,-2537.1,-799.8,-6.9,-6.0,-54.3,20.4,-1.2,84.9,144.9,-8.1,0,1920,0,77,0, 
1.0700,-31.2,-34.5,223.5,-68.7,-143.4,-129.0,-0.6,260.7,-2593.5,-53.7,-122.1,-77.7,-261.9,-2667.3,-2784.6,-1224.0,-6.9,-5.7,-65.4,12.0,-1.2,83.1,143.7,-13.2,0,1926,0,78,0, 
1.0733,-33.9,-38.1,247.8,-71.1,-116.1,-129.0,7.5,261.9,-2445.3,-53.7,-119.7,-73.5,-156.6,-2742.0,-2422.5,-1136.7,-6.9,-5.7,-58.2,17.7,-0.9,77.7,141.6,-9.3,0,1932,0,79,0, 
1.0767,-39.3,-46.8,10.5,-80.7,-133.8,-134.7,7.8,255.0,-2445.3,-59.4,-127.2,-79.2,-464.7,-3231.9,-2161.2,-784.2,-6.6,-5.4,-70.2,16.8,-0.6,81.0,144.0,-15.3,0,1938,0,80,0, 
1.0800,-33.3,-44.7,-73.2,-79.8,-132.6,-133.2,1.8,261.6,-2519.4,-54.9,-126.6,-78.6,-645.0,-3388.8,-2262.9,-552.3,-6.6,-6.0,-65.1,15.0,-0.6,79.2,143.4,-11.1,0,1944,0,81,0, 
1.0833,-36.0,-43.2,55.8,-88.5,-141.0,-131.7,-6.9,256.5,-2593.5,-61.2,-131.1,-83.4,-563.7,-2990.7,-2595.3,-916.8,-6.9,-6.3,-75.9,13.5,-1.2,81.9,141.0,-21.6,0,1950,0,82,0, 
1.0867,-34.8,-44.7,186.6,-85.2,-133.2,-132.9,-10.2,260.4,-2519.4,-61.5,-132.0,-84.6,-312.0,-2691.0,-2801.7,-1334.1,-7.2,-6.0,-65.4,9.6,-0.6,75.0,138.3,-22.2,0,1956,0,83,0, 
1.0900,-31.8,-40.2,157.5,-85.5,-137.4,-131.4,-6.0,251.1,-2445.3,-64.5,-132.6,-87.3,-262.2,-2760.9,-2576.1,-1245.3,-6.9,-6.0,-67.5,11.4,-0.6,77.7,139.5,-21.3,0,1962,0,84,0, 
1.0933,-30.6,-33.3,40.2,-84.6,-114.0,-133.2,2.7,255.3,-2519.4,-66.3,-131.7,-89.1,-469.2,-3164.1,-2253.6,-776.7,-7.2,-6.0,-67.2,5.7,-1.2,71.1,143.1,-16.5,0,1968,0,85,0, 
1.0967,-28.2,-35.7,5.7,-84.6,-117.9,-135.6,0.3,254.4,-2519.4,-59.1,-127.5,-81.9,-733.2,-3345.9,-2358.9,-622.2,-6.6,-5.7,-66.6,18.0,-1.2,78.9,141.0,-15.6,0,1974,0,86,0, 
1.1000,-27.0,-26.4,166.2,-80.1,-128.4,-131.4,-10.2,258.9,-2593.5,-57.6,-124.8,-80.7,-558.0,-2996.7,-2675.4,-897.0,-7.2,-5.7,-58.8,17.7,-0.9,76.5,140.7,-18.6,0,1980,0,87,0, 
1.1033,-27.0,-27.6,254.1,-81.0,-145.2,-132.9,-11.1,250.2,-2371.2,-63.3,-131.7,-88.2,-224.4,-2650.8,-2906.7,-1261.2,-6.9,-6.0,-66.0,4.2,-0.6,66.6,135.6,-36.3,0,1986,0,88,0, 
1.1067,-28.5,-34.5,274.8,-72.6,-136.2,-130.2,5.4,253.5,-2445.3,-56.1,-120.9,-74.1,-139.2,-2716.5,-2530.5,-1164.3,-7.5,-6.0,-58.5,18.6,-0.3,80.1,140.7,-24.6,0,1992,0,89,0, 
1.1100,-21.9,-20.7,57.3,-72.0,-120.6,-127.8,6.6,259.2,-2371.2,-55.2,-122.7,-75.3,-440.4,-3162.0,-2381.4,-845.4,-7.5,-6.0,-62.1,20.7,-0.9,74.7,146.1,-33.0,0,1998,0,90,0, 
1.1133,-22.8,-26.7,4.5,-70.5,-124.2,-127.8,5.1,264.3,-2519.4,-49.8,-123.3,-78.6,-618.6,-3346.8,-2349.3,-636.0,-6.9,-6.0,-60.6,15.9,-0.6,81.3,145.5,-23.1,0,2004,0,91,0, 
1.1167,-27.9,-24.0,158.4,-77.7,-148.5,-134.4,-4.5,267.0,-2519.4,-55.8,-127.8,-78.3,-444.0,-2929.8,-2737.5,-925.5,-6.9,-6.0,-66.3,15.0,-0.9,80.7,143.1,-37.5,0,2010,0,92,0, 
1.1200,-27.9,-25.2,295.2,-77.7,-129.0,-132.3,-12.6,265.8,-2519.4,-58.8,-121.5,-81.3,-101.7,-2594.4,-2932.8,-1269.3,-6.9,-6.0,-59.4,17.7,-0.9,78.0,135.3,-36.6,0,2016,0,93,0, 
1.1233,-19.8,-21.3,199.2,-72.3,-136.2,-131.1,-6.0,266.1,-2371.2,-54.9,-117.0,-80.7,-82.8,-2741.1,-2707.2,-1184.4,-7.2,-6.3,-57.0,17.7,-1.2,80.1,139.8,-42.3,0,2022,0,94,0, 
1.1267,-20.7,-23.4,48.3,-74.7,-133.5,-132.0,10.5,263.4,-2371.2,-56.7,-126.6,-84.9,-311.7,-3130.5,-2398.2,-754.2,-6.9,-6.0,-63.6,8.1,-0.6,68.1,144.3,-36.6,0,2028,0,95,0, 
1.1300,-23.1,-27.9,65.4,-74.1,-122.4,-136.2,15.6,258.6,-2371.2,-61.2,-132.9,-80.4,-521.4,-3266.1,-2394.6,-559.8,-6.6,-5.7,-66.6,-1.5,-0.9,70.2,142.5,-38.1,0,2034,0,96,0, 
1.1333,-23.7,-30.3,182.1,-70.5,-120.9,-131.7,0.9,258.0,-2519.4,-65.1,-130.2,-79.5,-390.9,-2928.3,-2721.0,-838.2,-6.6,-5.7,-72.9,2.1,-0.9,66.3,132.9,-42.9,0,2040,0,97,0, 
1.1367,-22.5,-30.3,342.9,-72.6,-131.7,-134.7,-6.9,261.9,-2445.3,-70.2,-125.4,-76.5,-118.5,-2556.0,-2949.0,-1225.5,-7.2,-6.0,-66.6,6.9,-1.2,71.4,138.6,-38.7,0,2046,0,98,0, 
1.1400,-24.6,-34.8,216.6,-75.0,-126.0,-136.8,2.1,259.5,-2371.2,-66.9,-127.8,-83.7,-54.9,-2697.6,-2781.3,-1207.8,-6.6,-6.3,-72.3,4.2,-0.9,62.4,140.1,-50.4,0,2052,0,99,0, 
1.1433,-25.5,-36.6,52.8,-76.8,-103.8,-130.2,6.6,261.0,-2223.0,-68.1,-129.6,-84.9,-313.2,-3172.2,-2495.7,-732.0,-6.9,-5.4,-74.4,3.3,-0.9,66.9,148.2,-38.1,0,2058,0,100,0, 
1.1467,-23.7,-39.0,58.2,-73.5,-112.8,-127.8,8.1,257.1,-2223.0,-64.5,-129.9,-81.3,-502.5,-3299.1,-2556.0,-536.7,-6.6,-6.0,-67.8,8.7,-0.6,67.2,144.3,-36.9,0,2064,0,101,0, 
1.1500,-26.4,-43.5,225.0,-72.9,-122.7,-127.8,-1.8,255.9,-2371.2,-67.5,-126.0,-78.0,-360.3,-2970.3,-2880.3,-848.7,-7.2,-6.3,-65.4,8.1,-0.9,72.6,146.4,-36.3,0,2070,0,102,0, 
1.1533,-33.0,-43.8,340.5,-70.8,-120.6,-128.1,1.5,250.5,-2519.4,-67.8,-123.6,-79.5,-95.7,-2557.8,-3021.0,-1173.0,-6.9,-6.0,-60.0,4.5,-0.6,72.6,138.9,-40.2,0,2076,0,103,0, 
1.1567,-31.5,-41.1,283.2,-67.5,-110.7,-125.4,9.0,248.1,-2445.3,-67.8,-124.5,-80.4,0.3,-2726.7,-2775.9,-1141.8,-6.9,-5.7,-67.2,4.5,-0.9,71.4,141.3,-34.5,0,2082,0,104,0, 
1.1600,-28.2,-36.3,130.8,-63.3,-90.0,-123.6,18.0,248.4,-2445.3,-65.1,-120.3,-79.5,-279.9,-3170.4,-2429.1,-735.6,-6.6,-6.0,-56.1,9.3,-0.9,77.1,146.4,-15.3,0,2088,0,105,0, 
1.1633,-25.2,-37.8,130.5,-53.7,-82.5,-109.8,16.2,253.5,-2593.5,-51.9,-110.7,-58.2,-500.4,-3264.0,-2472.6,-548.7,-6.9,-6.0,-52.5,26.1,-0.6,90.9,149.1,-9.0,0,2094,0,106,0, 
1.1667,-26.1,-35.1,344.7,-52.5,-98.7,-110.1,15.0,255.0,-2445.3,-54.0,-109.8,-54.0,-378.9,-2909.4,-2892.9,-773.7,-6.6,-6.3,-47.4,33.9,-1.2,88.2,147.6,-10.8,0,2100,0,107,0, 
1.1700,-21.0,-29.4,455.1,-48.6,-100.8,-109.2,5.7,261.9,-2667.6,-55.5,-110.7,-58.8,-49.5,-2511.0,-3010.2,-1129.2,-6.9,-6.0,-48.3,30.0,-0.9,90.6,148.2,-11.1,0,2106,0,108,0, 
1.1733,-27.6,-27.6,358.5,-51.3,-91.5,-114.0,13.5,255.3,-2297.1,-51.6,-110.4,-59.7,-12.0,-2693.1,-2797.5,-1080.6,-6.9,-6.0,-47.7,22.2,-0.9,78.3,151.2,-11.1,0,2112,0,109,0, 
1.1767,-27.9,-26.1,99.9,-52.2,-95.7,-112.2,17.4,255.3,-2371.2,-53.1,-111.6,-60.0,-289.5,-3172.5,-2584.5,-720.6,-6.9,-5.4,-51.3,24.0,-0.9,92.1,157.2,-5.4,0,2118,0,110,0, 
1.1800,-32.7,-31.2,48.3,-58.5,-102.9,-116.7,23.4,254.4,-2371.2,-57.6,-119.1,-62.7,-524.4,-3266.1,-2514.6,-475.8,-6.6,-6.0,-57.9,17.7,-1.2,87.3,152.4,-14.7,0,2124,0,111,0, 
1.1833,-26.7,-25.2,286.8,-55.5,-127.5,-114.6,20.4,260.1,-2519.4,-51.6,-114.3,-67.8,-417.9,-2852.1,-2846.7,-801.0,-6.9,-6.0,-52.2,17.7,-0.9,87.9,150.0,-17.7,0,2130,0,112,0, 
1.1867,-30.9,-35.4,437.4,-57.9,-122.4,-106.8,12.3,259.2,-2371.2,-50.1,-117.9,-69.0,-131.4,-2514.0,-2943.3,-1051.8,-7.2,-6.0,-54.6,10.5,-1.2,85.8,150.0,-25.2,0,2136,0,113,0, 
1.1900,-28.5,-27.6,364.2,-62.7,-115.5,-115.5,14.7,261.9,-2371.2,-51.6,-120.6,-70.5,-57.0,-2687.7,-2721.6,-1073.1,-7.2,-6.6,-52.8,8.7,-0.9,78.3,161.4,-17.4,0,2142,0,114,0, 
1.1933,-26.7,-33.6,132.6,-69.6,-109.2,-125.1,19.5,261.6,-2371.2,-47.4,-121.2,-70.2,-310.2,-3104.1,-2420.7,-552.0,-6.9,-6.0,-60.0,11.1,-0.9,86.1,158.1,-19.5,0,2148,0,115,0, 
1.1967,-29.4,-29.4,90.3,-76.8,-137.4,-127.2,25.5,253.5,-2519.4,-57.0,-123.9,-72.9,-550.5,-3193.2,-2476.8,-353.4,-6.6,-5.7,-68.7,1.8,-1.2,81.9,152.1,-26.7,0,2154,0,116,0, 
1.2000,-27.3,-30.6,729.0,-72.9,-93.9,-127.8,27.9,255.6,-2445.3,-60.9,-127.5,-78.3,-83.4,-2622.9,-2312.4,-288.9,-6.6,-6.0,-63.3,-4.8,-0.6,76.8,144.6,-32.1,0,2160,0,117,0, 
1.2033,-24.9,-35.1,840.3,-73.2,-116.7,-127.5,0.9,256.5,-2593.5,-55.8,-130.8,-81.0,133.2,-2409.3,-2570.4,-827.7,-7.2,-6.3,-65.7,-3.3,-0.9,73.8,141.6,-36.6,0,2166,0,118,0, 
1.2067,-30.3,-39.3,660.6,-73.5,-106.8,-131.1,2.7,256.8,-2371.2,-59.7,-128.1,-77.4,117.9,-2625.0,-2439.0,-822.3,-6.6,-6.0,-62.7,2.4,-0.6,72.9,146.7,-40.5,0,2172,0,119,0, 
1.2100,-26.7,-25.5,388.8,-72.0,-118.2,-135.9,7.2,261.3,-2445.3,-62.7,-124.2,-78.0,-261.0,-3089.7,-2279.7,-422.4,-6.9,-6.3,-60.3,1.2,-0.6,76.8,149.4,-39.0,0,2178,0,120,0, 
1.2133,-23.4,-26.4,343.2,-70.2,-107.7,-132.3,0.9,260.4,-2519.4,-60.9,-128.1,-78.0,-542.4,-3195.9,-2307.9,-183.0,-7.2,-5.7,-66.0,2.7,-0.9,75.3,143.4,-45.9,0,2184,0,121,0, 
1.2167,-23.4,-29.1,433.5,-71.7,-114.3,-136.8,-10.8,253.8,-2445.3,-63.9,-126.0,-77.4,-434.1,-2880.9,-2682.0,-522.9,-6.9,-6.0,-65.4,4.2,-0.9,69.9,138.0,-50.4,0,2190,0,122,0, 
1.2200,-21.6,-29.7,516.3,-69.3,-131.4,-135.9,0.9,250.8,-2371.2,-64.2,-122.4,-79.5,-152.1,-2547.3,-2828.7,-861.3,-6.9,-5.7,-63.0,3.3,-0.9,61.2,139.8,-52.8,0,2196,0,123,0, 
1.2233,-20.4,-26.7,382.8,-69.6,-104.1,-134.7,4.5,254.7,-2371.2,-64.5,-123.0,-73.8,-130.8,-2679.0,-2574.3,-790.5,-6.9,-5.7,-63.3,5.7,-0.6,74.4,138.0,-41.4,0,2202,0,124,0, 
1.2267,-29.7,-36.9,222.6,-66.3,-77.4,-132.0,9.0,250.5,-2371.2,-66.0,-124.8,-75.3,-400.2,-3175.2,-2262.3,-317.1,-6.9,-6.0,-64.8,6.9,-0.9,69.0,142.8,-36.3,0,2208,0,125,0, 
1.2300,-27.3,-33.0,133.2,-63.0,-100.5,-126.3,21.0,250.8,-2371.2,-66.9,-124.5,-76.2,-704.1,-3281.7,-2325.3,-181.5,-6.9,-6.0,-65.1,0.3,-0.9,73.5,146.4,-36.6,0,2214,0,126,0, 
1.2333,-24.9,-36.0,348.0,-63.0,-106.5,-124.2,16.2,252.3,-2519.4,-63.3,-119.4,-70.8,-554.1,-2901.6,-2623.2,-438.3,-6.9,-5.7,-62.4,1.5,-0.6,60.9,143.4,-39.9,0,2220,0,127,0, 
1.2367,-27.0,-35.1,486.3,-59.1,-108.6,-124.8,3.9,258.9,-2445.3,-58.8,-116.1,-69.6,-272.7,-2510.1,-2753.7,-801.9,-6.6,-5.7,-58.8,5.7,-0.9,69.0,130.2,-45.6,0,2226,0,128,0, 
1.2400,-31.5,-35.1,396.6,-61.2,-104.7,-121.5,1.8,254.1,-2371.2,-61.5,-116.1,-75.3,-283.5,-2756.7,-2554.2,-732.3,-6.9,-6.3,-55.8,4.2,-0.9,68.1,139.5,-33.6,0,2232,0,129,0, 
1.2433,-24.3,-25.8,185.4,-54.6,-98.1,-118.2,24.6,258.6,-2445.3,-57.0,-107.7,-61.8,-606.3,-3166.5,-2206.5,-286.2,-6.9,-6.0,-48.6,12.6,-1.2,82.5,150.9,-28.8,0,2238,0,130,0, 
1.2467,-25.5,-30.3,197.1,-57.6,-98.7,-119.4,24.0,255.9,-2445.3,-56.4,-114.6,-64.8,-785.1,-3304.8,-2187.9,-64.5,-6.9,-5.7,-61.8,14.7,-0.9,85.5,150.0,-22.8,0,2244,0,131,0, 
1.2500,-28.2,-31.2,352.5,-65.1,-115.8,-119.7,9.0,252.0,-2519.4,-59.4,-117.9,-70.8,-671.7,-2944.5,-2450.4,-372.0,-6.9,-5.7,-57.3,4.5,-1.2,72.3,147.9,-32.7,0,2250,0,132,0, 
1.2533,-27.9,-32.4,492.3,-69.9,-114.0,-123.9,-2.4,252.6,-2519.4,-67.5,-119.4,-72.3,-407.1,-2593.8,-2628.3,-696.9,-6.3,-5.7,-58.2,1.5,-0.6,68.7,136.5,-27.3,0,2256,0,133,0, 
1.2567,-33.9,-43.2,335.4,-71.7,-109.8,-128.1,0.6,249.9,-2445.3,-63.9,-119.7,-73.5,-393.3,-2753.1,-2413.5,-655.2,-6.6,-5.7,-57.3,1.8,-0.9,76.5,141.6,-28.5,0,2262,0,134,0, 
1.2600,-31.2,-34.5,111.9,-67.8,-106.8,-124.5,9.3,258.3,-2371.2,-58.2,-121.5,-73.8,-663.0,-3182.4,-2108.1,-264.3,-6.9,-6.0,-60.6,2.1,-0.6,76.8,146.1,-24.0,0,2268,0,135,0, 
1.2633,-33.0,-34.2,96.9,-70.5,-110.4,-126.0,15.9,254.1,-2519.4,-60.9,-124.2,-75.6,-908.1,-3294.9,-2101.5,-27.0,-7.2,-5.7,-62.7,-4.5,-1.2,71.7,146.4,-22.8,0,2274,0,136,0, 
1.2667,-31.5,-35.7,280.5,-71.4,-126.3,-127.8,7.8,249.3,-2519.4,-60.9,-118.5,-74.4,-758.7,-2919.9,-2420.4,-243.0,-6.9,-5.7,-61.2,8.1,-1.2,79.2,145.5,-21.0,0,2280,0,137,0, 
1.2700,-28.8,-30.9,396.3,-70.8,-119.4,-123.9,0.0,242.7,-2519.4,-57.6,-121.2,-75.3,-535.5,-2618.1,-2604.0,-704.7,-7.2,-6.0,-57.3,7.2,-0.9,89.1,138.3,-21.6,0,2286,0,138,0, 
1.2733,-29.7,-38.1,260.1,-69.3,-113.7,-125.4,4.8,242.1,-2445.3,-60.3,-116.4,-70.2,-483.3,-2757.6,-2292.0,-597.3,-6.9,-6.0,-53.1,4.8,-0.6,80.1,148.8,-13.2,0,2292,0,139,0, 
1.2767,-24.6,-24.3,-26.1,-69.3,-98.4,-125.1,15.6,239.4,-2297.1,-52.2,-123.3,-67.5,-836.7,-3225.3,-2009.7,-160.2,-7.2,-6.3,-59.4,6.9,-0.6,75.6,150.6,-13.5,0,2298,0,140,0, 
1.2800,-28.8,-34.2,16.2,-75.3,-110.1,-125.4,12.9,239.1,-2371.2,-62.4,-127.2,-73.2,-1042.8,-3324.3,-2022.0,63.9,-7.2,-6.0,-64.5,2.7,-0.3,72.3,147.6,-15.0,0,2304,0,141,0, 
1.2833,-30.6,-37.5,194.4,-74.4,-123.3,-132.0,1.5,238.5,-2519.4,-64.2,-126.3,-78.3,-906.6,-2974.5,-2299.8,-246.9,-7.2,-6.3,-67.8,-1.5,-0.6,70.5,139.5,-24.6,0,2310,0,142,0, 
1.2867,-27.0,-30.9,383.1,-72.6,-118.2,-127.2,1.8,245.1,-2519.4,-59.7,-123.3,-76.8,-628.8,-2620.2,-2411.1,-577.5,-6.9,-6.0,-61.5,0.6,-0.6,65.4,139.8,-28.5,0,2316,0,143,0, 
1.2900,-22.8,-32.4,213.9,-67.5,-115.2,-126.0,4.2,247.5,-2371.2,-59.4,-120.0,-75.3,-650.1,-2797.5,-2262.0,-499.8,-7.2,-5.7,-63.3,3.0,-1.2,69.6,145.2,-30.6,0,2322,0,144,0, 
1.2933,-27.9,-36.6,29.1,-72.3,-105.9,-130.2,11.7,246.0,-2445.3,-63.3,-126.6,-79.5,-918.6,-3230.1,-1931.4,-140.1,-6.9,-5.7,-65.4,-3.6,-0.9,64.5,144.0,-24.3,0,2328,0,145,0, 
1.2967,-31.2,-35.7,-14.1,-70.5,-106.2,-133.5,6.9,241.2,-2371.2,-67.5,-126.9,-84.6,-1152.9,-3366.6,-1943.1,110.1,-7.2,-6.3,-67.2,-5.7,-0.9,66.0,142.2,-21.9,0,2334,0,146,0, 
1.3000,-28.5,-34.5,207.6,-71.7,-117.6,-136.2,8.1,238.5,-2445.3,-59.7,-120.9,-78.6,-1005.9,-2943.0,-2242.2,-156.3,-6.9,-6.0,-64.8,-2.4,-0.9,63.9,147.3,-21.9,0,2340,0,147,0, 
1.3033,-30.6,-37.2,363.6,-69.6,-129.6,-139.5,-3.9,243.3,-2593.5,-72.9,-118.5,-72.9,-717.6,-2635.2,-2402.1,-539.4,-6.6,-5.7,-56.4,3.9,-0.6,63.3,139.5,-26.7,0,2346,0,148,0, 
1.3067,-24.6,-39.3,231.3,-69.0,-127.5,-136.2,3.6,246.9,-2445.3,-69.0,-117.6,-72.0,-736.2,-2813.4,-2177.1,-489.3,-7.2,-6.0,-58.2,3.6,-0.9,61.5,146.4,-21.0,0,2352,0,149,0, 
1.3100,-20.4,-31.5,11.4,-57.3,-116.7,-132.9,12.9,254.4,-2445.3,-60.6,-108.6,-61.8,-1042.5,-3305.7,-1835.1,-114.0,-6.9,-5.7,-48.3,11.1,-0.9,74.7,155.1,-11.7,0,2358,0,150,0, 
1.3133,-22.2,-33.6,-33.6,-60.3,-107.4,-137.7,13.2,252.6,-2445.3,-53.4,-105.0,-60.6,-1246.5,-3382.2,-1842.9,144.3,-6.9,-6.3,-46.5,4.5,-0.9,67.2,151.2,-20.4,0,2364,0,151,0, 
1.3167,-19.5,-29.1,193.8,-57.9,-106.8,-132.3,4.2,256.5,-2519.4,-57.3,-108.0,-64.5,-1078.8,-3045.3,-2156.1,-194.4,-6.9,-5.7,-52.5,6.6,-0.9,69.6,145.2,-31.8,0,2370,0,152,0, 
1.3200,-24.9,-29.4,255.3,-53.4,-113.7,-129.9,3.3,259.2,-2445.3,-52.5,-104.1,-66.6,-808.2,-2720.7,-2389.5,-624.0,-7.2,-5.7,-45.0,13.8,-0.3,78.3,146.7,-21.9,0,2376,0,153,0, 
1.3233,-22.8,-28.2,230.4,-52.2,-111.0,-138.9,-0.3,254.1,-2445.3,-61.8,-104.4,-65.1,-813.9,-2861.7,-2138.7,-513.0,-6.9,-6.0,-45.3,10.8,-0.6,73.8,152.4,-22.5,0,2382,0,154,0, 
1.3267,-27.9,-32.4,50.1,-56.1,-100.8,-131.4,15.3,254.1,-2371.2,-58.5,-109.8,-60.9,-1086.6,-3292.2,-1802.7,-60.9,-7.2,-6.0,-48.9,5.7,-0.9,68.7,157.8,-19.2,0,2388,0,155,0, 
1.3300,-23.1,-29.7,18.0,-54.3,-116.4,-128.1,3.9,261.3,-2371.2,-56.7,-106.5,-56.1,-1325.7,-3418.8,-1900.2,164.7,-6.9,-6.0,-48.3,10.5,-0.9,77.1,157.5,-22.2,0,2394,0,156,0, 
1.3333,-25.2,-34.5,186.0,-58.2,-105.0,-126.3,-1.2,261.0,-2445.3,-51.3,-107.4,-55.5,-1214.4,-3039.0,-2201.1,-119.4,-7.2,-6.0,-49.5,10.8,-0.9,83.1,149.7,-23.4,0,2400,0,157,0, 
1.3367,-24.3,-30.0,291.0,-57.9,-109.8,-123.6,4.2,263.7,-2445.3,-52.8,-109.2,-59.1,-953.1,-2735.1,-2372.7,-537.3,-6.9,-6.0,-51.9,9.9,-0.9,77.7,149.7,-24.9,0,2406,0,158,0, 
1.3400,-28.5,-32.1,217.2,-63.3,-122.7,-123.3,8.1,260.1,-2371.2,-62.4,-116.1,-63.0,-928.5,-2841.0,-2092.5,-516.0,-6.9,-5.7,-59.1,6.3,-0.9,74.7,155.1,-20.7,0,2412,0,159,0, 
1.3433,-22.5,-31.5,-70.5,-66.0,-113.4,-125.7,2.1,258.9,-2371.2,-53.7,-114.0,-63.9,-1243.5,-3314.4,-1764.9,-91.8,-6.6,-6.0,-57.6,10.2,-1.2,72.3,159.0,-20.1,0,2418,0,160,0, 
1.3467,-25.8,-26.1,-45.0,-66.6,-100.2,-122.4,9.6,252.0,-2371.2,-67.8,-113.4,-59.4,-1432.5,-3387.0,-1743.0,90.0,-6.6,-5.4,-57.0,17.4,-1.2,71.7,157.8,-25.8,0,2424,0,161,0, 
1.3500,-26.1,-36.0,108.0,-76.2,-126.0,-123.9,-12.0,243.6,-2519.4,-67.8,-136.2,-80.4,-1302.0,-3120.6,-2095.8,-213.6,-6.9,-6.0,-83.4,-0.3,-1.2,59.1,146.1,-35.1,0,2430,0,162,0, 
1.3533,-28.8,-45.9,243.9,-78.9,-123.0,-123.9,-5.7,240.6,-2519.4,-69.9,-146.4,-90.9,-1081.2,-2773.2,-2297.1,-586.5,-6.9,-5.7,-89.7,-6.3,-1.2,63.3,151.8,-33.0,0,2436,0,163,0, 
1.3567,-29.4,-42.9,120.6,-81.3,-111.0,-124.8,-15.6,242.4,-2519.4,-67.8,-144.6,-91.2,-1081.2,-2886.6,-2069.7,-565.2,-7.2,-5.7,-78.0,-5.4,-1.2,62.7,152.4,-39.6,0,2442,0,164,0, 
1.3600,-32.4,-42.6,-28.2,-77.1,-114.3,-130.8,-9.9,245.1,-2371.2,-66.6,-118.2,-77.4,-1358.4,-3290.7,-1701.0,-118.5,-7.2,-6.0,-51.9,-6.6,-1.2,63.6,150.0,-26.4,0,2448,0,165,0, 
1.3633,-27.9,-39.3,-22.5,-78.9,-120.6,-128.4,3.0,250.5,-2445.3,-60.9,-112.8,-66.9,-1568.7,-3411.6,-1703.1,107.1,-6.9,-6.0,-52.2,2.4,-0.9,65.1,150.6,-24.6,0,2454,0,166,0, 
1.3667,-28.8,-39.6,144.9,-77.1,-135.3,-127.2,-5.1,252.3,-2519.4,-59.7,-108.0,-60.9,-1462.8,-3115.2,-2009.1,-244.5,-6.9,-5.7,-46.5,6.9,-1.2,61.8,150.0,-29.1,0,2460,0,167,0, 
1.3700,-23.7,-43.2,292.5,-75.6,-148.8,-124.8,-13.8,249.3,-2593.5,-59.1,-107.7,-56.4,-1227.3,-2755.2,-2159.4,-586.8,-6.9,-6.0,-49.2,4.2,-0.9,67.2,152.1,-26.7,0,2466,0,168,0, 
1.3733,-24.6,-34.5,124.8,-75.0,-135.3,-120.3,-11.1,253.5,-2519.4,-63.9,-105.0,-57.6,-1267.8,-2927.1,-1980.6,-592.5,-6.9,-5.7,-44.1,5.4,-0.9,66.9,151.8,-24.0,0,2472,0,169,0, 
1.3767,-21.3,-30.9,-94.8,-69.3,-123.0,-117.9,-1.8,257.1,-2519.4,-60.6,-105.9,-58.5,-1544.4,-3364.8,-1708.5,-171.3,-6.9,-6.3,-49.2,-0.9,-0.6,61.2,151.8,-23.1,0,2478,0,170,0, 
1.3800,-23.7,-36.6,-68.1,-70.5,-119.4,-125.1,2.1,253.8,-2519.4,-60.9,-103.2,-61.2,-1714.5,-3458.4,-1723.5,30.0,-6.6,-6.3,-41.7,-8.4,-0.9,58.5,153.9,-29.1,0,2484,0,171,0, 
1.3833,-21.0,-38.1,152.1,-67.8,-122.4,-120.0,4.2,254.1,-2371.2,-64.5,-97.8,-52.8,-1594.5,-3107.7,-1982.4,-263.1,-6.9,-6.0,-39.0,-2.4,-0.6,67.2,158.1,-35.7,0,2490,0,172,0, 
1.3867,-17.4,-31.5,195.3,-60.3,-117.6,-118.2,-6.6,257.4,-2445.3,-47.7,-83.7,-34.2,-1381.5,-2851.5,-2242.2,-708.0,-6.6,-6.0,-25.8,8.1,-0.6,73.8,150.9,-38.7,0,2496,0,173,0, 
1.3900,-14.7,-27.9,153.3,-63.6,-110.7,-126.3,1.2,262.2,-2445.3,-56.1,-86.7,-43.5,-1334.1,-2844.6,-1940.1,-560.4,-7.2,-6.0,-27.9,-8.1,-0.9,62.7,155.1,-33.9,0,2502,0,174,0, 
1.3933,-18.6,-32.1,-17.1,-56.1,-95.4,-122.7,6.3,267.0,-2297.1,-52.5,-78.3,-32.1,-1606.2,-3315.9,-1628.4,-143.7,-6.9,-6.0,-20.7,0.6,-1.5,69.3,160.8,-25.5,0,2508,0,175,0, 
1.3967,-16.5,-21.6,-43.2,-46.8,-95.1,-118.8,14.7,260.7,-2223.0,-49.2,-63.3,-20.7,-1843.8,-3412.2,-1688.7,14.7,-7.2,-6.3,-4.5,6.3,-0.6,72.3,159.0,-21.3,0,2514,0,176,0, 
1.4000,-10.2,-16.8,120.6,-41.7,-102.0,-116.4,2.1,260.4,-2519.4,-43.2,-64.2,-22.8,-1702.8,-3133.2,-2091.6,-331.2,-6.9,-6.3,-8.7,-0.9,-0.9,75.6,153.9,-35.1,0,2520,0,177,0, 
1.4033,-15.0,-18.3,200.7,-47.1,-111.6,-120.9,0.0,257.1,-2371.2,-41.7,-63.0,-17.7,-1506.6,-2802.9,-2274.6,-748.2,-6.9,-5.7,-0.3,4.5,-0.6,72.9,156.0,-33.9,0,2526,0,178,0, 
1.4067,-14.1,-15.0,224.7,-45.9,-96.9,-123.0,3.9,251.7,-2297.1,-37.8,-48.6,-10.8,-1426.8,-2871.6,-1914.3,-618.9,-6.9,-6.3,8.1,5.7,-0.9,76.5,163.8,-24.0,0,2532,0,179,0, 
1.4100,-6.9,-13.8,-86.4,-46.8,-114.0,-122.4,2.1,257.1,-2297.1,-40.5,-54.9,-14.7,-1762.5,-3373.5,-1770.3,-358.5,-6.6,-5.7,3.6,-2.1,-0.9,61.8,174.6,-23.1,0,2538,0,180,0, 
1.4133,-5.4,-10.8,-366.9,-46.5,-126.0,-123.6,6.3,259.8,-2371.2,-40.8,-60.0,-20.1,-2077.2,-3561.3,-2073.0,-287.1,-7.2,-6.0,-3.9,-9.0,-0.9,62.1,168.3,-27.0,0,2544,0,181,0, 
1.4167,-7.2,-11.1,-1.5,-49.2,-137.1,-126.0,-7.5,262.2,-2371.2,-33.6,-54.9,-19.2,-1858.5,-3123.6,-2169.6,-428.1,-6.9,-5.7,14.7,-18.0,-0.9,54.3,152.7,-27.0,0,2550,0,182,0, 
1.4200,-16.8,-16.2,109.8,-51.6,-132.6,-124.8,-8.7,260.1,-2445.3,-47.1,-61.5,-24.3,-1606.8,-2754.0,-2342.7,-782.1,-6.9,-6.0,13.2,-22.2,-0.9,53.4,148.8,-33.0,0,2556,0,183,0, 
1.4233,-14.1,-18.0,42.3,-56.4,-133.2,-129.9,-5.7,256.2,-2223.0,-44.7,-64.5,-37.8,-1493.1,-2908.2,-2069.4,-720.3,-6.9,-5.7,6.3,-35.1,-0.6,44.7,145.2,-37.2,0,2562,0,184,0, 
1.4267,-14.1,-13.5,-119.7,-56.7,-117.3,-127.5,5.4,261.9,-2297.1,-57.0,-59.1,-36.0,-1778.7,-3313.2,-1806.6,-300.3,-6.9,-6.3,11.1,-31.8,-0.9,46.8,154.5,-34.8,0,2568,0,185,0, 
1.4300,-15.3,-17.1,-67.8,-66.6,-133.5,-128.1,12.3,255.3,-2519.4,-54.9,-62.4,-35.7,-1919.1,-3420.0,-1847.7,-120.3,-6.6,-5.7,5.4,-43.8,-0.3,32.1,155.1,-40.2,0,2574,0,186,0, 
1.4333,-15.0,-16.8,57.6,-59.4,-149.4,-123.9,3.9,260.1,-2519.4,-47.1,-58.8,-28.2,-1834.2,-3107.4,-2156.7,-468.3,-6.9,-5.7,14.4,-39.3,-0.9,36.6,152.7,-41.7,0,2580,0,187,0, 
1.4367,-13.5,-7.5,163.8,-52.8,-153.9,-125.4,1.8,264.0,-2445.3,-45.9,-47.7,-22.2,-1591.5,-2763.3,-2335.8,-899.4,-6.6,-5.7,23.1,-36.3,-0.6,43.2,153.0,-41.7,0,2586,0,188,0, 
1.4400,-12.3,-10.2,84.9,-45.6,-127.5,-116.1,18.3,267.0,-2371.2,-36.6,-41.7,-11.4,-1499.1,-2892.0,-2074.8,-803.4,-6.9,-5.7,32.7,-22.2,-1.2,53.7,160.2,-35.1,0,2592,0,189,0, 
1.4433,-9.3,-13.8,-48.3,-52.5,-106.5,-122.4,22.8,261.9,-2371.2,-38.1,-47.7,-18.9,-1677.3,-3244.5,-1767.3,-378.9,-6.9,-5.7,22.5,-26.7,-0.6,52.2,162.6,-32.4,0,2598,0,190,0, 
1.4467,-7.8,-11.1,-70.5,-51.6,-123.3,-119.4,17.7,260.1,-2371.2,-39.0,-50.4,-25.8,-1965.3,-3370.2,-1802.1,-160.5,-6.6,-6.3,25.8,-31.2,-0.9,43.8,162.3,-37.2,0,2604,0,191,0, 
1.4500,-3.6,-2.4,90.9,-45.9,-126.6,-119.1,13.2,264.9,-2371.2,-34.8,-46.5,-19.5,-1800.3,-2984.1,-2079.3,-472.5,-7.2,-5.4,26.7,-27.6,-0.9,51.9,160.2,-24.0,0,2610,0,192,0, 
1.4533,-7.8,-3.3,155.4,-48.0,-131.7,-126.6,0.3,263.1,-2445.3,-36.3,-51.0,-24.9,-1528.2,-2690.7,-2329.2,-937.5,-6.9,-6.0,24.0,-27.0,-0.9,44.1,159.0,-32.4,0,2616,0,193,0, 
1.4567,-9.9,-11.1,115.5,-49.5,-124.8,-118.5,8.7,260.1,-2297.1,-37.8,-52.2,-27.6,-1493.4,-2802.6,-2056.2,-892.5,-6.9,-5.7,17.1,-24.3,-0.9,52.8,163.5,-25.5,0,2622,0,194,0, 
1.4600,-7.8,-4.2,-68.1,-40.5,-114.0,-112.5,17.7,265.5,-2148.9,-31.5,-46.5,-15.9,-1696.2,-3250.5,-1762.5,-510.6,-6.6,-5.7,26.7,-13.2,-0.9,61.2,167.1,-26.1,0,2628,0,195,0, 
1.4633,-9.9,-9.0,-51.0,-46.8,-106.8,-117.3,14.7,263.4,-2445.3,-35.4,-53.7,-23.1,-1825.5,-3306.3,-1896.6,-258.9,-6.6,-6.0,18.3,-20.7,-0.9,51.6,163.2,-28.5,0,2634,0,196,0, 
1.4667,-13.8,-14.4,62.4,-49.8,-113.1,-114.9,7.2,264.3,-2445.3,-36.3,-55.5,-28.5,-1674.6,-2990.1,-2176.5,-591.3,-6.9,-6.6,7.8,-25.5,-0.9,47.4,164.1,-32.1,0,2640,0,197,0, 
1.4700,-14.4,-15.3,254.4,-52.5,-118.5,-115.8,8.1,262.5,-2371.2,-40.2,-54.9,-25.2,-1471.8,-2668.2,-2421.9,-1006.2,-7.2,-5.7,13.5,-27.3,-0.9,51.9,160.2,-38.7,0,2646,0,198,0, 
1.4733,-15.0,-18.6,199.2,-55.5,-108.3,-123.6,7.2,263.1,-2371.2,-42.9,-62.4,-30.0,-1466.7,-2796.3,-2189.1,-996.6,-6.9,-6.0,0.0,-32.7,-0.9,51.9,163.8,-31.8,0,2652,0,199,0, 
1.4767,-10.8,-11.7,-30.9,-48.3,-97.2,-126.0,10.8,263.7,-2445.3,-45.9,-57.9,-29.1,-1707.3,-3170.1,-1922.7,-633.0,-6.6,-6.0,8.1,-27.3,-0.9,45.3,160.2,-36.9,0,2658,0,200,0, 
1.4800,-9.0,-14.1,-53.7,-50.7,-104.1,-130.2,12.6,267.3,-2371.2,-40.2,-57.0,-29.7,-1857.6,-3263.7,-2007.6,-465.0,-7.2,-6.0,14.7,-33.6,-0.9,51.3,159.9,-32.4,0,2664,0,201,0, 
1.4833,-8.4,-10.5,88.8,-45.3,-110.1,-125.7,5.7,271.5,-2371.2,-39.0,-56.1,-25.5,-1747.5,-2978.7,-2413.8,-780.0,-6.9,-5.4,17.1,-24.0,-0.9,49.5,159.3,-33.0,0,2670,0,202,0, 
1.4867,-4.8,-8.1,219.9,-42.6,-105.6,-124.8,9.0,274.2,-2371.2,-49.8,-56.4,-28.5,-1476.3,-2675.1,-2597.7,-1192.2,-6.9,-6.3,15.9,-38.4,-0.6,49.5,145.5,-32.1,0,2676,0,203,0, 
1.4900,-6.3,-12.0,120.9,-51.0,-116.1,-133.5,-6.0,268.8,-2445.3,-42.6,-63.3,-37.8,-1427.4,-2769.6,-2340.3,-1195.5,-7.2,-6.0,8.1,-36.9,-0.9,39.0,147.6,-36.9,0,2682,0,204,0, 
1.4933,-9.6,-9.3,-20.4,-47.4,-102.3,-126.6,6.0,265.5,-2223.0,-50.1,-62.4,-38.1,-1639.2,-3159.3,-2141.7,-811.2,-6.6,-6.0,7.8,-38.7,-1.2,37.2,144.6,-31.2,0,2688,0,205,0, 
1.4967,-6.9,-11.4,-80.4,-49.2,-102.6,-132.9,5.1,267.6,-2371.2,-46.2,-61.2,-32.1,-1822.8,-3305.7,-2241.6,-640.8,-7.2,-6.3,13.5,-34.5,-0.3,44.1,143.4,-32.4,0,2694,0,206,0, 
1.5000,-9.0,-6.3,82.8,-49.2,-124.5,-128.4,5.4,266.4,-2445.3,-47.1,-63.9,-30.9,-1671.0,-2986.8,-2621.4,-943.5,-6.6,-6.0,11.1,-34.8,-0.6,41.1,136.5,-31.2,0,2700,0,207,0, 
1.5033,-9.0,-9.0,210.9,-54.9,-121.5,-127.2,4.2,269.1,-2297.1,-48.9,-64.8,-32.1,-1431.0,-2718.6,-2833.5,-1399.2,-6.9,-6.3,12.0,-40.2,-0.3,38.4,145.5,-32.7,0,2706,0,208,0, 
1.5067,-13.8,-18.6,130.8,-54.0,-120.9,-126.6,10.5,270.9,-2371.2,-51.0,-67.5,-37.5,-1388.4,-2810.1,-2595.0,-1400.1,-6.9,-5.7,3.6,-43.8,-0.6,48.0,150.9,-25.8,0,2712,0,209,0, 
1.5100,-12.6,-18.6,-48.0,-59.4,-100.8,-128.4,15.3,269.4,-2371.2,-47.1,-66.0,-40.8,-1634.1,-3202.5,-2334.3,-1016.4,-6.9,-6.3,4.5,-46.8,-0.9,39.3,160.2,-19.2,0,2718,0,210,0, 
1.5133,-9.6,-12.0,-0.3,-48.6,-90.6,-123.3,14.1,275.4,-2371.2,-32.4,-52.5,-26.7,-1797.3,-3279.3,-2313.3,-808.5,-6.9,-5.7,20.1,-35.4,-0.9,53.1,160.8,-22.8,0,2724,0,211,0, 
1.5167,-9.0,-4.5,120.3,-50.4,-102.0,-115.8,24.3,277.2,-2445.3,-41.4,-56.4,-29.7,-1712.4,-2970.3,-2846.1,-1140.3,-7.2,-6.0,17.7,-36.6,-0.6,51.9,158.1,-24.9,0,2730,0,212,0, 
1.5200,-14.4,-1.8,230.1,-54.0,-119.4,-125.4,7.8,281.1,-2371.2,-35.4,-56.1,-27.6,-1421.7,-2688.3,-3002.1,-1562.4,-6.9,-5.7,18.3,-36.9,-0.9,51.0,156.6,-25.8,0,2736,0,213,0, 
1.5233,-16.2,-12.0,208.2,-52.8,-93.0,-121.8,9.0,280.5,-2371.2,-31.2,-55.5,-19.2,-1382.4,-2786.4,-2750.4,-1506.9,-6.9,-5.7,12.3,-30.6,-0.6,49.8,155.1,-29.7,0,2742,0,214,0, 
1.5267,-11.1,-11.1,105.3,-51.0,-84.0,-118.8,22.8,279.6,-2297.1,-33.9,-54.3,-22.8,-1630.2,-3179.1,-2495.7,-1114.5,-6.9,-6.0,15.9,-29.1,-1.2,58.5,166.5,-15.0,0,2748,0,215,0, 
1.5300,-12.9,-11.7,49.8,-56.4,-100.5,-124.5,18.6,275.7,-2371.2,-50.4,-61.8,-33.9,-1871.4,-3302.1,-2608.2,-976.2,-6.6,-5.7,8.1,-43.2,-0.9,42.9,159.0,-19.2,0,2754,0,216,0, 
1.5333,-13.5,-6.3,181.5,-51.0,-117.3,-118.8,3.3,278.4,-2519.4,-46.5,-61.5,-29.1,-1788.0,-3007.8,-2939.7,-1245.6,-7.2,-6.0,5.7,-38.4,-0.9,44.7,153.6,-30.3,0,2760,0,217,0, 
1.5367,-14.1,-15.3,266.1,-51.6,-116.1,-124.2,6.6,276.3,-2445.3,-42.9,-59.4,-27.6,-1502.4,-2647.2,-3132.0,-1642.8,-6.9,-6.3,16.5,-33.3,-0.9,46.5,150.3,-29.1,0,2766,0,218,0, 
1.5400,-15.0,-4.5,155.7,-55.2,-100.5,-117.3,-3.6,272.4,-2297.1,-43.8,-63.0,-30.9,-1427.7,-2824.2,-2935.5,-1590.0,-7.2,-5.7,8.1,-29.7,-0.9,44.7,159.9,-23.1,0,2772,0,219,0, 
1.5433,-15.6,-13.5,-35.7,-53.7,-87.9,-118.8,11.7,272.1,-2371.2,-40.2,-56.4,-24.9,-1613.7,-3121.5,-2612.7,-1167.0,-6.9,-6.0,16.2,-27.0,-0.6,54.9,162.3,-18.9,0,2778,0,220,0, 
1.5467,-23.4,-19.2,-40.5,-61.8,-98.4,-126.3,9.0,264.9,-2371.2,-44.1,-60.9,-28.2,-1832.7,-3258.9,-2826.6,-993.9,-6.9,-6.3,8.7,-30.0,-0.6,46.8,154.2,-22.2,0,2784,0,221,0, 
1.5500,-15.0,-8.4,55.8,-49.2,-100.8,-117.3,9.6,270.3,-2593.5,-27.6,-48.6,-18.3,-1724.7,-2914.2,-3219.6,-1254.9,-6.9,-5.7,20.1,-17.4,-0.6,59.1,155.7,-19.2,0,2790,0,222,0, 
1.5533,-17.7,-9.9,183.9,-51.6,-107.1,-119.4,5.4,269.7,-2371.2,-32.7,-51.0,-18.9,-1450.2,-2665.5,-3387.0,-1619.4,-7.2,-5.7,17.4,-15.0,-0.9,61.8,157.2,-11.4,0,2796,0,223,0, 
1.5567,-17.4,-3.3,153.3,-54.3,-89.7,-122.4,12.6,269.7,-2297.1,-33.0,-58.2,-17.7,-1392.0,-2782.2,-3144.6,-1580.1,-6.6,-5.7,16.2,-21.9,-0.6,59.7,156.6,-21.6,0,2802,0,224,0, 
1.5600,-14.1,-7.5,-7.8,-47.7,-79.8,-123.6,12.9,272.4,-2148.9,-24.9,-48.0,-9.0,-1612.5,-3157.5,-2881.5,-1167.9,-7.2,-6.0,27.3,-16.8,-1.5,68.1,159.3,-20.1,0,2808,0,225,0, 
1.5633,-10.2,-4.5,-89.4,-45.0,-85.2,-117.0,18.6,279.3,-2371.2,-18.9,-38.7,-6.0,-1808.1,-3229.8,-2951.4,-986.1,-6.6,-6.0,29.1,-12.9,-0.9,71.4,160.8,-24.0,0,2814,0,226,0, 
1.5667,-6.9,0.0,50.7,-48.0,-108.0,-116.7,7.2,285.9,-2371.2,-21.3,-40.5,-12.3,-1665.0,-2908.2,-3342.3,-1230.6,-6.3,-6.0,30.6,-17.1,-0.9,71.7,159.9,-16.8,0,2820,0,227,0, 
1.5700,-0.3,17.1,120.9,-40.8,-117.9,-123.6,-1.2,286.5,-2519.4,-24.6,-39.6,-9.6,-1424.4,-2670.0,-3566.1,-1637.4,-6.9,-5.7,32.4,-16.5,-0.9,66.0,154.2,-27.0,0,2826,0,228,0, 
1.5733,-5.4,3.6,81.6,-50.1,-99.3,-124.8,0.9,279.6,-2371.2,-18.3,-43.8,-12.3,-1378.2,-2715.3,-3273.6,-1562.4,-6.6,-6.0,28.8,-13.8,-1.2,62.1,155.1,-24.3,0,2832,0,229,0, 
1.5767,-7.5,1.8,-29.1,-52.5,-83.4,-123.6,14.4,274.2,-2371.2,-31.2,-46.2,-18.6,-1597.5,-3058.5,-2984.7,-1124.7,-6.6,-6.0,30.6,-20.1,-1.2,59.7,152.1,-26.4,0,2838,0,230,0, 
1.5800,-9.0,3.0,-99.6,-62.1,-111.6,-132.6,3.0,272.1,-2445.3,-39.3,-59.1,-30.6,-1775.7,-3221.4,-3073.8,-886.5,-6.6,-6.0,12.9,-28.8,-0.9,47.4,151.5,-24.6,0,2844,0,231,0, 
1.5833,-11.1,-2.1,68.7,-67.8,-122.1,-133.2,-10.8,266.1,-2445.3,-36.3,-66.6,-32.7,-1701.0,-2948.4,-3496.8,-1267.5,-6.9,-6.0,0.3,-26.1,-1.2,48.6,142.8,-27.3,0,2850,0,232,0, 
1.5867,-16.8,-3.3,144.6,-72.9,-141.3,-135.0,-12.9,263.1,-2519.4,-52.5,-71.1,-39.9,-1446.9,-2647.5,-3625.2,-1668.6,-6.9,-5.7,3.0,-33.3,-1.2,27.3,136.8,-36.9,0,2856,0,233,0, 
1.5900,-15.0,-7.2,121.8,-76.8,-125.1,-134.1,2.4,269.4,-2297.1,-53.4,-75.6,-41.4,-1329.6,-2625.3,-3312.9,-1628.4,-7.2,-6.3,-1.5,-42.9,-0.9,40.2,145.8,-34.5,0,2862,0,234,0, 
1.5933,-14.7,-2.7,-50.7,-70.5,-115.2,-131.1,11.1,273.6,-2223.0,-55.2,-81.6,-43.5,-1557.3,-3031.5,-3082.2,-1204.5,-6.9,-6.3,-10.2,-34.5,-0.9,34.2,148.8,-32.4,0,2868,0,235,0, 
1.5967,-16.8,-19.5,-109.5,-70.8,-107.4,-133.8,4.8,273.0,-2223.0,-49.8,-73.8,-43.5,-1778.1,-3143.1,-3245.7,-1030.5,-6.9,-6.0,-1.2,-34.2,-1.2,32.4,143.1,-30.3,0,2874,0,236,0, 
1.6000,-18.3,-12.9,-10.5,-69.9,-124.5,-136.5,-10.8,272.7,-2519.4,-58.8,-75.0,-44.4,-1713.3,-2941.8,-3630.3,-1323.0,-7.2,-6.0,-2.1,-35.1,-0.6,33.3,134.7,-34.8,0,2880,0,237,0, 
1.6033,-17.4,-12.6,112.2,-62.4,-117.3,-132.6,-6.3,275.4,-2371.2,-50.1,-72.9,-39.3,-1361.7,-2555.1,-3766.8,-1713.3,-7.2,-6.0,5.7,-34.5,-0.9,37.2,143.1,-36.9,0,2886,0,238,0, 
1.6067,-18.0,-20.4,23.1,-63.9,-119.1,-131.1,9.9,271.5,-2371.2,-49.8,-76.5,-40.5,-1327.5,-2706.9,-3497.7,-1673.1,-6.6,-6.0,-3.9,-38.1,-0.9,36.9,148.5,-31.2,0,2892,0,239,0, 
1.6100,-19.5,-15.6,-89.4,-59.1,-109.8,-131.7,16.5,276.6,-2371.2,-56.7,-66.6,-30.9,-1542.0,-3076.5,-3241.2,-1256.4,-6.9,-6.0,9.9,-29.7,-0.6,30.0,151.5,-34.5,0,2898,0,240,0, 
1.6133,-18.0,-19.8,-196.8,-60.0,-129.6,-131.1,15.0,272.4,-2445.3,-50.7,-69.9,-36.3,-1741.8,-3270.6,-3395.1,-1101.6,-6.9,-6.0,5.1,-31.8,-0.9,37.8,153.0,-35.7,0,2904,0,241,0, 
1.6167,-14.4,-13.5,-71.7,-58.8,-128.1,-132.9,4.5,279.0,-2297.1,-45.0,-69.9,-37.2,-1620.3,-2954.7,-3784.2,-1394.7,-7.2,-5.7,2.1,-28.8,-1.2,34.5,151.8,-39.6,0,2910,0,242,0, 
1.6200,-15.0,-17.1,44.4,-63.6,-138.3,-129.3,-6.0,275.7,-2445.3,-56.7,-72.6,-42.3,-1396.2,-2664.0,-4006.5,-1858.2,-6.6,-5.7,-1.5,-37.5,-0.6,30.9,144.9,-53.4,0,2916,0,243,0, 
1.6233,-13.2,-5.4,36.6,-53.1,-108.9,-134.1,0.3,277.8,-2445.3,-45.9,-61.8,-33.6,-1329.6,-2765.7,-3769.2,-1793.7,-6.9,-5.7,14.4,-24.3,-0.9,39.3,151.5,-42.3,0,2922,0,244,0, 
1.6267,-10.5,-6.0,-147.3,-56.1,-103.8,-133.5,5.1,276.3,-2371.2,-48.6,-69.0,-37.5,-1598.7,-3123.9,-3503.1,-1403.7,-6.6,-6.0,-3.0,-30.0,-0.3,37.8,149.1,-41.4,0,2928,0,245,0, 
1.6300,-11.4,-14.1,-293.4,-49.5,-117.6,-130.2,14.1,282.6,-2445.3,-44.1,-63.0,-32.7,-1870.5,-3306.6,-3690.0,-1344.6,-7.5,-6.0,11.1,-25.2,-0.6,36.6,153.6,-36.3,0,2934,0,246,0, 
1.6333,-11.4,-13.2,206.1,-49.2,-84.9,-126.6,19.2,280.5,-2519.4,-54.6,-66.3,-32.7,-1472.7,-2787.3,-3585.9,-1283.7,-6.9,-5.7,10.5,-23.1,-0.6,43.8,152.1,-37.8,0,2940,0,247,0, 
1.6367,-13.8,-14.4,403.5,-45.6,-105.0,-122.7,14.1,280.5,-2445.3,-50.4,-66.0,-36.9,-1212.9,-2558.1,-3750.0,-1743.9,-6.9,-6.0,9.0,-29.4,-0.9,36.3,148.2,-39.6,0,2946,0,248,0, 
1.6400,-14.7,-14.7,162.9,-43.5,-112.8,-122.7,-0.6,284.4,-2371.2,-55.5,-63.6,-31.8,-1278.9,-2740.2,-3785.7,-1813.8,-7.2,-6.0,10.5,-24.0,-0.9,37.5,150.0,-36.9,0,2952,0,249,0, 
1.6433,-16.5,-15.6,-111.9,-40.8,-105.0,-125.4,8.7,285.0,-2371.2,-49.2,-60.3,-33.0,-1556.1,-3115.2,-3622.2,-1524.3,-6.9,-6.3,12.9,-21.6,-1.2,38.7,154.2,-37.5,0,2958,0,250,0, 
1.6467,-14.7,-8.7,-138.3,-41.7,-108.0,-132.3,-3.3,280.2,-2445.3,-53.4,-67.2,-35.1,-1789.8,-3175.2,-3698.1,-1310.1,-6.9,-6.3,8.1,-23.1,-1.2,35.4,152.4,-44.1,0,2964,0,251,0, 
1.6500,-13.8,-14.4,-36.3,-40.5,-121.2,-132.6,-0.3,280.8,-2445.3,-51.3,-59.4,-33.0,-1676.7,-2991.9,-4167.3,-1667.4,-6.9,-6.3,17.7,-25.8,-0.9,31.2,154.8,-42.0,0,2970,0,252,0, 
1.6533,-13.8,-8.4,93.9,-41.4,-105.3,-137.7,-11.4,274.2,-2371.2,-55.2,-60.3,-36.3,-1437.6,-2615.4,-4380.9,-2034.6,-7.2,-6.0,15.3,-24.3,-0.6,33.0,148.2,-48.9,0,2976,0,253,0, 
1.6567,-13.2,-9.6,-55.5,-43.8,-111.6,-135.0,-18.0,267.3,-2371.2,-51.3,-59.1,-35.1,-1411.5,-2741.7,-4176.3,-2026.5,-7.2,-6.0,12.3,-25.2,-0.9,31.2,150.0,-41.1,0,2982,0,254,0, 
1.6600,-12.6,-6.3,-226.5,-48.3,-101.1,-132.6,-9.3,267.3,-2297.1,-51.9,-61.2,-38.7,-1608.6,-3102.6,-3901.5,-1590.3,-6.9,-5.7,5.7,-25.5,-0.9,39.6,152.7,-42.3,0,2988,0,255,0, 
1.6633,-9.3,-8.1,-293.1,-51.0,-117.0,-130.8,-10.2,272.1,-2445.3,-49.2,-61.8,-37.5,-1807.5,-3323.7,-4025.1,-1466.7,-6.6,-5.7,13.2,-33.0,-0.9,36.0,148.5,-47.7,0,2994,0,0,0, 
1.6667,-11.7,-6.9,-169.2,-53.4,-116.7,-130.8,-13.2,273.0,-2593.5,-46.8,-67.5,-37.8,-1668.3,-2994.3,-4401.0,-1776.3,-7.2,-6.0,8.1,-33.0,-0.9,33.9,146.4,-49.2,0,3000,0,1,0, 
1.6700,-11.4,-1.5,-32.7,-50.4,-115.8,-127.2,-25.2,279.6,-2667.6,-47.1,-69.3,-36.6,-1407.0,-2654.4,-4636.5,-2170.5,-7.5,-6.3,7.2,-29.7,-0.6,40.2,147.3,-37.2,0,3006,0,2,0, 
1.6733,-7.5,6.3,-129.0,-47.4,-116.7,-125.1,-18.6,278.4,-2371.2,-42.6,-59.7,-28.8,-1336.8,-2770.8,-4367.7,-2203.5,-7.2,-6.0,15.9,-24.9,-0.6,42.9,146.7,-37.5,0,3012,0,3,0, 
1.6767,-7.8,2.4,-332.1,-49.2,-118.2,-122.7,-6.9,279.0,-2371.2,-43.8,-69.6,-32.4,-1574.4,-3056.4,-4109.4,-1763.4,-6.9,-6.3,11.1,-24.3,-0.6,44.4,157.8,-27.9,0,3018,0,4,0, 
1.6800,-15.3,-6.0,-407.7,-54.6,-111.6,-127.2,-4.2,273.6,-2445.3,-39.9,-71.1,-36.3,-1748.4,-3244.8,-4194.3,-1573.8,-6.9,-6.0,-1.8,-31.5,-0.9,46.2,148.8,-28.2,0,3024,0,5,0, 
1.6833,-15.3,-1.5,-208.5,-49.5,-110.7,-110.4,-8.7,278.4,-2371.2,-41.4,-62.4,-32.1,-1596.0,-2874.3,-4541.7,-1850.4,-6.9,-6.3,8.1,-26.1,-0.9,49.5,155.1,-21.9,0,3030,0,6,0, 
1.6867,-18.9,-7.2,-160.2,-56.7,-122.7,-131.4,-25.8,270.0,-2519.4,-43.2,-63.3,-38.4,-1373.4,-2595.0,-4759.8,-2282.1,-6.9,-6.3,6.9,-36.3,-0.6,42.9,152.1,-28.5,0,3036,0,7,0, 
1.6900,-21.6,-4.5,-166.8,-58.5,-108.9,-127.2,-15.0,270.9,-2297.1,-53.4,-64.5,-34.8,-1272.9,-2671.2,-4505.1,-2175.3,-7.2,-5.7,11.4,-27.3,-0.6,45.0,153.0,-25.8,0,3042,0,8,0, 
1.6933,-21.0,-4.2,-349.8,-53.4,-102.9,-126.6,-13.2,271.8,-2223.0,-44.7,-61.8,-33.6,-1476.3,-3023.1,-4223.1,-1802.1,-6.9,-6.3,9.3,-23.7,-0.9,43.2,155.4,-27.0,0,3048,0,9,0, 
1.6967,-18.9,-9.6,-399.0,-51.6,-112.2,-123.3,-7.8,270.6,-2371.2,-43.8,-57.0,-32.1,-1693.5,-3115.5,-4296.0,-1619.7,-6.9,-5.7,11.1,-24.3,-0.6,39.6,152.1,-22.8,0,3054,0,10,0, 
1.7000,-27.3,-10.5,-275.4,-52.2,-124.5,-128.4,-21.6,268.5,-2519.4,-46.8,-65.7,-36.3,-1537.5,-2802.9,-4753.8,-1927.5,-6.9,-6.3,3.3,-33.6,-0.6,39.9,147.6,-35.1,0,3060,0,11,0, 
1.7033,-20.7,-3.0,-118.2,-46.2,-135.3,-125.4,-25.8,270.3,-2371.2,-48.0,-60.9,-39.9,-1256.1,-2504.4,-4857.6,-2290.8,-6.9,-5.7,10.8,-30.9,-1.2,44.1,151.2,-34.2,0,3066,0,12,0, 
1.7067,-21.9,-12.0,-216.0,-46.2,-129.0,-123.6,-18.9,270.3,-2445.3,-48.3,-60.0,-31.8,-1185.0,-2597.7,-4636.2,-2251.5,-6.6,-6.3,6.3,-26.4,-0.6,42.3,147.9,-24.6,0,3072,0,13,0, 
1.7100,-21.3,-14.1,-301.8,-48.3,-102.0,-126.3,-9.6,275.1,-2297.1,-43.5,-60.0,-27.6,-1405.2,-2961.0,-4317.6,-1800.3,-6.9,-6.0,10.8,-28.2,-1.2,38.7,152.4,-22.8,0,3078,0,14,0, 
1.7133,-20.1,-3.9,-334.2,-53.1,-113.4,-131.4,-19.8,270.0,-2445.3,-52.8,-63.0,-33.6,-1527.0,-3078.3,-4464.9,-1604.1,-6.3,-6.0,3.9,-29.7,-0.6,45.6,141.9,-23.4,0,3084,0,15,0, 
1.7167,-17.1,-5.1,-223.8,-49.8,-131.4,-123.6,-15.3,267.6,-2297.1,-46.8,-61.2,-28.2,-1455.9,-2773.5,-4841.1,-1895.7,-6.6,-6.0,5.1,-29.4,-0.9,48.0,145.5,-15.9,0,3090,0,16,0, 
1.7200,-18.6,-3.3,-114.9,-50.7,-141.6,-127.5,-33.0,267.3,-2445.3,-44.7,-61.5,-28.8,-1177.8,-2486.7,-4986.3,-2265.9,-6.6,-6.0,3.6,-31.5,-0.6,49.5,145.5,-15.9,0,3096,0,17,0, 
1.7233,-20.7,-11.7,-114.3,-49.5,-114.0,-124.5,-18.0,264.6,-2371.2,-43.2,-54.9,-26.7,-1063.5,-2529.9,-4715.1,-2194.2,-7.2,-6.0,9.6,-27.0,-0.9,57.6,154.5,-8.4,0,3102,0,18,0, 
1.7267,-15.3,2.7,-274.2,-42.6,-96.3,-123.9,-21.0,272.4,-2371.2,-36.3,-53.7,-24.0,-1298.4,-2861.4,-4456.8,-1743.0,-7.2,-5.7,11.1,-26.7,-0.9,51.0,154.2,-10.8,0,3108,0,19,0, 
1.7300,-16.8,-6.0,-241.5,-46.2,-111.0,-131.1,-10.5,270.3,-2445.3,-37.8,-56.1,-27.9,-1426.5,-2929.8,-4538.1,-1549.2,-6.9,-6.0,5.4,-32.7,-0.9,43.5,155.7,-18.9,0,3114,0,20,0, 
1.7333,-17.7,-6.3,-152.4,-47.7,-132.6,-136.8,-27.3,263.7,-2519.4,-34.5,-59.1,-27.6,-1367.1,-2639.7,-4922.1,-1868.4,-6.9,-6.0,0.0,-34.2,-0.6,44.4,146.7,-26.1,0,3120,0,21,0, 
1.7367,-18.3,-4.2,-35.4,-47.7,-111.9,-139.2,-30.0,262.8,-2519.4,-41.7,-57.3,-29.7,-1039.5,-2298.0,-5060.7,-2169.3,-6.9,-5.4,9.3,-36.0,-0.6,42.9,135.0,-38.7,0,3126,0,22,0, 
1.7400,-18.9,-9.3,-53.1,-48.9,-116.4,-134.1,-22.8,263.7,-2371.2,-39.3,-58.5,-25.5,-948.0,-2417.7,-4811.1,-2118.9,-6.6,-6.0,6.0,-35.4,-0.6,42.6,141.6,-30.9,0,3132,0,23,0, 
1.7433,-18.0,-3.9,-238.2,-42.6,-103.8,-137.1,-24.9,270.0,-2371.2,-46.2,-57.0,-21.6,-1133.1,-2706.0,-4564.8,-1671.9,-7.2,-6.0,9.9,-30.6,-0.6,54.3,148.2,-17.4,0,3138,0,24,0, 
1.7467,-21.0,-16.2,-242.4,-45.0,-105.0,-133.2,-20.4,271.5,-2223.0,-41.4,-56.1,-24.6,-1266.3,-2817.0,-4583.7,-1425.3,-6.9,-5.7,7.5,-29.4,-0.9,45.0,150.9,-10.5,0,3144,0,25,0, 
1.7500,-19.5,-7.2,-159.3,-46.2,-125.4,-136.5,-26.7,270.0,-2445.3,-37.5,-61.8,-25.8,-1165.8,-2561.1,-5069.1,-1702.8,-6.6,-6.0,6.6,-34.8,-0.9,40.2,145.2,-22.8,0,3150,0,26,0, 
1.7533,-24.6,-13.5,-66.9,-53.1,-125.4,-136.5,-34.5,270.0,-2519.4,-50.1,-65.1,-34.8,-882.6,-2265.6,-5152.8,-2102.1,-7.2,-6.0,1.5,-36.6,-0.6,40.8,144.6,-19.5,0,3156,0,27,0, 
1.7567,-17.1,-16.2,-106.8,-48.9,-103.8,-126.6,-22.2,279.0,-2519.4,-38.7,-61.2,-28.5,-785.7,-2389.8,-4861.5,-1954.2,-6.9,-5.7,1.8,-26.4,-1.2,58.5,157.8,-9.0,0,3162,0,28,0, 
1.7600,-20.1,-20.4,-214.2,-42.6,-114.0,-123.0,-9.0,282.0,-2371.2,-47.7,-55.8,-23.4,-976.5,-2692.5,-4580.7,-1577.7,-6.3,-6.0,11.1,-22.2,-0.9,60.0,162.3,4.5,0,3168,0,29,0, 
1.7633,-15.9,-8.7,-249.6,-45.9,-100.2,-124.8,-20.7,279.0,-2371.2,-42.3,-59.7,-25.5,-1141.8,-2816.7,-4586.1,-1419.0,-7.2,-5.7,7.2,-32.4,-0.6,47.7,158.1,-6.9,0,3174,0,30,0, 
1.7667,-18.6,-19.2,-65.4,-48.9,-126.9,-127.8,-21.9,279.0,-2667.6,-50.4,-62.1,-29.7,-1023.9,-2443.8,-4925.4,-1654.5,-7.2,-6.0,11.4,-37.5,-0.9,40.2,153.0,-16.5,0,3180,0,31,0, 
1.7700,-19.5,-24.9,37.2,-51.6,-117.0,-127.8,-32.1,280.5,-2519.4,-47.1,-66.9,-29.1,-751.8,-2186.7,-5114.1,-2027.4,-7.2,-5.7,-5.4,-35.1,-0.9,42.3,151.2,-6.3,0,3186,0,32,0, 
1.7733,-18.6,-19.2,-77.1,-48.6,-113.7,-123.0,-16.5,284.4,-2297.1,-50.4,-65.1,-28.2,-720.6,-2289.0,-4922.7,-1948.5,-7.2,-6.0,-0.9,-31.2,-0.9,42.0,151.2,-5.7,0,3192,0,33,0, 
1.7767,-14.1,-15.6,-264.0,-46.5,-112.8,-123.3,-18.9,289.2,-2297.1,-43.5,-61.2,-29.1,-888.3,-2607.0,-4606.2,-1539.6,-6.9,-6.0,-1.8,-30.3,-1.2,46.2,154.5,-0.9,0,3198,0,34,0, 
1.7800,-17.1,-16.8,-325.5,-43.8,-117.3,-126.6,-16.8,285.3,-2297.1,-50.7,-62.1,-30.6,-1066.2,-2716.5,-4713.3,-1302.6,-6.9,-5.7,6.9,-33.6,-1.2,33.0,148.8,-11.4,0,3204,0,35,0, 
1.7833,-17.1,-17.4,-122.7,-45.6,-131.1,-125.1,-27.9,287.7,-2519.4,-51.6,-64.2,-32.1,-927.6,-2416.2,-5013.6,-1632.6,-6.6,-6.0,4.2,-32.7,-1.5,38.4,148.8,-5.4,0,3210,0,36,0, 
1.7867,-15.6,-9.6,-23.4,-44.7,-131.7,-121.5,-29.4,285.9,-2371.2,-47.7,-62.4,-26.4,-670.5,-2115.3,-5129.4,-1980.0,-6.6,-5.7,5.4,-30.6,-0.9,42.9,144.0,-11.7,0,3216,0,37,0, 
1.7900,-15.3,-14.4,-84.0,-41.7,-122.7,-124.2,-14.1,281.4,-2519.4,-45.9,-58.5,-24.3,-575.7,-2193.9,-4870.5,-1950.3,-6.6,-5.7,6.6,-27.3,-1.2,47.1,145.5,-3.6,0,3222,0,38,0, 
1.7933,-20.7,-21.3,-271.5,-49.5,-123.9,-126.3,-8.1,276.3,-2297.1,-50.1,-70.5,-28.8,-768.3,-2548.5,-4521.6,-1538.7,-6.9,-5.4,2.4,-28.5,-1.2,51.0,153.3,2.4,0,3228,0,39,0, 
1.7967,-23.1,-16.2,-337.2,-53.4,-120.3,-126.6,-13.8,271.8,-2445.3,-55.8,-72.6,-33.6,-975.3,-2673.9,-4601.4,-1370.4,-7.2,-6.0,-3.0,-42.0,-0.9,46.8,148.2,-4.5,0,3234,0,40,0, 
1.8000,-25.2,-28.8,-189.6,-57.0,-129.9,-128.7,-9.9,270.9,-2519.4,-45.9,-63.3,-27.9,-810.3,-2312.1,-4911.3,-1585.8,-6.6,-6.0,0.9,-35.4,-0.9,47.1,149.4,-0.6,0,3240,0,41,0, 
1.8033,-29.7,-25.2,-94.5,-58.5,-127.8,-132.9,-23.1,265.8,-2445.3,-48.6,-72.3,-37.5,-558.3,-2083.8,-5109.6,-1960.8,-6.9,-6.0,-5.1,-43.2,-0.9,38.1,140.1,-9.0,0,3246,0,42,0, 
1.8067,-26.4,-20.7,-180.0,-58.8,-129.0,-128.1,-9.9,269.1,-2297.1,-43.5,-68.7,-39.0,-523.8,-2162.7,-4783.2,-1893.0,-6.6,-6.0,0.6,-42.9,-0.9,37.8,149.4,-0.6,0,3252,0,43,0, 
1.8100,-20.7,-15.0,-348.9,-53.4,-121.2,-133.8,-7.2,270.9,-2297.1,-43.5,-63.9,-36.3,-764.1,-2527.8,-4527.0,-1480.5,-6.9,-6.0,6.3,-39.6,-0.9,42.9,147.6,-3.3,0,3258,0,44,0, 
1.8133,-18.9,-19.5,-338.7,-52.5,-117.3,-119.1,-1.2,271.2,-2445.3,-45.3,-64.2,-26.4,-895.8,-2631.9,-4609.5,-1267.2,-7.2,-6.0,0.6,-38.1,-0.9,47.4,162.6,1.8,0,3264,0,45,0, 
1.8167,-12.0,-8.4,-262.5,-48.9,-125.7,-129.6,-12.0,274.2,-2667.6,-40.5,-63.9,-23.7,-783.9,-2336.1,-4966.2,-1574.4,-6.6,-6.3,3.9,-36.0,-1.2,42.3,156.0,-1.8,0,3270,0,46,0, 
1.8200,-10.2,-12.9,-70.2,-48.0,-130.2,-126.6,-19.5,275.4,-2593.5,-37.2,-60.6,-21.6,-517.2,-1973.4,-5073.6,-1884.3,-6.6,-5.7,6.3,-36.3,-1.2,54.3,160.5,4.2,0,3276,0,47,0, 
1.8233,-8.4,-7.8,-152.1,-43.2,-129.3,-123.3,-10.5,276.9,-2297.1,-40.5,-57.9,-21.9,-477.6,-2085.9,-4871.7,-1880.4,-6.9,-6.3,9.3,-30.3,-0.9,56.4,165.3,9.9,0,3282,0,48,0, 
1.8267,-11.7,-13.8,-321.0,-37.8,-100.2,-117.3,7.8,282.6,-2371.2,-24.0,-46.8,-9.9,-629.7,-2430.6,-4514.1,-1422.3,-7.2,-5.7,16.2,-15.0,-0.9,80.7,168.3,24.3,0,3288,0,49,0, 
1.8300,-15.3,-12.0,-314.4,-47.1,-114.3,-120.6,-7.8,273.0,-2445.3,-42.6,-67.2,-25.5,-816.3,-2574.0,-4518.3,-1250.4,-6.9,-5.7,-9.3,-29.1,-0.9,58.5,163.2,16.2,0,3294,0,50,0, 
1.8333,-15.9,-23.4,-221.4,-57.6,-137.4,-123.3,-16.5,266.4,-2593.5,-43.2,-90.9,-46.8,-759.9,-2304.6,-5022.9,-1590.6,-6.6,-6.0,-24.3,-39.0,-0.6,55.8,167.7,14.7,0,3300,0,51,0, 
1.8367,-15.3,-13.5,-111.9,-58.2,-132.9,-124.8,-12.6,261.3,-2519.4,-35.4,-74.4,-36.9,-544.2,-2026.8,-5171.1,-1984.8,-7.2,-5.7,-0.6,-36.0,-0.9,50.4,156.0,6.0,0,3306,0,52,0, 
1.8400,-7.5,-3.0,-112.2,-43.2,-111.0,-117.6,3.0,270.0,-2297.1,-19.2,-35.1,-0.9,-424.5,-2075.7,-4833.0,-1860.3,-7.2,-6.0,35.7,-12.3,-0.6,60.9,166.8,13.5,0,3312,0,53,0, 
1.8433,-12.0,-9.0,-285.0,-49.8,-101.7,-119.7,24.0,265.2,-2297.1,-34.8,-42.9,-2.4,-634.2,-2440.5,-4507.8,-1431.0,-6.9,-5.7,28.2,-17.1,-0.9,52.2,161.7,11.4,0,3318,0,54,0, 
1.8467,-16.5,-18.3,-320.4,-51.6,-109.5,-120.3,14.1,266.1,-2297.1,-35.4,-54.9,-21.6,-820.2,-2547.0,-4524.3,-1252.8,-7.2,-5.7,16.5,-36.3,-0.9,51.3,157.2,5.7,0,3324,0,55,0, 
1.8500,-18.6,-15.6,-180.3,-57.3,-137.1,-127.5,0.3,265.8,-2371.2,-42.6,-57.6,-23.1,-758.4,-2316.0,-4911.9,-1574.7,-7.2,-6.0,8.7,-39.9,-1.2,42.6,139.8,-8.4,0,3330,0,56,0, 
1.8533,-18.0,-27.0,-83.7,-59.4,-139.2,-129.6,-5.4,263.4,-2519.4,-36.6,-59.4,-18.9,-528.0,-2008.5,-5131.8,-1930.2,-6.9,-6.0,7.8,-36.6,-0.3,50.1,141.3,-6.3,0,3336,0,57,0, 
1.8567,-19.2,-23.4,-137.7,-56.4,-131.1,-125.1,-2.4,267.6,-2371.2,-35.1,-53.4,-20.1,-484.2,-2076.6,-4821.6,-1786.8,-6.3,-6.0,17.7,-40.5,-0.9,51.6,145.2,0.3,0,3342,0,58,0, 
1.8600,-21.0,-20.4,-280.5,-60.3,-135.6,-129.0,4.5,262.5,-2297.1,-32.7,-55.8,-23.7,-631.2,-2357.4,-4503.3,-1324.5,-7.2,-6.3,13.8,-46.2,-1.2,46.8,152.4,0.0,0,3348,0,59,0, 
1.8633,-19.5,-17.7,-339.6,-60.0,-134.4,-137.1,-0.6,260.4,-2371.2,-33.9,-57.6,-19.2,-846.6,-2542.2,-4575.9,-1196.4,-6.9,-6.3,12.9,-47.1,-0.6,56.7,147.9,-3.9,0,3354,0,60,0, 
1.8667,-16.5,-18.9,-233.4,-52.8,-133.8,-128.4,-6.9,266.7,-2519.4,-34.8,-47.7,-15.6,-696.3,-2282.4,-4947.9,-1482.3,-7.2,-6.0,20.4,-42.3,-0.9,55.2,151.8,7.5,0,3360,0,61,0, 
1.8700,-16.8,-16.5,-161.1,-50.4,-144.9,-124.5,-16.2,268.8,-2297.1,-29.1,-47.1,-16.2,-484.8,-1977.3,-5157.3,-1948.8,-7.2,-6.0,21.9,-39.0,-0.6,54.3,150.3,10.5,0,3366,0,62,0, 
1.8733,-17.7,-17.4,-247.5,-52.2,-130.5,-136.5,-1.5,267.3,-2223.0,-30.9,-51.0,-22.5,-433.2,-2007.3,-4815.0,-1851.6,-6.6,-6.0,24.0,-45.0,-0.9,50.7,151.5,13.8,0,3372,0,63,0, 
1.8767,-18.9,-21.3,-416.7,-43.5,-113.7,-130.8,7.5,271.5,-2445.3,-32.1,-41.7,-9.3,-655.8,-2385.6,-4457.4,-1457.7,-6.6,-5.7,31.2,-36.0,-0.3,56.1,156.6,20.1,0,3378,0,64,0, 
1.8800,-17.1,-18.3,-465.9,-42.9,-114.3,-129.3,8.7,272.1,-2297.1,-24.9,-43.5,-6.3,-833.7,-2518.5,-4508.1,-1254.0,-7.2,-6.0,26.4,-32.7,-0.3,54.3,157.8,24.3,0,3384,0,65,0, 
1.8833,-15.0,-20.4,-353.1,-36.6,-123.9,-127.8,-3.6,276.3,-2445.3,-16.8,-36.3,-0.9,-772.8,-2286.3,-4911.0,-1586.1,-7.2,-5.7,36.3,-30.0,-0.9,59.7,153.0,16.2,0,3390,0,66,0, 
1.8867,-16.2,-12.9,-198.6,-34.8,-112.2,-126.9,-2.4,274.8,-2371.2,-14.1,-30.6,-1.2,-463.5,-1930.2,-5010.0,-1936.5,-6.6,-6.0,44.1,-28.8,-0.6,67.5,149.1,18.6,0,3396,0,67,0, 
1.8900,-21.3,-20.1,-255.0,-33.9,-116.4,-119.4,-4.2,278.7,-2297.1,-15.3,-25.5,5.7,-399.6,-2111.1,-4841.7,-1835.1,-6.9,-5.7,39.0,-20.1,-0.6,72.9,156.9,28.2,0,3402,0,68,0, 
1.8933,-16.2,-12.3,-348.0,-35.7,-102.9,-116.1,10.2,279.0,-2371.2,-19.8,-34.5,-3.0,-627.0,-2355.6,-4432.8,-1389.9,-7.5,-5.7,28.8,-26.1,-0.9,66.6,163.5,23.4,0,3408,0,69,0, 
1.8967,-22.5,-24.9,-609.9,-43.5,-128.7,-124.5,-0.6,277.5,-2445.3,-16.5,-42.3,-7.5,-978.9,-2677.2,-4809.6,-1479.6,-7.2,-6.0,28.8,-32.1,-0.9,66.0,159.6,13.8,0,3414,0,70,0, 
1.9000,-18.6,-17.4,-564.0,-44.4,-142.2,-124.2,-2.1,275.4,-2445.3,-17.1,-40.2,-5.1,-956.7,-2353.8,-5274.3,-1728.6,-6.9,-6.3,34.8,-30.0,-0.6,68.7,159.6,12.3,0,3420,0,71,0, 
1.9033,-25.5,-24.0,-305.7,-55.5,-143.1,-132.0,-14.7,266.1,-2593.5,-30.3,-55.2,-17.7,-611.1,-2023.5,-5212.8,-2031.9,-6.9,-6.0,18.6,-41.7,-0.6,51.6,150.0,-3.3,0,3426,0,72,0, 
1.9067,-24.3,-18.6,-351.0,-54.0,-130.8,-136.2,-17.1,264.3,-2519.4,-34.2,-54.9,-18.3,-588.6,-2143.8,-4863.6,-1889.1,-7.2,-6.0,21.0,-41.7,-0.6,51.6,155.4,-2.7,0,3432,0,73,0, 
1.9100,-24.6,-30.0,-433.2,-60.0,-120.9,-140.4,-12.3,258.0,-2371.2,-31.5,-55.5,-19.8,-772.5,-2433.9,-4503.0,-1447.8,-7.2,-6.6,13.8,-41.7,-0.6,45.0,153.9,-7.8,0,3438,0,74,0, 
1.9133,-16.2,-18.6,-390.0,-51.0,-121.5,-127.2,2.1,263.7,-2445.3,-29.4,-57.6,-19.2,-942.3,-2548.8,-4546.5,-1234.8,-7.2,-6.0,17.4,-40.8,-0.9,48.0,157.5,-4.5,0,3444,0,75,0, 
1.9167,-18.3,-25.8,-278.4,-54.0,-131.1,-129.3,-3.9,259.2,-2445.3,-26.1,-60.9,-18.3,-811.2,-2312.4,-4869.9,-1587.9,-6.6,-6.0,15.0,-37.2,-0.6,53.7,151.2,-7.2,0,3450,0,76,0, 
1.9200,-16.8,-18.9,-111.0,-52.5,-141.9,-125.7,-1.8,262.2,-2445.3,-30.6,-52.8,-20.4,-585.6,-1970.1,-5041.2,-1944.9,-7.2,-6.0,15.6,-40.5,-0.9,56.1,155.7,-5.7,0,3456,0,77,0, 
1.9233,-19.8,-26.1,-108.9,-62.1,-140.7,-129.3,-2.7,254.7,-2371.2,-36.0,-61.5,-31.2,-465.0,-2066.4,-4740.9,-1789.8,-6.9,-6.3,6.3,-49.8,-1.2,46.2,162.3,-7.8,0,3462,0,78,0, 
1.9267,-12.0,-16.5,-285.0,-55.2,-140.4,-127.2,11.1,258.9,-2223.0,-31.5,-59.4,-24.3,-717.3,-2352.9,-4391.1,-1351.2,-7.2,-6.0,10.8,-44.4,-0.6,48.3,157.8,0.9,0,3468,0,79,0, 
1.9300,-18.0,-20.1,-313.5,-58.8,-143.4,-129.9,13.2,258.6,-2445.3,-37.5,-62.1,-25.5,-874.8,-2481.6,-4451.4,-1194.6,-7.2,-6.0,9.9,-46.8,-0.9,45.3,158.4,-0.3,0,3474,0,80,0, 
1.9333,-15.3,-20.4,-183.9,-54.9,-153.3,-116.7,3.9,264.0,-2445.3,-32.1,-60.0,-26.4,-769.5,-2169.9,-4795.2,-1477.5,-6.9,-5.7,15.3,-47.4,-0.9,46.5,151.2,-6.6,0,3480,0,81,0, 
1.9367,-16.2,-21.6,-9.3,-58.8,-157.8,-129.6,-8.7,264.6,-2445.3,-34.5,-67.8,-32.4,-496.2,-1817.7,-4899.9,-1788.6,-7.2,-5.7,7.2,-49.5,-0.9,47.4,155.1,1.2,0,3486,0,82,0, 
1.9400,-14.4,-20.1,-64.8,-60.3,-144.3,-126.0,3.6,262.8,-2371.2,-40.5,-73.8,-36.0,-417.3,-1917.9,-4547.1,-1618.8,-7.5,-6.0,0.0,-48.0,-0.9,48.6,163.5,5.1,0,3492,0,83,0, 
1.9433,-13.2,-15.6,-186.9,-64.5,-141.0,-129.3,8.1,259.8,-2371.2,-38.1,-74.7,-34.8,-620.7,-2265.3,-4316.1,-1216.8,-6.6,-5.7,-3.0,-50.7,-0.6,42.6,163.2,0.9,0,3498,0,84,0, 
1.9467,-21.6,-21.9,-212.4,-63.9,-145.8,-128.4,8.4,258.0,-2297.1,-33.0,-69.9,-33.0,-744.9,-2274.0,-4285.8,-992.7,-6.9,-5.4,-0.9,-50.7,-0.9,45.0,160.5,3.0,0,3504,0,85,0, 
1.9500,-21.3,-21.6,-56.4,-66.3,-157.2,-131.7,1.2,256.5,-2445.3,-37.5,-72.9,-37.8,-587.1,-2030.4,-4590.9,-1327.8,-6.6,-6.0,0.0,-54.6,-0.9,36.6,156.3,-7.5,0,3510,0,86,0, 
1.9533,-21.6,-24.6,-4.5,-64.5,-158.7,-128.7,-3.0,254.4,-2445.3,-37.5,-70.2,-37.8,-294.9,-1727.7,-4758.0,-1728.0,-6.9,-6.0,6.0,-56.4,-0.6,42.9,161.7,-9.9,0,3516,0,87,0, 
1.9567,-17.1,-13.2,7.5,-62.4,-139.2,-124.2,1.5,259.2,-2223.0,-36.9,-63.0,-32.4,-181.8,-1771.2,-4329.0,-1532.1,-6.9,-6.3,11.4,-52.2,-0.6,43.2,160.2,-3.6,0,3522,0,88,0, 
1.9600,-21.3,-14.7,-167.1,-58.5,-131.4,-121.2,18.9,263.1,-2371.2,-29.1,-60.3,-25.8,-367.2,-2079.3,-4046.1,-1105.8,-6.9,-6.3,13.2,-42.6,-0.3,51.6,167.4,-4.2,0,3528,0,89,0, 
1.9633,-15.6,-3.6,-142.8,-56.4,-116.7,-116.7,1.2,267.6,-2445.3,-27.3,-60.3,-25.5,-533.4,-2167.5,-4086.0,-891.9,-6.6,-6.0,18.3,-48.0,-0.9,48.9,153.6,-0.9,0,3534,0,90,0, 
1.9667,-17.1,-8.1,-79.2,-57.3,-145.8,-125.1,0.3,265.8,-2519.4,-26.1,-54.3,-22.2,-336.9,-1821.6,-4387.2,-1160.7,-6.3,-6.0,22.8,-43.8,-0.9,56.1,155.1,0.3,0,3540,0,91,0, 
1.9700,-16.5,-10.2,73.5,-55.8,-131.1,-126.9,-6.3,268.2,-2371.2,-24.6,-51.9,-27.0,-29.4,-1513.5,-4508.1,-1499.7,-6.6,-6.3,21.0,-48.0,-0.9,49.2,144.3,-4.2,0,3546,0,92,0, 
1.9733,-16.8,-12.0,1.8,-56.1,-141.0,-127.2,-3.0,273.6,-2371.2,-22.5,-52.2,-29.4,99.0,-1605.3,-4228.5,-1404.3,-7.5,-6.0,22.2,-45.6,-0.6,55.5,148.8,6.3,0,3552,0,93,0, 
1.9767,-19.2,-17.1,-76.2,-64.5,-141.9,-130.8,1.5,268.2,-2371.2,-41.1,-66.3,-36.3,-69.9,-1952.4,-3840.3,-909.6,-6.9,-6.3,11.7,-64.8,-1.2,46.2,145.2,-3.0,0,3558,0,94,0, 
1.9800,-14.4,-16.5,-110.1,-59.1,-132.6,-129.3,1.5,271.5,-2445.3,-35.1,-63.6,-25.2,-196.2,-1997.7,-3922.2,-735.0,-7.2,-6.0,9.3,-56.1,-1.2,44.4,143.7,-7.2,0,3564,0,95,0, 
1.9833,-19.5,-18.0,28.5,-66.0,-163.5,-132.9,-12.9,265.5,-2371.2,-35.7,-63.9,-29.1,-75.0,-1695.3,-4268.4,-1015.2,-7.2,-6.3,10.2,-66.9,-1.2,28.2,137.4,-22.2,0,3570,0,96,0, 
1.9867,-20.1,-14.7,148.5,-63.0,-157.8,-135.0,-15.0,266.4,-2371.2,-37.8,-66.3,-32.4,287.1,-1395.9,-4266.3,-1292.7,-7.2,-5.7,9.9,-69.0,-0.9,31.2,142.8,-20.1,0,3576,0,97,0, 
1.9900,-24.6,-9.0,50.1,-69.3,-160.8,-142.2,0.6,264.6,-2371.2,-48.3,-68.1,-36.0,343.8,-1474.8,-4014.9,-1201.8,-6.9,-6.0,11.4,-68.1,-1.2,35.4,134.7,-26.1,0,3582,0,98,0, 
1.9933,-17.4,-10.8,-61.8,-65.7,-134.1,-138.6,4.2,265.2,-2297.1,-34.5,-59.7,-28.8,158.7,-1823.7,-3689.7,-737.7,-7.2,-6.0,15.6,-58.8,-0.9,44.4,149.7,-15.6,0,3588,0,99,0, 
1.9967,-22.8,-14.4,-118.8,-66.9,-157.2,-140.4,-2.7,261.6,-2445.3,-38.7,-62.7,-33.0,36.6,-1849.5,-3630.6,-539.4,-6.6,-6.0,11.1,-64.5,-0.6,35.7,147.6,-23.4,0,3594,0,100,0, 
2.0000,-28.5,-18.9,18.9,-69.3,-159.6,-139.8,-14.4,259.2,-2519.4,-40.5,-66.3,-33.9,191.7,-1576.5,-4032.9,-823.2,-7.2,-6.0,7.2,-67.8,-0.6,38.7,148.5,-30.3,0,3600,0,101,0, 
2.0033,-26.1,-14.4,93.9,-64.8,-172.2,-146.4,-18.6,256.2,-2445.3,-35.1,-65.4,-27.6,492.6,-1284.9,-4109.7,-1184.1,-7.5,-6.3,1.2,-62.1,-0.9,34.2,140.1,-27.6,0,3606,0,102,0, 
2.0067,-32.4,-18.3,103.2,-68.7,-153.3,-147.6,-14.4,257.1,-2371.2,-45.0,-67.2,-33.6,598.8,-1356.6,-3762.3,-1032.9,-6.9,-6.3,4.5,-71.1,-0.6,30.3,142.5,-25.8,0,3612,0,103,0, 
2.0100,-27.9,-16.2,-25.5,-66.3,-150.9,-143.7,-9.6,262.2,-2223.0,-44.4,-62.7,-36.3,478.2,-1720.8,-3273.0,-575.4,-6.9,-6.0,14.4,-69.9,-1.2,30.6,145.2,-20.4,0,3618,0,104,0, 
2.0133,-26.7,-25.8,-45.3,-69.3,-145.5,-140.7,-4.5,260.4,-2297.1,-38.7,-66.9,-32.1,295.8,-1815.0,-3406.8,-377.4,-6.6,-5.4,8.4,-70.5,-0.9,28.2,149.1,-21.9,0,3624,0,105,0, 
2.0167,-31.2,-23.7,78.6,-73.2,-159.3,-141.6,-18.9,259.8,-2371.2,-42.3,-69.3,-33.9,439.5,-1503.9,-3778.5,-641.7,-6.6,-6.0,7.8,-72.9,-0.6,25.5,143.7,-23.7,0,3630,0,106,0, 
2.0200,-34.2,-27.0,141.9,-74.4,-172.8,-141.9,-25.2,259.2,-2445.3,-46.8,-74.1,-41.1,708.0,-1158.9,-3852.3,-1092.6,-7.2,-6.0,-0.3,-73.8,-0.6,30.0,137.4,-22.5,0,3636,0,107,0, 
2.0233,-30.9,-20.4,172.5,-71.1,-147.3,-141.9,-18.0,261.6,-2297.1,-49.2,-73.5,-42.3,776.1,-1241.7,-3401.7,-856.8,-6.9,-6.0,0.9,-77.7,-0.6,27.0,132.6,-21.9,0,3642,0,108,0, 
2.0267,-36.9,-26.7,33.9,-79.5,-154.5,-144.6,-19.5,257.4,-2297.1,-50.7,-83.1,-48.9,597.3,-1547.1,-3012.6,-449.1,-7.2,-6.3,-10.8,-80.1,-0.6,18.9,131.4,-24.9,0,3648,0,109,0, 
2.0300,-33.6,-21.9,59.4,-77.1,-158.1,-143.1,-14.7,262.2,-2519.4,-60.3,-86.7,-52.5,447.9,-1710.0,-3112.8,-210.6,-6.9,-5.7,-13.2,-90.3,-0.9,17.1,131.7,-38.1,0,3654,0,110,0, 
2.0333,-32.7,-25.2,135.0,-78.9,-159.6,-140.4,-11.4,259.2,-2445.3,-54.9,-102.0,-71.1,529.2,-1355.7,-3369.9,-498.0,-6.9,-6.3,-23.4,-105.3,-0.9,15.9,135.3,-34.5,0,3660,0,111,0, 
2.0367,-33.9,-29.7,242.7,-72.9,-161.1,-130.8,-24.0,263.7,-2519.4,-53.7,-94.5,-59.4,771.0,-1049.1,-3402.3,-885.3,-6.6,-6.0,-15.3,-93.3,-1.5,21.3,131.1,-24.0,0,3666,0,112,0, 
2.0400,-31.8,-25.8,155.7,-72.3,-148.8,-132.6,-17.7,260.1,-2371.2,-50.1,-84.6,-45.0,897.6,-1177.5,-3134.7,-791.7,-6.9,-6.3,-15.0,-81.6,-1.2,32.1,133.2,-18.9,0,3672,0,113,0, 
2.0433,-27.6,-29.7,18.0,-69.9,-134.4,-125.1,-12.3,263.4,-2297.1,-44.7,-78.3,-35.1,740.1,-1494.3,-2754.9,-335.4,-6.9,-6.0,-8.4,-68.4,-1.2,33.0,144.9,-9.0,0,3678,0,114,0, 
2.0467,-27.6,-30.0,43.5,-66.3,-145.2,-129.3,-3.6,260.7,-2445.3,-45.3,-74.7,-28.8,585.3,-1583.1,-2762.4,-105.3,-7.5,-6.0,-6.0,-61.8,-0.6,38.7,143.7,-9.0,0,3684,0,115,0, 
2.0500,-20.1,-25.8,156.0,-62.1,-171.0,-123.6,-8.4,265.2,-2371.2,-48.0,-87.6,-45.6,662.4,-1280.4,-3148.8,-455.1,-7.2,-6.0,-13.2,-73.2,-1.2,36.9,141.9,-15.6,0,3690,0,116,0, 
2.0533,-18.3,-26.1,524.1,-66.9,-156.0,-122.4,-5.1,262.5,-2593.5,-47.4,-98.1,-52.8,1092.0,-777.6,-2938.2,-592.8,-6.6,-6.0,-18.3,-75.6,-0.9,36.6,148.5,-15.9,0,3696,0,117,0, 
2.0567,-12.9,-18.6,760.2,-58.5,-118.2,-117.9,6.9,268.5,-2297.1,-46.5,-81.3,-39.3,1401.0,-819.3,-2290.8,-339.3,-7.2,-6.0,-7.5,-65.1,-0.9,41.7,149.1,-12.9,0,3702,0,118,0, 
2.0600,-11.7,-24.0,466.5,-60.3,-140.4,-126.9,6.9,269.1,-2223.0,-44.4,-86.7,-42.0,1058.1,-1280.1,-2255.1,-85.8,-6.9,-6.0,-16.2,-66.3,-1.2,46.2,152.7,-11.4,0,3708,0,119,0, 
2.0633,-11.4,-22.5,467.7,-62.7,-134.4,-120.3,12.3,267.3,-2445.3,-46.8,-83.7,-40.2,928.5,-1388.7,-2330.7,82.2,-6.6,-6.6,-11.7,-57.6,-1.2,43.2,146.1,-11.1,0,3714,0,120,0, 
2.0667,-15.9,-20.4,558.9,-66.0,-160.8,-122.7,6.0,265.2,-2519.4,-45.3,-90.3,-43.8,974.7,-1076.4,-2691.0,-311.1,-7.2,-6.3,-18.3,-59.7,-0.9,50.1,138.6,-16.2,0,3720,0,121,0, 
2.0700,-15.6,-21.6,621.6,-66.9,-161.7,-123.3,0.6,262.8,-2445.3,-49.5,-92.7,-48.3,1234.8,-791.1,-2779.2,-666.3,-6.9,-6.3,-20.4,-59.7,-0.9,41.7,137.4,-18.9,0,3726,0,122,0, 
2.0733,-19.2,-25.2,575.7,-70.2,-154.5,-122.1,2.7,265.5,-2519.4,-44.7,-93.9,-50.1,1326.6,-825.9,-2490.6,-540.3,-7.2,-5.7,-20.4,-57.3,-0.9,43.2,141.0,-16.2,0,3732,0,123,0, 
2.0767,-17.1,-22.8,431.7,-69.9,-133.5,-123.0,11.1,264.3,-2297.1,-45.9,-92.1,-47.4,1170.9,-1216.2,-2145.9,-105.0,-6.9,-5.7,-19.5,-49.8,-0.6,46.2,144.9,-3.9,0,3738,0,124,0, 
2.0800,-23.7,-29.7,404.1,-74.1,-142.8,-131.4,3.9,261.0,-2445.3,-49.5,-103.5,-58.5,1018.2,-1282.5,-2191.2,27.6,-6.9,-5.7,-32.7,-60.6,-0.9,44.1,141.6,-17.7,0,3744,0,125,0, 
2.0833,-23.1,-33.3,582.3,-78.3,-161.4,-135.3,2.7,258.6,-2519.4,-50.4,-111.3,-67.5,1167.9,-967.2,-2568.6,-269.7,-6.6,-6.0,-43.8,-69.6,-0.3,43.5,140.7,-22.8,0,3750,0,126,0, 
2.0867,-23.1,-35.4,706.5,-74.1,-162.6,-132.6,-3.6,255.9,-2445.3,-42.6,-102.6,-57.6,1507.2,-619.8,-2497.2,-609.9,-6.6,-5.7,-30.3,-60.0,-0.3,41.1,142.5,-24.0,0,3756,0,127,0, 
2.0900,-25.2,-30.6,667.8,-78.6,-164.7,-133.8,8.4,250.5,-2593.5,-48.6,-109.5,-68.7,1600.8,-734.4,-2172.9,-550.8,-6.6,-6.0,-35.4,-67.5,-0.6,41.1,146.7,-13.2,0,3762,0,128,0, 
2.0933,-21.3,-21.6,490.8,-74.4,-144.6,-131.7,18.6,257.7,-2445.3,-40.5,-101.1,-62.1,1456.5,-1073.7,-1811.4,-99.6,-7.2,-6.3,-27.9,-60.3,-1.2,52.5,150.6,-6.9,0,3768,0,129,0, 
2.0967,-18.6,-16.2,513.0,-73.5,-149.4,-126.9,9.3,262.8,-2593.5,-38.7,-100.5,-56.1,1331.4,-1147.8,-1831.5,81.6,-7.2,-6.0,-28.8,-58.2,-0.9,57.0,149.1,-1.2,0,3774,0,130,0, 
2.1000,-27.0,-29.7,638.7,-69.9,-153.0,-125.4,8.1,266.4,-2593.5,-27.0,-96.3,-49.2,1516.8,-797.4,-2121.3,-213.3,-7.2,-5.4,-22.8,-53.4,-0.9,52.2,143.4,-8.1,0,3780,0,131,0, 
2.1033,-20.4,-18.9,724.2,-71.1,-159.3,-125.4,5.7,265.8,-2445.3,-31.2,-93.6,-49.5,1818.6,-513.3,-2257.5,-587.7,-6.3,-6.3,-20.1,-55.5,-0.9,63.6,144.9,-6.3,0,3786,0,132,0, 
2.1067,-20.1,-24.6,659.7,-69.0,-144.0,-115.2,12.3,263.1,-2297.1,-28.5,-87.6,-41.7,1967.4,-584.7,-1871.1,-471.9,-6.9,-5.7,-18.9,-47.4,-0.6,74.4,152.4,8.7,0,3792,0,133,0, 
2.1100,-21.0,-22.8,512.1,-77.1,-135.0,-121.8,8.4,261.3,-2371.2,-29.4,-97.2,-49.5,1764.9,-923.7,-1522.8,-79.2,-6.6,-5.7,-27.0,-57.6,-0.9,61.8,146.1,1.5,0,3798,0,134,0, 
2.1133,-19.8,-27.6,582.0,-73.2,-123.3,-113.4,24.3,268.8,-2519.4,-25.8,-94.2,-42.9,1650.9,-995.4,-1564.8,209.7,-7.2,-5.7,-24.3,-45.3,-0.9,66.3,150.6,3.6,0,3804,0,135,0, 
2.1167,-18.3,-12.9,652.8,-63.3,-141.6,-103.8,15.3,273.9,-2519.4,-25.8,-84.9,-37.8,1789.5,-731.4,-1951.2,-198.0,-6.9,-5.7,-11.7,-43.8,-0.9,69.3,153.3,7.2,0,3810,0,136,0, 
2.1200,-21.0,-21.3,776.7,-69.6,-148.5,-108.9,7.5,273.9,-2371.2,-20.4,-89.1,-42.9,2114.7,-414.3,-2065.2,-430.2,-7.2,-6.0,-22.5,-44.7,-0.6,70.2,149.1,-1.5,0,3816,0,137,0, 
2.1233,-19.8,-14.7,707.4,-69.6,-128.1,-108.0,13.2,272.4,-2445.3,-36.9,-95.4,-52.2,2169.0,-470.1,-1716.3,-355.2,-7.2,-5.7,-25.2,-48.0,-0.6,63.6,148.8,-0.3,0,3822,0,138,0, 
2.1267,-21.6,-24.9,555.9,-68.7,-136.8,-110.7,24.6,274.8,-2371.2,-21.9,-91.5,-42.6,1986.3,-802.5,-1287.6,139.2,-6.6,-5.7,-22.8,-38.4,-0.9,72.6,159.9,16.5,0,3828,0,139,0, 
2.1300,-22.5,-13.8,484.8,-60.9,-147.6,-108.0,26.7,276.3,-2445.3,-26.4,-85.2,-38.7,1794.9,-949.2,-1378.2,195.3,-6.6,-6.3,-15.0,-35.1,-0.9,75.6,162.6,24.6,0,3834,0,140,0, 
2.1333,-26.4,-23.4,633.3,-67.2,-165.6,-108.0,13.5,267.3,-2519.4,-30.9,-93.6,-42.9,1939.2,-604.5,-1751.1,-158.7,-6.6,-5.7,-25.5,-41.7,-0.9,71.4,155.7,16.5,0,3840,0,141,0, 
2.1367,-28.8,-23.1,731.7,-68.1,-171.6,-113.4,7.2,264.3,-2519.4,-27.3,-95.1,-45.9,2220.9,-372.0,-1797.0,-498.6,-7.2,-6.0,-31.2,-45.9,-1.2,74.7,153.3,10.5,0,3846,0,142,0, 
2.1400,-25.5,-22.2,696.0,-62.4,-153.0,-113.1,17.1,267.0,-2297.1,-29.4,-94.5,-45.0,2357.4,-453.9,-1420.2,-339.6,-6.6,-6.3,-33.3,-43.8,-0.6,74.4,160.5,17.7,0,3852,0,143,0, 
2.1433,-29.1,-24.9,563.7,-72.6,-148.5,-112.8,22.8,258.9,-2297.1,-38.7,-104.1,-53.1,2174.4,-795.9,-1113.6,81.0,-7.2,-6.0,-34.2,-49.2,-0.6,68.1,157.5,10.5,0,3858,0,144,0, 
2.1467,-27.0,-29.1,535.8,-71.1,-164.7,-112.2,21.0,257.7,-2445.3,-44.1,-110.1,-58.2,2036.7,-909.9,-1163.4,237.9,-6.9,-5.7,-37.5,-54.9,-0.6,59.1,162.0,6.0,0,3864,0,145,0, 
2.1500,-30.6,-28.5,635.7,-74.7,-154.8,-117.6,9.6,255.9,-2519.4,-41.1,-105.6,-60.0,2164.2,-615.0,-1530.0,-106.8,-6.9,-5.7,-35.7,-57.3,-0.6,50.4,153.9,-3.6,0,3870,0,146,0, 
2.1533,-30.0,-30.6,761.7,-78.3,-157.2,-119.7,5.7,251.7,-2445.3,-43.8,-109.8,-65.4,2439.9,-299.1,-1578.3,-478.8,-6.9,-6.0,-39.6,-51.0,-0.9,59.4,149.1,1.2,0,3876,0,147,0, 
2.1567,-29.1,-23.1,697.2,-82.8,-163.2,-120.9,2.7,254.4,-2297.1,-52.2,-113.4,-68.7,2498.1,-392.1,-1298.1,-372.9,-7.2,-6.3,-42.3,-55.8,-0.3,50.1,152.7,2.1,0,3882,0,148,0, 
2.1600,-27.9,-30.6,539.7,-75.3,-134.1,-117.0,24.0,257.4,-2519.4,-37.2,-107.7,-60.9,2280.6,-739.2,-869.7,112.8,-7.2,-6.0,-37.5,-52.8,-1.5,55.5,159.9,15.0,0,3888,0,149,0, 
2.1633,-30.3,-30.3,487.5,-78.0,-142.5,-122.7,6.9,250.2,-2445.3,-42.3,-110.4,-59.7,2097.3,-852.6,-969.0,298.8,-6.6,-6.0,-42.6,-47.4,-0.9,49.8,150.0,10.5,0,3894,0,150,0, 
2.1667,-31.2,-34.5,597.0,-78.3,-138.0,-119.4,6.0,249.6,-2519.4,-48.0,-111.9,-67.2,2159.7,-560.1,-1252.2,-65.7,-6.6,-6.0,-40.8,-55.2,-1.2,55.5,152.7,8.4,0,3900,0,151,0, 
2.1700,-26.7,-26.7,801.6,-78.6,-153.9,-114.0,6.6,257.1,-2519.4,-43.5,-110.7,-59.7,2469.0,-220.8,-1334.7,-386.1,-6.9,-5.7,-42.9,-45.9,-0.9,59.1,156.0,24.9,0,3906,0,152,0, 
2.1733,-21.6,-23.1,697.2,-76.5,-147.6,-116.1,19.8,258.6,-2445.3,-43.8,-107.4,-54.3,2523.6,-362.7,-1023.9,-246.3,-6.6,-6.0,-39.3,-43.2,-0.9,60.0,147.9,9.0,0,3912,0,153,0, 
2.1767,-23.4,-24.0,596.4,-72.9,-136.2,-120.9,24.9,261.6,-2371.2,-47.7,-105.0,-56.1,2326.8,-698.4,-624.0,207.9,-7.2,-6.0,-35.4,-41.1,-0.9,56.1,153.6,17.7,0,3918,0,154,0, 
2.1800,-19.8,-19.5,552.6,-70.5,-154.8,-126.9,22.5,262.5,-2445.3,-48.0,-102.0,-52.5,2111.1,-799.5,-760.5,363.9,-6.9,-6.0,-36.3,-43.5,-0.6,52.5,152.7,7.8,0,3924,0,155,0, 
2.1833,-26.4,-28.2,673.5,-74.1,-163.5,-126.0,11.4,259.8,-2445.3,-58.5,-109.8,-57.9,2217.3,-539.4,-1031.1,20.1,-6.9,-5.4,-44.1,-49.2,-0.9,45.9,146.7,-0.6,0,3930,0,156,0, 
2.1867,-29.4,-36.3,714.3,-77.1,-174.0,-128.1,-4.2,253.5,-2519.4,-59.7,-112.2,-60.6,2461.8,-211.2,-1144.8,-382.5,-6.9,-5.7,-44.1,-48.3,-0.9,43.5,145.8,-5.1,0,3936,0,157,0, 
2.1900,-25.5,-32.4,680.1,-77.4,-155.7,-128.1,5.1,247.8,-2371.2,-58.5,-112.8,-62.1,2514.3,-299.4,-859.8,-269.4,-7.2,-5.7,-45.3,-48.3,-0.9,45.0,147.6,3.9,0,3942,0,158,0, 
2.1933,-29.7,-39.6,512.7,-83.7,-145.2,-122.1,7.5,245.1,-2445.3,-60.9,-118.8,-69.6,2301.6,-643.8,-452.1,207.0,-6.6,-5.7,-50.4,-51.9,-1.2,39.9,152.1,4.5,0,3948,0,159,0, 
2.1967,-27.3,-38.4,457.8,-79.8,-162.0,-121.2,7.8,249.6,-2445.3,-49.8,-111.9,-61.2,2104.2,-821.1,-546.9,352.2,-6.9,-6.0,-47.4,-49.2,-0.9,45.6,152.7,2.7,0,3954,0,160,0, 
2.2000,-17.4,-24.6,588.3,-75.6,-148.8,-113.1,7.8,259.2,-2593.5,-52.8,-109.5,-62.7,2209.5,-525.6,-857.1,55.2,-6.9,-5.7,-33.9,-48.9,-1.2,50.1,150.6,6.0,0,3960,0,161,0, 
2.2033,-25.2,-40.5,680.4,-84.3,-161.1,-120.0,2.7,249.0,-2593.5,-52.5,-118.5,-67.2,2464.2,-238.2,-955.5,-308.1,-6.9,-6.0,-41.4,-53.4,-0.9,57.3,147.0,4.8,0,3966,0,162,0, 
2.2067,-32.4,-46.2,592.2,-90.9,-153.6,-119.1,12.3,243.0,-2445.3,-54.6,-126.9,-75.3,2532.9,-356.7,-598.5,-206.4,-6.6,-5.7,-53.1,-57.3,-0.3,49.8,153.3,7.5,0,3972,0,163,0, 
2.2100,-33.3,-39.3,470.1,-88.2,-150.9,-115.8,10.2,242.7,-2445.3,-53.7,-117.9,-67.2,2258.1,-716.4,-303.0,240.0,-6.6,-6.0,-47.4,-47.4,-0.6,49.5,154.8,9.9,0,3978,0,164,0, 
2.2133,-36.6,-39.3,425.7,-86.7,-158.4,-111.6,7.5,239.4,-2519.4,-52.2,-112.5,-66.9,2074.8,-828.3,-323.7,391.2,-6.9,-5.4,-39.6,-48.3,-0.9,49.2,151.5,8.7,0,3984,0,165,0, 
2.2167,-31.5,-36.9,493.8,-81.0,-159.9,-117.6,-1.2,245.4,-2519.4,-44.4,-103.2,-60.6,2137.5,-493.5,-639.9,107.7,-6.6,-5.7,-30.3,-45.9,-0.9,56.1,143.7,9.6,0,3990,0,166,0, 
2.2200,-31.2,-33.3,653.1,-79.5,-167.1,-113.4,-10.5,248.7,-2445.3,-43.5,-101.7,-56.7,2375.4,-234.3,-771.3,-269.4,-6.9,-6.0,-30.0,-45.0,-0.9,50.7,141.0,20.1,0,3996,0,167,0, 
2.2233,-33.0,-34.2,602.4,-75.9,-149.7,-111.0,-6.6,247.8,-2445.3,-49.2,-100.5,-49.8,2403.9,-383.1,-418.2,-160.2,-7.2,-5.7,-30.3,-41.7,-0.9,48.6,140.7,11.1,0,4002,0,168,0, 
2.2267,-25.8,-32.7,491.7,-74.7,-129.0,-107.7,10.5,250.8,-2297.1,-40.5,-100.2,-48.6,2187.6,-713.1,-88.5,279.3,-6.9,-6.3,-28.8,-39.9,-1.2,61.8,150.0,21.9,0,4008,0,169,0, 
2.2300,-24.0,-20.4,353.7,-73.2,-143.1,-108.0,6.0,257.4,-2519.4,-47.4,-97.8,-51.0,1940.7,-794.4,-162.3,491.4,-6.6,-6.0,-31.8,-45.3,-1.2,56.4,151.5,26.7,0,4014,0,170,0, 
2.2333,-27.3,-28.2,468.9,-74.4,-150.6,-106.5,-2.1,259.5,-2519.4,-39.6,-98.1,-52.2,2007.3,-532.2,-553.8,105.3,-6.9,-5.7,-29.7,-44.7,-0.6,54.9,146.7,12.3,0,4020,0,171,0, 
2.2367,-23.4,-19.2,580.8,-73.8,-155.4,-110.4,5.4,259.8,-2593.5,-41.1,-97.8,-56.4,2241.0,-271.8,-651.3,-283.8,-6.9,-5.7,-26.7,-46.2,-0.9,53.4,149.7,16.8,0,4026,0,172,0, 
2.2400,-20.7,-19.5,556.8,-77.4,-142.5,-115.8,9.9,262.2,-2297.1,-45.6,-104.1,-55.8,2310.6,-396.0,-287.4,-126.9,-6.9,-6.0,-30.6,-45.0,-0.3,54.6,150.0,9.6,0,4032,0,173,0, 
2.2433,-19.8,-17.4,358.5,-75.6,-130.2,-112.2,6.0,264.3,-2445.3,-42.0,-100.5,-55.8,2094.9,-796.2,35.4,209.1,-6.9,-5.7,-30.6,-43.8,-0.9,58.8,152.1,15.0,0,4038,0,174,0, 
2.2467,-18.3,-21.3,360.9,-74.7,-144.3,-108.0,8.7,267.0,-2445.3,-38.7,-97.5,-52.2,1857.3,-933.3,-62.1,370.2,-7.2,-6.0,-27.9,-43.5,-0.6,61.5,158.7,12.6,0,4044,0,175,0, 
2.2500,-24.6,-19.2,436.8,-79.8,-167.7,-113.1,3.3,260.7,-2445.3,-48.9,-107.4,-59.1,1896.9,-584.7,-440.4,24.3,-7.2,-6.0,-31.5,-49.8,-1.2,59.1,151.2,0.3,0,4050,0,176,0, 
2.2533,-20.4,-9.6,541.5,-76.5,-145.2,-108.6,-0.6,262.2,-2445.3,-38.1,-99.9,-52.2,2113.8,-291.6,-567.0,-360.0,-6.9,-5.7,-28.5,-39.0,-0.3,60.0,145.8,-1.5,0,4056,0,177,0, 
2.2567,-28.2,-23.4,538.5,-83.7,-141.9,-116.4,-1.2,250.5,-2519.4,-45.9,-108.3,-58.8,2143.5,-421.5,-193.5,-267.6,-6.6,-6.0,-41.7,-48.9,-0.9,58.2,147.6,-12.6,0,4062,0,178,0, 
2.2600,-26.1,-22.2,364.2,-78.0,-147.0,-119.4,5.1,252.9,-2371.2,-39.9,-105.0,-58.2,1900.8,-834.3,86.4,166.5,-6.9,-5.7,-36.3,-42.3,-0.9,55.5,145.5,-1.5,0,4068,0,179,0, 
2.2633,-22.8,-13.2,260.4,-68.7,-139.2,-116.1,1.8,258.6,-2445.3,-36.3,-97.5,-51.3,1710.9,-973.2,-56.1,242.1,-6.6,-6.0,-22.5,-36.0,-1.2,62.1,146.4,5.1,0,4074,0,180,0, 
2.2667,-18.0,-9.0,406.5,-66.0,-149.1,-116.7,-1.5,261.6,-2445.3,-42.9,-97.2,-49.8,1809.6,-681.9,-416.7,-15.0,-7.2,-6.0,-21.9,-33.3,-0.6,52.8,144.6,-12.0,0,4080,0,181,0, 
2.2700,-23.7,-12.6,514.5,-72.9,-160.5,-118.2,1.8,262.8,-2445.3,-51.9,-104.7,-58.8,2020.8,-350.1,-509.1,-393.0,-6.3,-6.0,-33.9,-40.5,-0.3,47.1,141.6,-11.7,0,4086,0,182,0, 
2.2733,-22.2,-23.7,421.5,-76.2,-164.1,-117.6,9.3,264.0,-2371.2,-52.5,-107.7,-58.8,2041.2,-492.6,-249.9,-344.4,-7.2,-6.0,-37.2,-43.5,-0.6,51.3,145.8,-4.2,0,4092,0,183,0, 
2.2767,-26.4,-19.2,223.2,-83.4,-147.6,-121.5,7.5,259.5,-2445.3,-62.7,-118.2,-70.2,1806.6,-857.1,85.8,81.6,-6.3,-6.3,-48.9,-52.2,-1.2,46.8,143.7,-3.0,0,4098,0,184,0, 
2.2800,-27.3,-27.6,174.6,-81.3,-155.1,-123.3,7.8,256.8,-2297.1,-57.0,-111.3,-72.0,1572.3,-1014.9,52.8,262.5,-6.9,-6.0,-46.5,-54.6,-0.9,43.8,141.9,-5.4,0,4104,0,185,0, 
2.2833,-27.0,-26.1,294.9,-81.6,-171.9,-117.9,-2.4,254.1,-2593.5,-54.6,-117.0,-75.6,1677.6,-698.4,-368.1,-61.8,-6.9,-6.3,-51.0,-48.6,-0.6,40.5,141.3,-18.6,0,4110,0,186,0, 
2.2867,-29.1,-24.9,412.2,-78.6,-158.1,-109.8,-3.3,250.5,-2519.4,-58.2,-115.8,-65.4,1880.7,-411.3,-482.4,-461.7,-7.2,-5.7,-47.7,-50.1,-0.9,49.8,139.8,-8.7,0,4116,0,187,0, 
2.2900,-32.1,-28.2,433.2,-85.5,-153.0,-123.9,7.8,243.0,-2297.1,-62.7,-120.3,-63.3,1988.7,-523.2,-129.3,-336.0,-6.9,-6.0,-51.6,-47.7,-1.5,52.5,136.2,-6.6,0,4122,0,188,0, 
2.2933,-32.4,-31.2,193.5,-80.1,-133.5,-114.0,16.8,242.1,-2371.2,-53.1,-111.0,-54.0,1733.1,-935.4,126.9,36.6,-7.2,-5.7,-42.3,-36.9,-0.6,62.7,145.5,11.7,0,4128,0,189,0, 
2.2967,-20.4,-13.8,171.0,-76.8,-127.8,-109.2,14.4,249.0,-2445.3,-51.6,-108.9,-56.1,1557.0,-1034.7,19.5,194.1,-7.2,-6.3,-36.0,-38.7,-0.6,69.6,147.9,11.1,0,4134,0,190,0, 
2.3000,-26.4,-24.6,-5.7,-75.9,-175.8,-108.9,2.4,245.7,-2519.4,-39.0,-102.3,-54.6,1479.9,-853.8,-681.9,-313.5,-6.9,-6.0,-29.4,-36.0,-0.6,65.4,145.2,0.0,0,4140,0,191,0, 
2.3033,-22.8,-17.7,54.0,-71.4,-179.4,-101.4,0.9,242.4,-2593.5,-33.0,-99.0,-49.2,1644.6,-567.9,-819.3,-677.4,-7.5,-6.0,-27.3,-27.3,-1.2,76.2,150.0,5.1,0,4146,0,192,0, 
2.3067,-28.2,-27.0,109.8,-72.9,-154.5,-105.6,4.2,239.7,-2445.3,-33.3,-102.6,-46.2,1764.6,-627.6,-383.1,-462.6,-6.9,-6.0,-26.1,-30.0,-0.6,79.2,151.2,1.8,0,4152,0,193,0, 
2.3100,-23.7,-21.3,-23.7,-63.0,-143.1,-98.1,15.3,246.0,-2445.3,-28.5,-95.1,-47.7,1525.2,-1027.5,-9.9,-75.3,-7.5,-6.0,-24.0,-30.0,-0.9,65.4,156.0,9.0,0,4158,0,194,0, 
2.3133,-28.5,-23.4,-24.6,-68.7,-149.1,-101.1,14.1,244.8,-2445.3,-34.8,-91.2,-44.4,1316.1,-1084.8,-82.8,110.7,-6.6,-6.0,-31.2,-31.2,-0.3,75.6,161.4,3.6,0,4164,0,195,0, 
2.3167,-27.3,-26.1,86.4,-68.7,-158.4,-104.4,10.8,240.9,-2593.5,-30.0,-98.1,-46.2,1387.8,-822.3,-450.0,-261.9,-7.2,-6.0,-27.3,-31.8,-0.6,65.4,151.5,0.9,0,4170,0,196,0, 
2.3200,-26.7,-16.2,260.1,-67.8,-174.6,-107.7,5.7,244.5,-2445.3,-36.3,-91.5,-46.5,1638.6,-530.4,-553.2,-611.4,-7.2,-6.0,-17.7,-33.9,-0.6,72.0,154.2,-0.3,0,4176,0,197,0, 
2.3233,-30.6,-23.7,216.9,-74.1,-153.9,-104.1,8.4,238.8,-2371.2,-31.8,-99.9,-52.8,1657.8,-651.9,-208.5,-535.5,-6.9,-5.7,-22.8,-43.5,-0.9,65.1,155.7,6.6,0,4182,0,198,0, 
2.3267,-29.1,-25.5,-21.3,-77.4,-158.4,-112.2,18.6,240.6,-2519.4,-34.2,-100.5,-52.8,1372.5,-1046.1,3.3,-181.8,-7.2,-5.7,-26.1,-43.5,-0.9,74.7,153.6,2.7,0,4188,0,199,0, 
