Time,P3,C3,F3,Fz,F4,C4,P4,Cz,CM,A1,Fp1,Fp2,T3,T5,O1,O2,X3,X2,F7,F8,X1,A2,T6,T4,Trigger,Time_Offset,ADC_Status,ADC_Sequence,Event,Comments
0.0033,59.7,139.2,1169.4,336.6,-41.4,-435.6,1261.8,170.7,-6298.5,1634.1,-664.2,-312.0,-1252.2,1342.8,-3959.7,958.2,-6.9,-5.7,-41.1,952.5,-0.6,409.8,1987.5,-209.7,0,6,0,118,0, 
0.0067,59.4,114.9,1157.4,340.8,-33.6,-422.1,1272.0,165.0,-8076.9,1630.5,-201.9,-145.5,-1354.5,1249.8,-5763.3,969.6,-6.6,-5.7,-39.0,971.4,-0.9,425.4,1998.9,-165.3,0,12,0,119,0, 
0.0100,50.1,99.6,1150.8,331.5,-42.3,-434.4,1261.2,155.7,-8002.8,1613.7,-78.6,-141.6,-1315.2,1196.7,-5791.5,972.6,-6.6,-6.0,-51.9,956.1,-0.6,410.7,2002.5,-188.7,0,18,0,120,0, 
0.0133,55.2,94.8,1152.9,329.7,-45.9,-437.7,1263.9,161.7,-6150.3,1623.0,-564.3,-315.6,-1219.5,1282.5,-3992.7,969.0,-6.6,-5.4,-50.4,944.4,-0.9,408.6,2004.9,-220.8,0,24,0,121,0, 
0.0167,57.3,109.5,1160.1,336.6,-34.5,-428.7,1272.9,173.7,-5187.0,1631.7,-953.1,-474.6,-1231.2,1386.6,-2872.2,961.2,-6.6,-6.0,-37.5,941.4,-0.6,413.1,2028.9,-212.4,0,30,0,122,0, 
0.0200,51.9,108.3,1149.3,323.4,-42.9,-434.4,1262.1,162.6,-6150.3,1627.5,-793.5,-410.4,-1266.9,1363.2,-3964.8,977.1,-6.9,-6.3,-47.1,930.9,-0.6,394.5,2002.2,-198.6,0,36,0,123,0, 
0.0233,48.0,102.3,1143.9,317.1,-48.6,-432.3,1262.1,152.1,-8002.8,1618.8,-262.2,-197.4,-1293.9,1237.2,-5771.4,973.2,-6.9,-5.7,-47.1,936.6,-0.9,400.8,1992.9,-182.4,0,42,0,124,0, 
0.0267,55.8,110.4,1156.2,320.1,-45.3,-438.3,1255.5,151.8,-7928.7,1628.1,-180.3,-98.7,-1271.1,1175.1,-5805.9,953.4,-6.9,-6.0,-40.8,947.1,-1.2,398.1,1984.8,-198.3,0,48,0,125,0, 
0.0300,56.4,97.8,1153.8,319.5,-40.8,-439.2,1260.3,160.8,-6224.4,1611.0,-609.3,-238.5,-1167.6,1292.1,-4005.0,951.3,-6.9,-5.7,-45.6,937.8,-0.9,390.0,1990.5,-202.8,0,54,0,126,0, 
0.0333,60.6,116.7,1168.2,332.7,-30.9,-421.8,1274.1,179.4,-5038.8,1634.4,-959.1,-376.5,-1148.1,1392.9,-2866.5,958.2,-6.9,-5.7,-30.6,948.9,-0.6,413.7,2006.4,-180.3,0,60,0,127,0, 
0.0367,58.8,109.5,1155.0,324.0,-39.0,-422.7,1274.1,174.3,-6372.6,1620.9,-874.8,-387.3,-1206.3,1371.9,-3963.9,967.2,-7.2,-6.0,-44.1,938.7,-0.9,402.6,1994.4,-169.8,0,66,0,128,0, 
0.0400,52.5,106.2,1152.6,321.6,-39.9,-431.4,1265.1,165.3,-8002.8,1629.3,-295.2,-243.6,-1303.8,1231.2,-5784.3,958.5,-6.9,-6.0,-50.4,943.8,-0.6,395.7,1982.7,-161.1,0,72,0,129,0, 
0.0433,49.8,103.8,1148.7,315.3,-51.3,-446.4,1261.5,153.9,-8151.0,1604.1,-175.2,-157.8,-1327.2,1180.5,-5803.5,971.7,-6.9,-5.4,-66.9,933.9,-0.9,397.8,1996.2,-175.5,0,78,0,130,0, 
0.0467,56.1,104.4,1153.8,323.1,-41.4,-435.6,1268.1,165.3,-6076.2,1618.5,-605.7,-231.3,-1227.3,1289.7,-3989.4,978.3,-6.9,-6.3,-58.5,940.2,-0.6,405.6,1994.4,-176.7,0,84,0,131,0, 
0.0500,60.3,114.6,1156.2,324.6,-50.1,-447.9,1262.1,165.3,-5335.2,1619.7,-1047.0,-432.6,-1248.9,1403.4,-2861.1,974.1,-6.6,-5.7,-54.0,931.5,-0.9,411.0,1974.3,-230.1,0,90,0,132,0, 
0.0533,62.1,117.6,1156.2,327.0,-42.9,-447.3,1267.2,159.9,-6372.6,1635.9,-834.3,-291.3,-1287.9,1377.3,-3957.9,965.1,-6.9,-5.7,-50.1,931.5,-0.6,407.4,1988.7,-218.7,0,96,0,133,0, 
0.0567,63.6,126.6,1159.5,327.9,-37.5,-447.0,1258.5,153.3,-8076.9,1641.0,-329.1,-273.6,-1292.4,1259.1,-5751.0,957.3,-6.9,-5.4,-48.6,929.4,-1.2,404.1,1996.8,-209.1,0,102,0,134,0, 
0.0600,61.2,143.4,1167.3,333.0,-37.5,-444.6,1261.8,159.6,-8002.8,1644.6,-53.7,-66.0,-1323.3,1178.7,-5778.0,967.2,-7.2,-6.0,-44.1,934.2,-0.6,406.8,2002.5,-215.7,0,108,0,135,0, 
0.0633,68.4,153.9,1168.8,333.9,-38.7,-438.9,1265.1,166.8,-6298.5,1617.6,-592.5,-240.9,-1288.8,1283.4,-3988.2,962.1,-6.9,-5.7,-57.3,931.2,-0.6,404.7,1997.4,-167.4,0,114,0,136,0, 
0.0667,59.4,143.7,1173.0,345.3,-27.6,-417.6,1280.4,178.8,-5261.1,1646.1,-852.6,-370.5,-1309.2,1338.6,-2910.3,955.5,-7.2,-5.7,-36.0,947.7,-0.9,405.0,2028.9,-153.6,0,120,0,137,0, 
0.0700,61.8,129.0,1174.5,348.0,-24.0,-417.3,1280.7,177.0,-6446.7,1640.7,-777.9,-372.3,-1215.3,1356.9,-3969.3,969.6,-6.9,-5.7,-30.0,958.8,-0.6,423.9,2019.0,-166.5,0,126,0,138,0, 
0.0733,54.3,96.3,1154.4,336.6,-29.4,-420.3,1278.3,166.8,-8151.0,1623.9,-216.0,-153.0,-1300.8,1230.6,-5772.0,975.9,-7.2,-5.7,-51.6,952.8,-0.9,416.1,2001.0,-143.4,0,132,0,139,0, 
0.0767,52.8,94.8,1158.9,333.0,-35.7,-434.4,1263.9,161.4,-8076.9,1638.3,-98.4,-98.4,-1225.8,1188.9,-5777.1,976.8,-6.9,-5.4,-53.4,946.5,-0.6,411.3,1981.2,-188.4,0,138,0,140,0, 
0.0800,47.7,86.4,1155.0,327.9,-44.1,-442.8,1258.5,163.8,-6150.3,1638.0,-456.0,-178.2,-1201.2,1288.2,-3988.2,975.6,-6.9,-5.7,-55.8,940.2,-0.6,399.0,1978.2,-227.7,0,144,0,141,0, 
0.0833,48.0,89.1,1153.8,323.1,-43.5,-443.7,1260.9,166.5,-5112.9,1641.9,-897.9,-370.5,-1170.0,1415.1,-2842.2,980.4,-6.9,-5.7,-49.5,939.0,-0.6,398.4,1988.1,-231.6,0,150,0,142,0, 
0.0867,52.5,109.2,1156.5,331.8,-38.7,-434.1,1263.9,169.2,-6372.6,1640.1,-709.2,-281.7,-1201.8,1374.3,-3942.6,969.3,-6.6,-6.0,-33.3,949.5,-0.3,411.6,1998.6,-209.1,0,156,0,143,0, 
0.0900,55.2,104.4,1155.0,327.6,-42.3,-434.1,1263.9,164.1,-8076.9,1634.1,-207.6,-219.9,-1261.8,1264.5,-5739.0,965.1,-6.9,-5.7,-32.7,944.7,-0.6,417.6,1979.1,-192.3,0,162,0,144,0, 
0.0933,44.1,90.3,1145.7,318.6,-50.1,-440.4,1261.8,153.0,-8002.8,1629.0,81.9,-118.2,-1255.8,1204.8,-5758.2,979.2,-7.2,-6.0,-45.0,943.2,-0.6,404.7,1993.8,-212.7,0,168,0,145,0, 
0.0967,56.1,88.5,1145.1,321.3,-48.6,-429.0,1268.4,156.9,-6298.5,1622.1,-350.4,-212.7,-1213.5,1297.5,-3971.4,972.3,-7.2,-6.0,-43.5,945.9,-0.9,404.1,2000.7,-181.2,0,174,0,146,0, 
0.1000,62.4,106.8,1153.2,327.3,-46.5,-434.4,1266.0,162.6,-5112.9,1637.4,-842.7,-373.8,-1201.2,1420.2,-2823.0,969.3,-7.2,-6.0,-37.5,948.0,-0.6,406.8,1992.0,-194.1,0,180,0,147,0, 
0.1033,75.9,123.3,1165.5,331.5,-40.8,-438.6,1265.4,164.7,-6224.4,1639.2,-601.2,-332.1,-1230.9,1408.8,-3891.0,965.1,-6.9,-5.7,-29.7,954.9,-0.9,416.4,1996.2,-201.0,0,186,0,148,0, 
0.1067,69.6,120.0,1161.6,330.9,-40.8,-431.7,1269.9,159.3,-7928.7,1656.3,-89.7,-166.5,-1286.7,1252.8,-5714.4,978.6,-7.2,-6.3,-24.6,950.4,-0.9,418.2,2004.9,-215.7,0,192,0,149,0, 
0.1100,69.0,136.2,1162.8,331.8,-40.8,-429.6,1270.5,160.5,-7928.7,1649.1,50.7,14.7,-1306.5,1192.8,-5760.0,962.7,-6.9,-6.0,-18.0,944.7,-0.6,408.6,2012.4,-195.9,0,198,0,150,0, 
0.1133,73.5,155.1,1174.8,339.3,-31.5,-415.8,1275.0,173.1,-6150.3,1649.7,-426.6,-114.6,-1279.8,1273.2,-3981.9,963.3,-6.9,-6.0,-24.9,951.3,-0.6,409.2,1993.2,-166.5,0,204,0,151,0, 
0.1167,67.2,135.3,1162.5,331.5,-34.5,-423.0,1275.9,167.7,-5112.9,1623.9,-853.5,-269.4,-1232.7,1388.4,-2838.6,967.2,-6.6,-5.7,-45.9,945.9,-0.6,401.7,1991.1,-149.7,0,210,0,152,0, 
0.1200,59.4,124.5,1161.6,331.5,-37.8,-432.0,1271.1,166.5,-6150.3,1637.7,-693.0,-261.9,-1230.9,1376.1,-3889.2,976.8,-6.9,-6.0,-39.0,946.2,-0.9,406.8,1987.5,-187.8,0,216,0,153,0, 
0.1233,51.9,120.0,1152.9,325.5,-46.5,-444.0,1270.2,158.7,-8002.8,1626.0,-167.7,-134.7,-1262.7,1264.5,-5688.0,970.2,-6.9,-5.7,-54.0,931.8,-0.6,411.6,1998.3,-220.2,0,222,0,154,0, 
0.1267,54.3,104.4,1147.2,319.8,-47.7,-440.1,1264.5,158.1,-7928.7,1635.9,20.7,-79.2,-1238.7,1210.5,-5721.9,974.7,-6.9,-5.4,-45.6,924.0,-0.6,396.9,2003.7,-215.1,0,228,0,155,0, 
0.1300,51.9,104.1,1143.9,316.8,-50.4,-444.0,1264.5,159.0,-6224.4,1632.0,-405.6,-164.7,-1265.1,1295.1,-3939.9,969.3,-6.9,-6.0,-51.9,922.5,-0.6,402.6,1990.5,-202.2,0,234,0,156,0, 
0.1333,57.6,109.2,1147.5,319.2,-46.5,-426.9,1273.2,166.2,-5038.8,1621.5,-768.9,-324.9,-1229.7,1408.2,-2789.1,962.7,-7.2,-5.7,-45.9,928.2,-0.9,387.3,1986.9,-175.8,0,240,0,157,0, 
0.1367,59.4,121.2,1140.0,312.6,-52.8,-443.1,1262.7,164.7,-6372.6,1609.5,-642.3,-298.5,-1345.2,1389.0,-3867.6,955.8,-6.6,-6.0,-57.9,920.4,-0.6,391.2,1980.6,-204.9,0,246,0,158,0, 
0.1400,59.1,108.3,1139.7,315.0,-50.1,-445.8,1269.9,160.5,-8002.8,1617.9,-153.0,-162.6,-1248.9,1284.9,-5660.1,966.3,-6.9,-5.4,-62.1,926.7,-0.9,390.9,1989.3,-200.7,0,252,0,159,0, 
0.1433,48.6,87.3,1133.4,308.4,-55.8,-449.7,1262.1,152.7,-7928.7,1617.3,-28.5,-6.0,-1219.8,1222.2,-5696.7,958.8,-6.9,-6.0,-79.2,924.6,-0.6,393.9,1981.5,-222.6,0,258,0,160,0, 
0.1467,52.5,79.5,1131.9,304.5,-57.0,-444.0,1264.5,154.2,-6076.2,1613.7,-396.3,-142.5,-1158.9,1301.1,-3908.1,977.4,-6.9,-6.0,-96.6,918.9,-1.5,392.1,2006.4,-214.8,0,264,0,161,0, 
0.1500,58.5,104.4,1139.4,311.4,-45.9,-443.4,1263.6,163.2,-5112.9,1627.5,-878.4,-239.4,-1155.9,1376.4,-2786.7,974.7,-6.9,-6.0,-99.3,914.4,-0.9,394.8,1994.7,-216.9,0,270,0,162,0, 
0.1533,56.1,110.7,1138.8,312.0,-47.1,-449.7,1271.1,159.0,-6224.4,1618.2,-655.2,-174.3,-1254.3,1366.5,-3869.7,1004.1,-6.6,-5.7,-102.6,912.0,-0.3,387.0,2034.9,-236.7,0,276,0,163,0, 
0.1567,59.1,111.3,1139.7,321.0,-42.9,-451.5,1266.9,161.4,-8002.8,1609.8,-166.5,41.7,-1303.5,1275.6,-5666.1,978.9,-6.9,-6.3,-89.7,918.6,-0.6,391.8,1999.8,-234.6,0,282,0,164,0, 
0.1600,61.5,113.1,1146.9,326.4,-39.3,-446.4,1261.2,163.2,-7854.6,1613.7,-41.4,12.0,-1301.1,1238.7,-5685.0,960.3,-7.2,-6.0,-78.3,925.5,-0.6,394.2,1992.9,-227.1,0,288,0,165,0, 
0.1633,62.1,117.9,1149.0,328.5,-39.0,-448.2,1261.2,170.4,-6298.5,1624.2,-429.0,-117.0,-1218.3,1298.1,-3895.5,964.5,-6.9,-5.7,-81.6,921.9,-0.9,396.3,1979.7,-219.0,0,294,0,166,0, 
0.1667,53.1,108.0,1140.3,321.0,-47.4,-450.3,1259.1,167.7,-5187.0,1608.3,-854.1,-234.0,-1192.8,1398.9,-2769.9,954.9,-6.9,-6.0,-84.6,918.6,-0.3,382.8,1986.9,-216.9,0,300,0,167,0, 
0.1700,55.5,110.4,1139.7,320.4,-53.1,-443.1,1263.0,168.3,-6298.5,1607.4,-579.3,-132.3,-1258.2,1381.5,-3839.7,970.2,-7.2,-6.0,-77.7,926.4,-0.6,384.6,1985.1,-197.7,0,306,0,168,0, 
0.1733,57.6,117.9,1136.7,314.1,-54.0,-444.6,1262.7,156.3,-8002.8,1598.1,-73.2,-18.6,-1338.6,1267.5,-5663.1,964.5,-6.6,-5.4,-76.8,926.4,-0.9,391.5,1977.6,-180.9,0,312,0,169,0, 
0.1767,55.8,117.9,1137.0,315.3,-51.3,-438.3,1269.0,161.1,-8076.9,1605.9,150.6,93.0,-1359.9,1177.2,-5716.5,968.1,-6.6,-5.7,-74.4,926.7,-0.6,383.1,1980.0,-171.9,0,318,0,170,0, 
0.1800,53.4,123.3,1138.8,320.1,-42.6,-424.5,1272.9,167.1,-6224.4,1623.6,-234.0,-19.5,-1333.2,1266.0,-3953.4,946.2,-6.9,-6.0,-82.8,930.3,-1.2,386.4,1986.3,-191.1,0,324,0,171,0, 
0.1833,49.5,109.8,1138.2,315.9,-45.3,-430.2,1275.0,166.8,-5112.9,1624.5,-747.6,-158.4,-1160.4,1381.8,-2785.2,958.5,-6.9,-5.7,-82.8,922.5,-1.2,387.6,1987.2,-174.3,0,330,0,172,0, 
0.1867,47.7,90.9,1135.5,319.8,-40.2,-430.5,1275.6,165.0,-6150.3,1632.0,-589.5,-135.9,-1243.2,1388.1,-3852.3,970.5,-6.9,-6.0,-87.0,928.5,-0.9,401.7,1995.0,-175.8,0,336,0,173,0, 
0.1900,42.3,83.7,1132.8,315.0,-43.8,-427.8,1267.5,151.8,-7854.6,1624.8,-5.4,111.9,-1332.3,1262.4,-5661.3,960.0,-6.9,-5.7,-98.1,926.1,-0.9,401.1,2001.6,-198.3,0,342,0,174,0, 
0.1933,55.5,110.7,1139.7,322.5,-38.4,-429.3,1267.8,152.1,-8002.8,1626.9,136.5,228.0,-1313.1,1209.6,-5695.5,958.2,-7.2,-6.0,-95.1,932.1,-1.2,406.8,1992.3,-221.4,0,348,0,175,0, 
0.1967,53.4,90.0,1132.2,311.1,-52.2,-436.8,1264.2,146.4,-6076.2,1611.6,-231.3,120.6,-1155.6,1289.7,-3917.7,960.3,-6.9,-5.7,-98.4,927.0,-0.3,386.1,1987.5,-208.5,0,354,0,176,0, 
0.2000,51.0,101.4,1138.5,314.1,-52.5,-430.2,1264.2,156.3,-4964.7,1614.3,-654.3,-80.7,-1199.7,1389.0,-2780.1,958.2,-6.9,-6.0,-85.5,929.4,-0.9,392.1,1986.6,-210.9,0,360,0,177,0, 
0.2033,49.8,108.9,1138.5,311.1,-61.2,-441.0,1263.9,154.5,-6224.4,1616.4,-475.5,-41.7,-1286.7,1364.4,-3856.8,957.9,-6.9,-5.7,-80.7,916.2,-1.2,389.4,1999.5,-217.2,0,366,0,178,0, 
0.2067,56.1,118.5,1134.0,309.9,-64.8,-440.4,1265.1,152.7,-8076.9,1603.8,64.5,120.3,-1299.0,1241.7,-5661.3,950.1,-6.9,-6.0,-72.6,918.3,-0.9,392.1,1986.9,-221.4,0,372,0,179,0, 
0.2100,48.6,103.2,1130.1,310.2,-72.3,-446.7,1266.3,151.5,-7928.7,1617.0,175.2,148.2,-1230.9,1176.6,-5691.9,972.3,-6.9,-6.0,-83.1,912.6,-0.6,389.7,1982.4,-227.4,0,378,0,180,0, 
0.2133,49.2,96.9,1124.1,300.0,-73.8,-451.2,1262.7,151.2,-6150.3,1585.2,-257.7,18.9,-1202.1,1272.3,-3928.2,955.5,-6.9,-6.0,-104.1,907.5,-1.2,381.0,1988.1,-226.2,0,384,0,181,0, 
0.2167,59.1,106.8,1128.9,304.5,-69.0,-445.8,1263.3,156.3,-5038.8,1612.5,-613.5,-75.9,-1222.8,1375.5,-2777.4,955.5,-6.9,-6.0,-93.9,911.7,-1.2,388.2,1976.4,-215.4,0,390,0,182,0, 
0.2200,51.9,88.8,1120.2,299.7,-62.7,-442.2,1263.9,153.3,-6150.3,1594.2,-462.6,-90.3,-1268.4,1380.3,-3832.2,955.5,-6.9,-6.0,-83.4,911.1,-0.6,378.9,1979.4,-202.2,0,396,0,183,0, 
0.2233,50.7,81.3,1116.9,299.7,-63.9,-433.2,1273.2,149.7,-8076.9,1616.7,36.9,20.4,-1314.9,1273.5,-5628.6,959.1,-6.9,-6.0,-85.2,909.6,0.0,381.0,1997.4,-176.7,0,402,0,184,0, 
0.2267,59.7,100.5,1123.5,305.7,-55.8,-431.4,1273.8,158.1,-7928.7,1622.4,174.3,71.4,-1330.5,1225.8,-5678.7,958.8,-6.9,-5.4,-82.8,927.3,-0.6,380.4,1971.0,-180.3,0,408,0,185,0, 
0.2300,54.9,90.3,1111.2,295.5,-61.8,-454.2,1261.5,152.7,-6224.4,1608.9,-241.8,-57.6,-1204.8,1303.5,-3891.9,961.8,-6.9,-5.7,-112.2,908.7,-0.9,381.3,1971.9,-236.7,0,414,0,186,0, 
0.2333,56.7,99.3,1115.4,298.2,-64.8,-452.7,1261.5,160.8,-5112.9,1612.8,-566.4,-180.3,-1174.2,1396.2,-2743.8,971.1,-6.9,-5.7,-106.2,896.4,-1.2,390.9,1988.4,-256.2,0,420,0,187,0, 
0.2367,57.6,108.3,1137.3,315.6,-52.2,-442.2,1263.3,161.4,-6298.5,1641.9,-355.8,-123.9,-1272.6,1385.1,-3814.5,968.7,-6.9,-6.0,-54.0,914.7,-0.9,397.2,1987.5,-234.0,0,426,0,188,0, 
0.2400,45.6,96.9,1140.9,323.4,-40.8,-443.1,1265.7,156.0,-8076.9,1637.4,90.9,7.2,-1282.2,1282.5,-5609.7,988.2,-6.9,-5.7,-36.9,932.4,-0.9,391.8,1984.8,-222.6,0,432,0,189,0, 
0.2433,47.4,102.0,1135.5,319.2,-47.4,-441.9,1263.3,154.5,-7928.7,1626.3,236.1,67.8,-1271.7,1231.5,-5662.2,959.1,-6.9,-5.7,-50.7,915.6,-0.9,388.8,1973.4,-219.6,0,438,0,190,0, 
0.2467,54.0,106.8,1139.4,322.5,-46.5,-434.1,1268.1,166.8,-6150.3,1616.7,-150.0,-72.9,-1207.5,1292.1,-3894.3,959.1,-6.6,-5.4,-51.9,915.3,-1.2,387.9,1979.7,-205.8,0,444,0,191,0, 
0.2500,54.9,122.7,1147.8,319.5,-44.1,-445.5,1264.2,168.0,-5038.8,1622.4,-638.1,-168.0,-1167.6,1389.9,-2751.6,963.0,-6.3,-5.4,-49.2,905.1,-0.9,392.4,1977.6,-228.6,0,450,0,192,0, 
0.2533,67.5,131.4,1151.4,326.1,-43.5,-436.5,1268.7,176.7,-6150.3,1637.7,-409.2,-101.7,-1334.4,1397.7,-3816.9,955.5,-7.2,-5.7,-38.1,915.9,-0.6,394.8,1973.1,-207.9,0,456,0,193,0, 
0.2567,64.8,148.5,1165.5,332.1,-39.9,-421.8,1280.1,174.0,-7928.7,1627.2,129.6,-3.0,-1339.2,1257.9,-5627.7,954.0,-6.9,-5.4,-11.7,924.9,-0.9,404.1,2019.0,-171.0,0,462,0,194,0, 
0.2600,53.7,134.1,1165.5,333.3,-48.6,-431.1,1270.5,166.5,-8002.8,1641.0,371.1,143.7,-1289.7,1180.8,-5694.3,948.3,-6.9,-5.7,-10.5,918.3,-0.6,391.2,2009.4,-167.7,0,468,0,195,0, 
0.2633,64.2,144.0,1170.0,331.2,-52.2,-447.9,1262.4,172.2,-6076.2,1626.3,-22.8,-11.4,-1235.4,1283.7,-3908.1,953.4,-6.3,-5.7,-20.7,910.5,-0.6,382.8,1957.5,-221.1,0,474,0,196,0, 
0.2667,61.5,123.6,1153.2,321.6,-60.6,-457.5,1255.8,168.3,-5112.9,1631.7,-493.8,-169.8,-1209.9,1397.7,-2745.6,951.3,-7.2,-5.4,-19.5,899.4,-0.6,379.2,1977.0,-247.5,0,480,0,197,0, 
0.2700,69.6,138.0,1166.1,327.9,-51.0,-448.2,1262.7,167.7,-6076.2,1652.7,-396.9,-43.2,-1249.8,1374.0,-3790.8,961.2,-6.9,-6.0,-3.6,901.5,-0.6,392.7,1984.2,-225.3,0,486,0,198,0, 
0.2733,73.5,100.2,1148.4,325.8,-50.7,-441.0,1267.2,161.1,-7928.7,1621.2,207.9,165.3,-1275.9,1285.2,-5589.0,972.9,-6.9,-6.0,-1.8,889.5,-0.6,379.5,1989.0,-220.2,0,492,0,199,0, 
0.2767,65.7,100.8,1149.9,326.1,-54.9,-445.2,1262.4,159.3,-7854.6,1614.3,460.5,242.1,-1323.3,1228.8,-5641.5,967.5,-6.6,-6.0,5.4,888.3,-0.3,372.0,1981.2,-201.9,0,498,0,200,0, 
0.2800,65.4,110.4,1164.3,331.2,-46.8,-448.2,1265.1,165.6,-6002.1,1620.0,125.1,134.4,-1258.2,1307.7,-3869.7,966.9,-7.2,-6.0,9.6,891.6,-0.3,388.2,1986.6,-218.4,0,504,0,201,0, 
0.2833,56.7,107.7,1157.4,326.4,-57.9,-452.4,1259.4,162.3,-5112.9,1628.4,-327.9,-121.2,-1196.1,1423.2,-2709.9,967.2,-7.2,-5.7,5.1,871.5,-0.9,362.7,1995.0,-230.4,0,510,0,202,0, 
0.2867,69.0,116.1,1164.0,323.4,-59.7,-460.8,1265.4,164.1,-6150.3,1636.8,-161.4,-86.4,-1170.3,1396.5,-3759.3,957.9,-7.2,-5.7,14.4,858.6,-0.3,361.2,2014.2,-248.1,0,516,0,203,0, 
0.2900,60.9,110.1,1157.1,323.1,-57.9,-450.9,1254.3,154.2,-7854.6,1634.1,385.5,138.9,-1250.7,1288.8,-5568.6,929.7,-6.6,-5.7,18.6,855.9,-0.9,362.4,1944.9,-204.0,0,522,0,204,0, 
0.2933,70.2,112.8,1167.3,324.9,-57.3,-455.1,1260.0,157.5,-7780.5,1639.8,522.3,182.7,-1233.3,1220.7,-5637.3,936.9,-7.2,-6.3,30.6,856.8,-1.2,360.0,1963.2,-219.6,0,528,0,205,0, 
0.2967,60.3,103.2,1156.5,321.9,-65.7,-458.1,1258.2,161.7,-6076.2,1629.6,40.8,13.5,-1191.0,1299.6,-3862.5,960.6,-6.9,-5.7,28.5,849.0,-0.6,368.1,1974.0,-251.7,0,534,0,206,0, 
0.3000,61.2,99.3,1143.3,305.7,-79.8,-471.0,1254.3,157.8,-5038.8,1616.7,-366.9,-147.9,-1197.3,1412.4,-2708.7,963.9,-6.6,-5.7,6.9,820.2,-0.6,342.0,1970.7,-280.5,0,540,0,207,0, 
0.3033,56.7,125.4,1147.5,303.9,-89.4,-479.1,1243.5,152.7,-6224.4,1622.4,-264.0,-171.9,-1225.8,1361.1,-3775.8,944.1,-6.9,-5.7,15.0,818.1,-1.2,350.1,1954.5,-292.5,0,546,0,208,0, 
0.3067,64.2,132.9,1152.3,309.3,-81.9,-470.7,1253.1,150.0,-7928.7,1608.6,148.8,-53.1,-1340.4,1263.6,-5608.2,948.9,-6.9,-5.7,21.3,826.2,-0.9,360.9,1965.0,-276.9,0,552,0,209,0, 
0.3100,70.5,136.8,1150.8,308.4,-76.8,-461.1,1252.2,146.4,-7928.7,1609.5,259.2,-24.0,-1331.1,1203.9,-5651.1,953.1,-6.6,-6.0,23.7,826.8,-0.6,339.9,1965.3,-258.9,0,558,0,210,0, 
0.3133,69.0,136.2,1152.6,308.4,-71.1,-440.1,1263.9,158.1,-6076.2,1613.7,-182.4,-213.0,-1281.6,1263.9,-3908.4,947.1,-6.9,-5.4,22.8,827.1,-0.9,333.6,1989.9,-218.4,0,564,0,211,0, 
0.3167,70.5,135.6,1169.1,322.8,-65.4,-454.2,1258.8,168.9,-4964.7,1645.2,-558.9,-326.1,-1255.2,1374.0,-2754.0,940.8,-6.9,-5.7,41.4,836.4,-1.2,346.8,1978.5,-246.3,0,570,0,212,0, 
0.3200,66.9,142.2,1168.5,325.5,-65.7,-454.2,1254.6,168.9,-6224.4,1643.4,-450.6,-195.6,-1287.6,1375.2,-3816.3,943.5,-6.6,-5.7,39.0,842.4,-1.2,365.4,1948.8,-249.6,0,576,0,213,0, 
0.3233,63.6,124.5,1162.2,325.5,-68.1,-449.7,1257.3,164.4,-7854.6,1635.9,42.6,-147.0,-1284.3,1267.5,-5620.8,947.7,-6.9,-5.4,38.4,843.9,-1.2,363.9,1949.7,-242.7,0,582,0,214,0, 
0.3267,61.8,109.5,1163.7,326.1,-66.3,-445.5,1253.4,159.9,-8002.8,1627.2,151.8,-62.4,-1265.1,1207.8,-5676.0,940.2,-6.9,-6.0,43.5,843.3,-0.6,360.3,1920.9,-216.0,0,588,0,215,0, 
0.3300,64.8,122.7,1176.9,330.3,-68.4,-450.6,1255.2,171.3,-6224.4,1643.4,-185.7,-241.5,-1176.6,1277.7,-3915.6,946.8,-6.9,-6.0,53.1,844.2,-0.9,355.8,1945.8,-270.0,0,594,0,216,0, 
0.3333,64.5,114.0,1163.4,320.4,-75.3,-459.9,1251.0,172.2,-5261.1,1619.7,-583.2,-288.6,-1191.6,1383.9,-2786.7,952.5,-7.2,-6.0,35.7,829.8,-0.6,354.6,1944.0,-293.4,0,600,0,217,0, 
0.3367,62.7,115.8,1160.7,320.1,-69.6,-449.7,1257.3,170.4,-6224.4,1629.0,-427.8,-327.6,-1255.8,1376.4,-3839.1,945.0,-7.2,-6.0,30.6,827.7,-0.9,355.8,1949.1,-256.5,0,606,0,218,0, 
0.3400,65.4,126.0,1157.4,316.8,-72.9,-455.1,1259.7,165.0,-8002.8,1620.0,56.7,-155.4,-1386.9,1257.9,-5657.4,950.7,-7.2,-6.3,34.5,814.5,-0.6,345.0,1958.1,-259.8,0,612,0,219,0, 
0.3433,55.8,120.9,1155.6,316.5,-74.1,-459.9,1259.1,156.6,-7928.7,1632.3,241.2,-95.4,-1317.6,1211.1,-5718.9,948.9,-6.6,-5.7,38.4,812.7,-0.9,342.6,1970.4,-264.0,0,618,0,220,0, 
0.3467,63.9,131.1,1164.6,322.5,-65.7,-450.3,1255.8,163.5,-6150.3,1624.5,-225.6,-207.0,-1182.6,1304.4,-3938.7,941.1,-7.2,-6.3,39.6,826.5,-0.9,360.0,1955.1,-260.7,0,624,0,221,0, 
0.3500,72.9,129.6,1161.3,318.6,-69.0,-455.7,1250.1,165.6,-5112.9,1627.2,-609.0,-297.3,-1141.2,1409.1,-2776.2,942.9,-6.9,-5.4,22.5,824.7,-0.6,351.0,1944.6,-241.2,0,630,0,222,0, 
0.3533,56.1,116.1,1151.4,310.8,-80.7,-462.9,1248.3,153.3,-6150.3,1629.0,-438.6,-259.5,-1205.7,1380.0,-3833.1,943.8,-6.9,-6.0,21.9,813.6,-0.6,345.0,1953.6,-250.8,0,636,0,223,0, 
0.3567,54.9,122.7,1152.6,309.0,-81.0,-460.2,1243.8,147.9,-7928.7,1628.7,174.9,-59.7,-1341.3,1246.8,-5643.6,953.4,-6.9,-5.7,25.5,812.7,-0.6,344.4,1960.8,-267.9,0,642,0,224,0, 
0.3600,60.9,151.5,1156.2,309.0,-78.0,-451.5,1250.1,150.3,-8002.8,1617.9,233.4,-98.7,-1437.3,1189.8,-5719.2,948.3,-6.9,-5.7,24.0,810.3,-0.6,337.5,1960.5,-253.8,0,648,0,225,0, 
0.3633,64.2,145.5,1154.1,308.4,-78.3,-456.9,1246.8,153.9,-6224.4,1623.9,-234.0,-313.5,-1156.2,1248.9,-3933.0,949.8,-6.3,-6.0,13.5,812.4,-0.3,339.0,1953.6,-269.7,0,654,0,226,0, 
0.3667,52.2,86.1,1131.6,297.9,-90.6,-459.9,1248.9,149.1,-5261.1,1597.2,-613.5,-445.2,-1158.0,1373.1,-2775.9,963.3,-7.5,-5.4,-21.9,819.6,-0.9,329.7,1942.2,-266.7,0,660,0,227,0, 
0.3700,51.9,85.5,1127.1,296.4,-91.8,-455.7,1244.7,143.4,-6298.5,1599.6,-472.2,-478.8,-1320.6,1372.5,-3828.6,942.0,-6.9,-6.0,-24.3,818.7,-1.2,325.2,1928.7,-247.8,0,666,0,228,0, 
0.3733,54.3,90.9,1123.2,290.1,-94.2,-457.8,1244.1,135.6,-7928.7,1591.2,11.4,-275.7,-1298.1,1269.0,-5609.7,945.6,-6.9,-6.0,-29.7,809.1,-0.9,297.3,1944.0,-245.7,0,672,0,229,0, 
0.3767,60.0,90.9,1129.5,295.8,-83.7,-468.6,1238.7,138.6,-7928.7,1601.1,145.8,-144.9,-1271.7,1216.5,-5659.8,936.0,-6.9,-6.0,-24.6,823.8,-0.9,317.1,1943.4,-266.1,0,678,0,230,0, 
0.3800,56.4,94.5,1133.4,296.7,-82.5,-468.3,1238.4,142.8,-6150.3,1610.7,-306.3,-147.0,-1189.8,1289.1,-3911.1,934.8,-6.9,-5.7,-37.5,825.0,-0.9,327.9,1916.1,-297.9,0,684,0,231,0, 
0.3833,53.7,93.3,1134.0,299.4,-75.9,-469.5,1243.2,149.7,-5187.0,1604.4,-730.5,-296.1,-1195.8,1386.9,-2773.8,957.0,-6.9,-6.0,-25.8,830.4,-0.6,349.2,1941.3,-309.6,0,690,0,232,0, 
0.3867,63.0,114.6,1141.2,306.6,-74.4,-465.9,1242.3,150.9,-6150.3,1616.1,-499.8,-246.0,-1265.4,1387.8,-3821.1,953.1,-6.6,-5.7,-7.2,829.5,-0.6,340.5,1950.9,-291.9,0,696,0,233,0, 
0.3900,80.1,135.9,1167.0,329.4,-53.7,-456.6,1254.3,161.7,-7928.7,1639.8,24.3,-15.0,-1274.7,1297.8,-5610.9,942.6,-7.2,-6.0,27.6,857.4,-0.9,367.5,1954.2,-267.0,0,702,0,234,0, 
0.3933,72.6,136.5,1168.5,331.2,-53.4,-452.1,1254.3,159.0,-7854.6,1654.8,188.7,98.7,-1244.4,1233.3,-5664.6,940.8,-7.2,-6.0,31.8,856.8,-0.9,363.0,1954.5,-240.6,0,708,0,235,0, 
0.3967,57.0,129.6,1159.8,320.1,-62.7,-460.2,1243.8,152.7,-6224.4,1667.4,-306.9,-79.5,-1177.2,1290.3,-3910.8,933.3,-6.9,-6.3,15.3,845.1,-0.6,361.5,1944.9,-252.6,0,714,0,236,0, 
0.4000,63.6,138.9,1151.1,315.9,-63.0,-462.9,1247.7,153.3,-5112.9,1627.8,-717.0,-167.4,-1267.5,1402.2,-2760.9,938.7,-6.6,-5.7,5.7,850.8,-0.6,362.7,1961.7,-255.6,0,720,0,237,0, 
0.4033,57.6,122.7,1138.2,307.5,-72.9,-457.2,1249.2,145.2,-6150.3,1610.7,-630.0,-256.8,-1294.8,1382.1,-3810.3,948.9,-7.2,-5.4,-6.0,846.3,-0.9,357.0,1952.4,-235.2,0,726,0,238,0, 
0.4067,60.3,113.4,1131.3,304.5,-70.5,-446.7,1258.2,146.4,-7854.6,1615.2,-122.1,-138.9,-1290.9,1292.7,-5582.1,942.9,-6.9,-6.0,-6.0,843.3,-0.6,351.9,1973.1,-232.2,0,732,0,239,0, 
0.4100,61.2,113.7,1138.2,307.5,-69.9,-444.9,1256.4,149.1,-7854.6,1637.4,29.1,-21.3,-1299.0,1210.2,-5645.1,954.6,-6.9,-6.3,7.2,837.0,-0.9,357.3,1949.1,-256.2,0,738,0,240,0, 
0.4133,59.4,132.9,1148.4,319.8,-63.3,-441.3,1259.4,161.4,-6150.3,1635.6,-303.6,-127.5,-1231.2,1291.5,-3903.3,941.7,-6.9,-5.7,16.5,848.1,-0.6,355.2,1948.5,-232.5,0,744,0,241,0, 
0.4167,63.6,136.8,1159.2,324.9,-61.2,-447.9,1258.2,168.9,-5112.9,1641.0,-709.2,-211.8,-1217.1,1384.8,-2756.4,944.1,-7.2,-6.0,25.8,853.2,-0.9,360.3,1960.8,-236.1,0,750,0,242,0, 
0.4200,69.0,131.4,1157.1,321.9,-67.2,-454.5,1257.6,166.2,-6150.3,1633.5,-628.8,-197.4,-1207.8,1389.6,-3775.5,939.9,-6.9,-5.1,24.9,842.1,-0.9,349.8,1953.6,-249.3,0,756,0,243,0, 
0.4233,66.0,114.0,1146.6,318.3,-71.7,-444.6,1263.3,162.9,-7928.7,1629.6,-66.3,-24.3,-1273.2,1261.8,-5581.2,945.6,-6.9,-5.7,3.3,843.6,-0.9,350.4,1967.4,-222.0,0,762,0,244,0, 
0.4267,53.4,108.6,1147.2,315.3,-76.5,-453.0,1254.3,156.6,-8002.8,1620.3,66.0,-22.5,-1296.0,1171.5,-5668.8,931.2,-6.6,-5.4,-17.4,840.0,-0.9,341.7,1947.0,-249.6,0,768,0,245,0, 
0.4300,53.7,109.8,1146.0,312.0,-81.6,-459.6,1251.0,156.9,-6150.3,1611.6,-197.4,-76.8,-1230.6,1237.8,-3941.7,927.6,-6.9,-5.7,-20.1,838.5,-1.2,337.5,1947.0,-274.8,0,774,0,246,0, 
0.4333,46.8,99.9,1149.3,313.2,-75.9,-453.3,1252.2,160.8,-5038.8,1616.1,-560.1,-251.1,-1269.9,1341.3,-2801.1,932.1,-6.6,-5.7,-18.3,844.2,-1.2,343.2,1942.5,-260.4,0,780,0,247,0, 
0.4367,37.2,82.2,1133.4,296.4,-88.5,-476.4,1245.6,151.2,-6076.2,1588.8,-550.8,-301.2,-1258.2,1356.3,-3846.0,925.5,-6.6,-6.0,-45.3,831.3,-0.9,327.0,1968.3,-296.4,0,786,0,248,0, 
0.4400,43.2,93.9,1144.5,303.9,-83.7,-469.5,1250.1,153.3,-8002.8,1615.8,-78.9,-181.8,-1288.5,1228.2,-5643.6,930.9,-6.9,-6.3,-32.7,836.1,-0.6,342.9,1953.0,-274.2,0,792,0,249,0, 
0.4433,50.4,103.8,1156.5,309.3,-80.4,-468.0,1245.6,154.2,-7928.7,1627.5,198.3,-16.5,-1247.1,1178.4,-5697.3,933.0,-6.9,-5.4,-21.3,846.6,-0.6,341.1,1942.5,-261.0,0,798,0,250,0, 
0.4467,54.3,105.0,1155.6,305.1,-84.0,-472.8,1244.7,150.6,-6150.3,1611.9,-126.3,-144.0,-1190.7,1256.4,-3943.2,937.8,-7.2,-6.0,-32.1,836.4,-0.9,336.3,1951.2,-270.9,0,804,0,251,0, 
0.4500,53.4,105.0,1149.9,304.2,-85.2,-471.9,1245.3,152.1,-5187.0,1604.1,-578.7,-216.9,-1306.5,1369.8,-2822.7,938.7,-6.9,-6.0,-33.3,835.8,-0.9,323.4,1934.7,-255.9,0,810,0,252,0, 
0.4533,44.7,95.4,1146.0,300.0,-86.7,-472.2,1240.2,151.2,-6298.5,1613.4,-481.5,-193.2,-1366.8,1336.8,-3886.5,926.1,-6.9,-5.7,-31.5,837.0,-1.2,322.5,1942.5,-248.1,0,816,0,253,0, 
0.4567,38.1,102.0,1138.2,292.2,-96.0,-478.5,1236.6,139.8,-8076.9,1605.6,-72.6,-122.4,-1428.0,1211.1,-5712.0,930.0,-6.9,-5.7,-31.5,834.0,-0.6,329.7,1947.9,-259.8,0,822,0,254,0, 
0.4600,38.4,88.2,1137.3,293.4,-95.1,-475.8,1244.4,136.8,-8002.8,1599.6,121.2,27.9,-1265.1,1191.3,-5746.5,937.5,-7.2,-5.7,-30.9,833.1,-0.6,332.1,1965.9,-249.3,0,828,0,255,0, 
0.4633,31.5,65.4,1137.6,289.8,-91.5,-483.6,1242.9,140.4,-6150.3,1610.7,-350.1,-129.6,-1182.3,1270.2,-3989.4,953.4,-6.9,-5.7,-32.7,831.0,-1.2,319.8,1957.8,-264.3,0,834,0,0,0, 
0.4667,36.0,79.2,1150.8,300.9,-79.5,-479.1,1234.8,149.4,-5261.1,1606.5,-727.5,-223.5,-1173.9,1397.1,-2878.5,933.0,-7.2,-5.7,-33.6,843.6,-0.6,327.9,1926.3,-252.9,0,840,0,1,0, 
0.4700,41.1,92.7,1156.5,307.5,-79.8,-476.1,1236.3,149.7,-6298.5,1628.4,-688.5,-328.5,-1223.7,1353.3,-3982.8,932.1,-6.9,-5.7,-33.9,850.5,-0.6,336.9,1932.0,-234.9,0,846,0,2,0, 
0.4733,35.1,94.5,1155.9,305.7,-76.2,-475.5,1236.3,147.9,-8076.9,1604.4,-282.0,-134.1,-1326.3,1229.4,-5792.4,938.4,-6.9,-5.7,-44.1,847.8,-0.6,325.8,1941.0,-237.9,0,852,0,3,0, 
0.4767,38.1,95.4,1158.0,299.4,-77.1,-476.7,1238.4,146.4,-7928.7,1591.2,-17.1,-2.1,-1330.2,1176.6,-5782.2,928.5,-6.9,-5.7,-55.2,836.4,-1.2,322.2,1945.2,-263.7,0,858,0,4,0, 
0.4800,38.7,90.9,1160.4,306.0,-64.8,-474.0,1242.9,151.5,-6076.2,1605.9,-182.4,-99.9,-1250.7,1269.9,-3880.2,936.9,-7.2,-5.7,-46.5,839.4,-0.9,324.9,1951.8,-281.4,0,864,0,5,0, 
0.4833,42.0,93.3,1167.3,316.2,-55.5,-461.7,1251.6,161.4,-5261.1,1608.3,-642.9,-253.5,-1242.0,1364.7,-2961.6,934.2,-6.9,-5.4,-50.1,850.5,-0.6,336.6,1967.7,-252.3,0,870,0,6,0, 
0.4867,37.5,88.2,1171.8,316.2,-56.7,-464.1,1244.4,154.2,-6446.7,1621.8,-838.8,-312.3,-1256.7,1339.2,-4133.7,928.5,-6.9,-6.0,-50.1,852.0,-0.6,347.4,1945.2,-245.4,0,876,0,7,0, 
0.4900,38.4,87.3,1167.6,311.7,-60.9,-452.4,1248.9,144.0,-8373.3,1622.7,-814.8,-307.2,-1316.1,1212.9,-6042.6,936.6,-6.9,-5.4,-56.7,846.3,-0.6,327.9,1956.0,-218.4,0,882,0,8,0, 
0.4933,41.7,96.0,1178.1,317.7,-62.1,-462.9,1242.9,143.4,-8076.9,1645.2,-629.4,-249.9,-1254.0,1147.8,-5893.2,935.7,-6.6,-5.7,-45.3,845.4,-0.6,334.2,1964.4,-219.3,0,888,0,9,0, 
0.4967,58.5,122.1,1184.7,319.2,-70.5,-472.8,1241.4,150.0,-6150.3,1621.8,-420.6,-120.0,-1177.5,1250.4,-3811.8,933.9,-7.2,-5.7,-36.9,844.2,-0.9,334.2,1965.3,-249.9,0,894,0,10,0, 
0.5000,57.0,128.4,1185.0,319.2,-71.7,-477.3,1239.6,152.1,-4964.7,1623.0,-664.2,-251.4,-1212.9,1350.6,-2753.7,944.1,-6.9,-5.4,-36.0,840.9,-0.9,337.5,1954.2,-280.8,0,900,0,11,0, 
0.5033,59.1,142.5,1192.2,322.8,-64.2,-471.9,1238.4,153.0,-6669.0,1604.4,-948.6,-360.3,-1399.5,1321.8,-4231.2,941.4,-6.9,-6.0,-32.7,850.5,-0.9,346.8,1933.8,-276.6,0,906,0,12,0, 
0.5067,48.9,123.3,1184.1,315.0,-75.0,-483.6,1236.3,139.2,-8373.3,1598.4,-960.6,-288.9,-1419.9,1176.6,-6185.7,941.7,-7.2,-6.0,-40.2,834.3,-0.9,340.5,1935.0,-272.1,0,912,0,13,0, 
0.5100,39.9,69.9,1164.9,306.0,-75.9,-473.4,1239.3,135.0,-8151.0,1593.0,-782.7,-218.1,-1320.9,1161.0,-5927.7,941.7,-6.9,-6.0,-61.2,836.4,-0.6,335.7,1939.5,-231.6,0,918,0,14,0, 
0.5133,40.5,64.2,1162.8,307.2,-75.3,-476.1,1238.4,139.2,-6002.1,1611.6,-575.4,-147.6,-1175.1,1266.0,-3816.9,938.1,-7.2,-5.4,-57.0,837.0,-0.6,340.2,1947.3,-228.3,0,924,0,15,0, 
0.5167,44.1,70.2,1169.7,312.0,-66.6,-477.6,1240.5,152.4,-5038.8,1630.5,-714.3,-202.2,-1163.4,1385.1,-2765.7,942.6,-6.9,-5.7,-48.0,848.4,-0.6,343.8,1967.1,-250.8,0,930,0,16,0, 
0.5200,48.0,80.4,1179.9,317.1,-63.6,-480.3,1241.4,151.5,-6446.7,1620.0,-984.9,-279.0,-1218.9,1353.9,-4223.4,940.5,-6.6,-5.1,-46.5,857.4,-0.9,356.4,1959.9,-266.1,0,936,0,17,0, 
0.5233,38.4,75.0,1177.2,315.0,-67.2,-475.5,1242.3,147.0,-8521.5,1623.9,-1063.8,-304.8,-1327.5,1201.5,-6206.1,950.4,-6.6,-6.0,-44.4,859.8,-0.9,350.7,1991.7,-258.3,0,942,0,18,0, 
0.5267,46.8,88.5,1177.2,310.5,-73.5,-467.1,1239.0,151.5,-8076.9,1614.0,-806.4,-200.4,-1296.3,1153.2,-5968.5,940.8,-6.6,-5.7,-53.4,836.7,-0.9,342.3,1958.7,-235.8,0,948,0,19,0, 
0.5300,47.7,96.0,1179.0,307.8,-70.5,-452.7,1251.9,162.0,-6150.3,1600.5,-750.9,-269.1,-1210.2,1259.4,-3852.0,946.8,-6.9,-6.3,-65.7,814.5,-0.6,317.7,1974.3,-184.5,0,954,0,20,0, 
0.5333,48.3,100.2,1187.7,323.4,-53.4,-449.7,1252.2,166.2,-5038.8,1635.3,-932.4,-302.4,-1137.3,1373.1,-2806.5,941.7,-6.9,-6.0,-48.0,848.7,-0.6,325.8,1978.2,-184.5,0,960,0,21,0, 
0.5367,48.6,107.7,1205.1,339.9,-43.2,-452.4,1244.4,164.4,-6817.2,1632.3,-1278.9,-366.9,-1305.9,1313.7,-4293.9,930.0,-6.9,-5.4,-18.3,884.1,-0.6,346.5,1959.0,-223.5,0,966,0,22,0, 
0.5400,48.6,115.5,1208.4,346.2,-38.1,-458.4,1243.5,158.4,-8447.4,1635.6,-1414.8,-381.6,-1315.2,1176.3,-6248.7,930.0,-6.3,-5.7,-16.8,885.3,-0.6,364.2,1960.8,-255.6,0,972,0,23,0, 
0.5433,46.8,115.8,1205.4,345.6,-36.3,-457.2,1244.7,159.3,-8076.9,1620.3,-1199.1,-263.1,-1266.0,1142.4,-5976.0,929.4,-6.9,-5.7,-31.2,882.9,-0.6,356.7,1965.6,-239.4,0,978,0,24,0, 
0.5467,41.1,95.4,1189.5,330.9,-40.5,-458.4,1243.8,159.6,-6076.2,1608.3,-1023.3,-210.6,-1245.6,1258.2,-3867.3,927.3,-6.9,-5.7,-45.0,879.6,-0.9,360.9,1960.2,-224.4,0,984,0,25,0, 
0.5500,44.1,90.9,1189.2,334.2,-40.8,-447.6,1248.3,168.9,-5112.9,1615.5,-1107.0,-298.2,-1258.2,1371.0,-2808.6,931.8,-6.9,-6.0,-40.2,880.5,-1.2,376.8,1978.2,-214.2,0,990,0,26,0, 
0.5533,44.7,90.3,1177.2,324.0,-48.9,-460.8,1239.3,156.3,-6520.8,1606.2,-1383.0,-456.0,-1298.7,1337.1,-4266.6,931.8,-6.6,-5.7,-53.1,867.6,-0.6,355.5,1969.8,-239.1,0,996,0,27,0, 
0.5567,45.3,100.5,1185.9,327.9,-47.7,-456.6,1244.7,156.3,-8373.3,1607.7,-1392.9,-480.6,-1399.5,1195.8,-6229.5,939.9,-6.9,-6.0,-55.8,885.0,-0.9,358.2,1983.3,-253.2,0,1002,0,28,0, 
0.5600,48.3,98.1,1183.8,319.5,-55.5,-468.6,1236.9,155.4,-8151.0,1609.2,-1217.4,-367.8,-1319.4,1145.1,-5968.2,941.4,-6.9,-5.4,-80.4,879.0,-0.6,351.0,1971.9,-271.2,0,1008,0,29,0, 
0.5633,42.9,80.4,1170.6,309.3,-68.7,-470.4,1230.3,152.7,-6076.2,1588.8,-1046.1,-234.3,-1167.0,1253.1,-3853.2,930.9,-7.2,-5.7,-98.1,876.3,-0.9,354.9,1961.1,-261.9,0,1014,0,30,0, 
0.5667,43.8,72.9,1175.1,315.3,-61.8,-464.1,1233.9,156.3,-5038.8,1599.9,-1195.5,-452.7,-1158.3,1371.9,-2787.6,937.8,-6.9,-6.0,-96.0,881.7,-1.2,345.3,1967.4,-256.8,0,1020,0,31,0, 
0.5700,34.5,72.6,1164.6,307.8,-66.9,-458.1,1233.3,145.2,-6594.9,1596.0,-1553.7,-544.8,-1308.6,1306.2,-4280.4,935.4,-6.9,-6.0,-118.5,874.8,-0.9,339.6,1959.9,-214.2,0,1026,0,32,0, 
0.5733,33.9,64.5,1161.9,307.2,-64.2,-454.2,1237.8,137.1,-8447.4,1590.6,-1591.5,-517.2,-1323.6,1170.3,-6261.3,930.6,-7.2,-5.7,-122.7,880.5,-0.9,329.1,1973.4,-185.4,0,1032,0,33,0, 
0.5767,33.6,60.9,1155.0,299.7,-66.6,-462.6,1233.3,129.6,-8151.0,1588.8,-1467.9,-492.6,-1288.2,1134.3,-5990.7,933.0,-6.9,-6.0,-127.5,879.0,-0.9,345.9,1948.8,-188.1,0,1038,0,34,0, 
0.5800,39.3,62.4,1155.3,297.0,-65.7,-469.2,1233.9,132.6,-6224.4,1562.7,-1223.1,-419.7,-1221.9,1247.4,-3868.8,940.5,-7.2,-5.7,-134.4,873.9,-0.6,325.5,1971.0,-203.7,0,1044,0,35,0, 
0.5833,43.2,73.2,1155.9,295.5,-74.1,-475.5,1230.9,135.0,-5261.1,1568.1,-1480.2,-561.9,-1247.1,1347.0,-2828.4,937.5,-6.9,-5.7,-132.3,857.7,-0.9,333.6,1974.0,-242.4,0,1050,0,36,0, 
0.5867,40.8,76.8,1161.9,301.2,-66.6,-476.4,1228.8,135.3,-6669.0,1579.8,-1655.1,-593.1,-1264.8,1299.3,-4316.7,939.9,-6.6,-5.7,-114.6,871.2,-0.9,340.2,1963.8,-261.9,0,1056,0,37,0, 
0.5900,33.3,73.5,1168.8,307.5,-62.7,-465.9,1237.2,132.9,-8595.6,1596.6,-1790.4,-587.4,-1350.3,1167.3,-6301.8,951.6,-6.9,-5.7,-104.4,885.3,-1.5,354.9,1971.9,-249.6,0,1062,0,38,0, 
0.5933,42.3,88.8,1182.3,320.1,-59.4,-455.7,1235.1,145.5,-8151.0,1600.5,-1488.6,-499.5,-1343.7,1140.3,-6029.4,912.9,-6.9,-6.0,-76.8,896.7,-0.6,352.2,1951.2,-224.7,0,1068,0,39,0, 
0.5967,36.9,81.9,1180.2,321.6,-52.8,-445.5,1239.0,156.6,-6224.4,1606.5,-1322.4,-376.5,-1189.8,1245.0,-3896.1,913.8,-7.5,-5.7,-81.0,904.2,-0.6,370.5,1952.7,-198.3,0,1074,0,40,0, 
0.6000,38.7,69.0,1176.0,318.3,-54.3,-453.6,1239.9,159.6,-5112.9,1601.7,-1413.9,-459.0,-1196.1,1377.6,-2829.6,923.7,-6.9,-6.0,-86.4,900.0,-0.9,369.6,1948.5,-195.3,0,1080,0,41,0, 
0.6033,34.2,85.2,1174.5,315.9,-58.2,-459.9,1236.3,154.2,-6594.9,1598.4,-1724.7,-508.2,-1315.8,1342.5,-4311.9,922.5,-6.9,-5.7,-91.5,902.1,-0.6,354.9,1965.3,-207.9,0,1086,0,42,0, 
0.6067,38.1,84.0,1183.2,318.9,-60.9,-465.0,1233.3,155.4,-8595.6,1618.5,-1761.6,-443.1,-1340.7,1207.2,-6265.8,918.3,-7.2,-5.7,-83.4,895.8,-1.2,362.7,1947.3,-223.2,0,1092,0,43,0, 
0.6100,39.0,92.7,1188.6,315.6,-64.8,-467.4,1236.0,154.5,-8151.0,1616.7,-1555.5,-445.5,-1263.0,1151.4,-6019.8,930.3,-6.6,-5.7,-78.0,888.9,-0.6,356.4,1963.5,-245.4,0,1098,0,44,0, 
0.6133,36.0,94.8,1189.8,313.8,-69.0,-462.9,1230.9,156.3,-6076.2,1599.0,-1276.8,-374.1,-1179.6,1226.4,-3920.7,921.9,-6.9,-5.7,-87.0,875.1,-0.6,346.5,1942.5,-224.4,0,1104,0,45,0, 
0.6167,30.0,97.2,1185.3,313.5,-72.6,-462.9,1231.5,156.9,-5112.9,1591.8,-1373.7,-463.8,-1218.3,1342.8,-2893.8,910.2,-7.2,-6.3,-94.2,879.9,-0.9,333.6,1959.9,-228.3,0,1110,0,46,0, 
0.6200,30.6,101.4,1189.2,325.5,-59.7,-452.7,1234.8,163.8,-6669.0,1612.2,-1574.1,-498.3,-1374.6,1301.1,-4368.3,916.5,-6.9,-5.7,-83.4,895.8,-1.2,366.3,1956.6,-202.5,0,1116,0,47,0, 
0.6233,31.8,87.3,1178.7,320.7,-63.6,-451.8,1234.5,155.4,-8669.7,1587.9,-1728.9,-604.5,-1419.3,1175.4,-6340.2,930.0,-6.9,-6.0,-93.9,892.2,-0.9,345.0,1956.6,-202.2,0,1122,0,48,0, 
0.6267,26.1,85.8,1177.2,312.9,-69.6,-453.9,1228.2,150.3,-8151.0,1592.7,-1488.0,-444.3,-1337.4,1116.0,-6082.5,913.8,-7.8,-6.0,-95.1,883.8,-0.9,341.4,1945.2,-216.0,0,1128,0,49,0, 
0.6300,21.3,60.6,1171.5,309.6,-72.0,-472.5,1225.8,150.6,-6076.2,1594.8,-1325.4,-391.2,-1195.2,1237.2,-3937.5,919.2,-7.2,-6.0,-107.1,876.6,-0.9,346.8,1947.3,-263.1,0,1134,0,50,0, 
0.6333,21.9,69.3,1175.7,308.4,-70.2,-468.9,1225.5,153.0,-5038.8,1594.5,-1445.7,-494.1,-1191.9,1341.0,-2869.2,922.5,-6.9,-6.0,-114.3,877.5,-0.9,347.4,1951.8,-238.2,0,1140,0,51,0, 
0.6367,25.5,63.9,1170.0,312.6,-68.4,-470.7,1227.9,153.6,-6743.1,1598.4,-1716.6,-506.7,-1247.1,1305.9,-4340.1,931.8,-6.9,-6.0,-111.0,876.6,-0.6,343.8,1970.7,-246.6,0,1146,0,52,0, 
0.6400,24.3,71.1,1179.6,315.0,-74.4,-472.2,1225.2,149.4,-8595.6,1610.4,-1732.5,-573.9,-1325.7,1144.2,-6296.7,921.3,-6.9,-5.4,-97.8,880.2,-0.9,338.1,1942.5,-268.5,0,1152,0,53,0, 
0.6433,30.6,94.2,1184.7,320.1,-64.8,-461.7,1230.6,153.6,-8299.2,1590.6,-1467.3,-360.6,-1291.2,1101.9,-6028.5,922.8,-6.9,-6.3,-96.6,887.7,-0.6,335.7,1953.3,-225.9,0,1158,0,54,0, 
0.6467,36.3,80.1,1176.9,309.6,-74.1,-465.0,1230.3,155.1,-6224.4,1567.5,-1237.8,-300.6,-1273.8,1197.0,-3892.8,932.1,-7.2,-5.7,-110.1,876.9,-1.2,332.1,1957.2,-222.3,0,1164,0,55,0, 
0.6500,28.8,72.0,1173.3,309.6,-74.1,-471.9,1228.2,160.8,-5187.0,1565.1,-1296.9,-345.9,-1261.8,1332.6,-2829.0,921.6,-6.6,-6.0,-125.4,870.0,-0.9,333.0,1946.7,-240.0,0,1170,0,56,0, 
0.6533,27.0,64.5,1175.4,312.0,-74.4,-464.7,1233.6,155.4,-6520.8,1589.1,-1558.5,-542.7,-1304.1,1297.2,-4292.1,932.1,-6.9,-5.7,-108.6,866.7,-0.9,335.1,1953.6,-252.0,0,1176,0,57,0, 
0.6567,24.0,65.1,1178.4,309.9,-77.4,-463.8,1230.0,147.0,-8521.5,1586.1,-1631.4,-552.9,-1319.4,1165.5,-6244.8,934.5,-7.2,-6.0,-100.8,867.3,-0.9,333.6,1961.7,-240.3,0,1182,0,58,0, 
0.6600,25.5,70.5,1176.0,309.9,-69.0,-459.9,1232.4,148.5,-8002.8,1582.8,-1408.8,-471.3,-1280.7,1122.6,-5960.1,924.9,-6.6,-5.7,-93.6,872.1,-0.6,341.4,1973.7,-219.6,0,1188,0,59,0, 
0.6633,22.5,57.9,1170.6,310.2,-65.7,-462.6,1230.6,151.2,-6076.2,1582.5,-1071.6,-413.4,-1213.2,1224.3,-3820.2,924.0,-6.6,-5.4,-83.4,873.9,-0.6,339.0,1981.8,-215.1,0,1194,0,60,0, 
0.6667,24.6,62.1,1176.3,312.0,-65.4,-459.9,1235.4,162.6,-5038.8,1607.4,-1145.1,-473.1,-1240.5,1348.2,-2772.0,924.0,-7.2,-5.7,-78.9,881.4,-0.6,336.9,1960.8,-208.5,0,1200,0,61,0, 
0.6700,33.0,68.4,1174.5,309.3,-73.8,-453.3,1235.1,159.6,-6594.9,1579.2,-1469.7,-558.0,-1299.6,1317.0,-4247.4,932.1,-6.9,-5.4,-86.4,879.3,-0.9,336.3,1969.2,-195.0,0,1206,0,62,0, 
0.6733,38.7,72.3,1180.2,313.2,-64.5,-449.7,1233.0,153.9,-8521.5,1597.5,-1536.3,-628.2,-1319.7,1182.3,-6235.5,942.3,-6.6,-5.7,-74.1,881.7,-0.6,350.1,1948.2,-212.1,0,1212,0,63,0, 
0.6767,41.4,81.3,1172.7,306.3,-75.0,-457.8,1230.3,149.1,-8151.0,1575.6,-1338.9,-501.3,-1273.5,1126.2,-5969.1,951.6,-6.9,-5.7,-80.4,876.3,-0.9,348.9,1959.9,-250.8,0,1218,0,64,0, 
0.6800,49.8,108.3,1194.3,317.7,-61.5,-454.2,1235.7,162.9,-6076.2,1605.6,-1133.1,-381.3,-1230.9,1227.9,-3856.2,921.9,-6.9,-6.0,-53.4,886.2,-0.9,357.6,1939.2,-225.9,0,1224,0,65,0, 
0.6833,41.4,114.0,1193.7,315.3,-64.2,-456.3,1230.6,162.3,-5187.0,1608.9,-1282.5,-397.5,-1365.3,1335.6,-2824.5,919.2,-7.2,-5.7,-58.2,877.8,-0.6,336.6,1951.5,-232.5,0,1230,0,66,0, 
0.6867,51.0,133.5,1200.0,322.8,-60.3,-464.7,1227.0,162.9,-6594.9,1594.5,-1567.8,-549.0,-1316.1,1324.8,-4274.7,929.7,-7.2,-5.4,-54.3,880.5,-0.3,347.7,1955.4,-267.9,0,1236,0,67,0, 
0.6900,38.4,79.2,1175.4,310.5,-71.4,-458.4,1230.0,148.2,-8373.3,1577.7,-1501.8,-508.8,-1279.2,1183.2,-6238.2,940.5,-6.6,-5.7,-78.9,877.2,-0.9,351.9,1971.6,-269.7,0,1242,0,68,0, 
0.6933,36.0,69.3,1178.4,316.2,-60.3,-453.3,1233.0,153.6,-8225.1,1606.2,-1202.4,-408.0,-1266.3,1161.6,-5971.2,941.1,-6.6,-5.7,-72.3,886.2,-0.6,353.4,1949.4,-260.4,0,1248,0,69,0, 
0.6967,30.6,61.5,1174.5,311.7,-64.2,-456.9,1233.9,153.0,-6076.2,1598.1,-1071.6,-303.6,-1186.2,1254.0,-3842.4,941.7,-6.6,-5.7,-68.1,882.0,-1.2,348.6,1950.6,-253.5,0,1254,0,70,0, 
0.7000,29.1,61.2,1172.4,309.9,-69.0,-459.9,1227.9,157.8,-5038.8,1608.0,-1194.9,-394.8,-1171.8,1381.8,-2781.9,933.9,-6.6,-5.7,-80.7,869.1,-1.2,345.9,1952.1,-249.9,0,1260,0,71,0, 
0.7033,36.0,64.8,1175.4,311.7,-66.6,-446.7,1233.6,157.8,-6594.9,1615.8,-1426.5,-415.8,-1260.0,1347.3,-4260.6,927.3,-6.6,-6.0,-84.0,866.1,-0.9,356.4,1953.0,-233.1,0,1266,0,72,0, 
0.7067,41.7,88.5,1185.6,315.6,-55.8,-438.6,1241.1,158.4,-8521.5,1628.7,-1449.0,-400.2,-1348.2,1177.8,-6249.6,934.2,-6.9,-5.4,-69.3,883.2,-0.9,347.4,1959.9,-213.0,0,1272,0,73,0, 
0.7100,42.3,84.0,1184.4,325.2,-46.8,-437.1,1239.9,160.2,-8225.1,1611.6,-1280.7,-315.0,-1376.4,1146.0,-5989.2,926.4,-6.6,-5.7,-65.4,904.2,-0.9,366.6,1955.1,-198.0,0,1278,0,74,0, 
0.7133,39.9,82.2,1186.8,324.9,-43.5,-439.8,1233.9,164.4,-6224.4,1603.8,-1047.0,-257.1,-1210.5,1257.9,-3847.2,921.6,-7.2,-6.0,-64.5,912.3,-0.9,373.5,1955.4,-200.4,0,1284,0,75,0, 
0.7167,44.7,78.0,1189.5,327.3,-48.6,-442.2,1231.5,170.1,-4964.7,1605.9,-1190.7,-296.4,-1152.6,1371.9,-2769.6,922.8,-6.9,-6.0,-57.3,915.9,-1.2,368.1,1951.2,-174.6,0,1290,0,76,0, 
0.7200,41.4,78.9,1180.2,319.2,-56.4,-436.5,1233.6,161.4,-6594.9,1596.0,-1529.7,-415.8,-1245.6,1323.0,-4251.6,927.3,-6.9,-5.7,-69.3,912.3,-1.2,349.5,1959.9,-201.0,0,1296,0,77,0, 
0.7233,41.7,82.5,1185.6,325.5,-45.9,-444.9,1239.0,162.0,-8447.4,1620.3,-1559.7,-389.7,-1330.2,1192.5,-6225.0,934.2,-6.6,-5.7,-68.7,923.1,-0.3,359.7,1963.5,-220.5,0,1302,0,78,0, 
0.7267,44.1,90.9,1189.8,330.0,-39.3,-436.8,1240.5,163.5,-8076.9,1604.4,-1268.7,-245.7,-1278.9,1145.7,-5942.4,934.2,-6.6,-6.0,-61.5,938.7,-1.2,371.7,1980.0,-232.5,0,1308,0,79,0, 
0.7300,39.0,80.7,1184.1,324.3,-45.3,-442.8,1237.2,159.9,-6002.1,1586.1,-1051.2,-195.0,-1206.0,1252.8,-3822.3,951.3,-6.9,-5.4,-72.3,941.1,-0.6,362.4,1974.0,-235.5,0,1314,0,80,0, 
0.7333,38.1,86.4,1185.0,326.7,-39.3,-439.5,1238.4,162.9,-5038.8,1595.1,-1003.8,-218.4,-1206.0,1379.7,-2741.4,948.9,-6.6,-5.7,-74.4,944.1,-1.2,349.5,1974.0,-196.2,0,1320,0,81,0, 
0.7367,45.0,105.0,1191.6,334.5,-35.7,-424.8,1248.6,167.7,-6520.8,1596.3,-1226.4,-391.5,-1304.1,1342.8,-4200.3,931.5,-6.9,-5.7,-73.2,948.6,-0.3,362.7,1964.7,-159.0,0,1326,0,82,0, 
0.7400,42.9,116.1,1195.5,336.9,-35.4,-417.9,1246.8,166.5,-8447.4,1602.9,-1289.4,-393.9,-1423.2,1182.3,-6195.9,926.1,-6.9,-5.7,-63.6,949.5,-0.6,366.6,1965.0,-150.6,0,1332,0,83,0, 
0.7433,38.1,119.4,1191.0,331.2,-48.6,-434.7,1235.4,163.8,-8151.0,1614.3,-1024.8,-341.7,-1322.4,1119.3,-5930.1,930.0,-6.9,-5.7,-70.2,933.9,-0.9,350.1,1965.0,-192.3,0,1338,0,84,0, 
0.7467,35.7,98.1,1177.5,319.2,-55.8,-442.2,1229.7,161.1,-6002.1,1579.5,-904.2,-301.8,-1312.2,1252.8,-3797.1,935.7,-6.9,-5.7,-89.1,927.9,-0.9,354.6,1955.4,-220.8,0,1344,0,85,0, 
0.7500,27.3,54.0,1166.1,317.1,-55.8,-450.0,1229.1,160.2,-4964.7,1583.7,-975.0,-353.1,-1228.5,1359.3,-2726.7,945.6,-6.9,-5.7,-90.0,938.4,-0.9,351.9,1959.9,-246.6,0,1350,0,86,0, 
0.7533,22.5,51.3,1170.3,323.1,-49.8,-441.0,1231.8,159.0,-6594.9,1598.1,-1302.0,-463.8,-1240.8,1326.6,-4185.9,919.8,-6.6,-5.7,-91.2,945.0,-0.6,354.6,1963.2,-245.7,0,1356,0,87,0, 
0.7567,24.3,39.9,1164.9,316.2,-61.8,-443.4,1228.8,148.2,-8373.3,1579.2,-1394.4,-396.0,-1289.7,1183.5,-6171.6,932.1,-7.2,-5.7,-102.9,927.9,-0.3,337.5,1979.1,-252.0,0,1362,0,88,0, 
0.7600,27.0,45.6,1168.8,316.8,-51.6,-441.0,1232.4,148.8,-8002.8,1578.3,-1217.7,-385.2,-1316.4,1126.2,-5912.1,935.1,-6.9,-5.4,-101.1,937.2,-0.6,347.4,1986.0,-233.7,0,1368,0,89,0, 
0.7633,37.8,60.0,1174.8,323.1,-45.9,-435.6,1229.4,158.4,-5928.0,1581.3,-902.1,-185.7,-1221.9,1239.0,-3768.6,931.2,-6.6,-6.3,-94.5,944.7,-0.9,349.8,1965.0,-229.5,0,1374,0,90,0, 
0.7667,31.5,57.3,1173.0,317.1,-47.1,-443.4,1227.0,159.9,-5038.8,1569.9,-1057.2,-298.8,-1171.2,1365.9,-2693.4,931.8,-7.2,-5.7,-103.8,944.4,-0.6,346.8,1949.1,-230.7,0,1380,0,91,0, 
0.7700,34.2,72.6,1191.6,336.3,-29.1,-429.0,1236.6,171.3,-6520.8,1596.9,-1338.6,-343.2,-1288.2,1317.0,-4209.6,926.4,-6.3,-5.7,-72.6,959.7,-0.6,372.6,1956.6,-206.7,0,1386,0,92,0, 
0.7733,36.6,87.9,1198.2,344.7,-26.7,-423.0,1244.4,172.5,-8447.4,1607.7,-1398.3,-416.4,-1407.3,1173.0,-6214.5,942.0,-6.9,-5.7,-62.1,963.6,-0.9,371.1,1962.0,-201.6,0,1392,0,93,0, 
0.7767,36.3,81.3,1190.1,338.7,-29.7,-429.3,1240.2,166.2,-8151.0,1589.4,-1181.7,-283.5,-1341.9,1137.6,-5952.3,925.5,-6.9,-6.0,-75.0,963.0,-0.9,374.1,1959.3,-190.5,0,1398,0,94,0, 
0.7800,28.5,72.0,1184.4,328.8,-37.2,-437.4,1233.3,163.5,-5928.0,1598.1,-996.9,-283.2,-1219.5,1242.9,-3825.0,914.4,-6.9,-5.7,-84.3,953.1,-0.6,350.7,1952.7,-197.4,0,1404,0,95,0, 
0.7833,24.6,63.6,1176.3,323.7,-46.2,-435.0,1236.3,166.8,-5038.8,1586.7,-1066.5,-366.9,-1182.9,1350.3,-2768.7,911.1,-6.9,-5.7,-88.2,951.0,-0.6,352.2,1949.1,-215.7,0,1410,0,96,0, 
0.7867,17.4,61.2,1164.6,316.2,-48.9,-434.1,1238.4,158.1,-6669.0,1587.0,-1373.1,-422.1,-1334.1,1310.1,-4264.5,905.4,-6.9,-5.7,-111.6,941.7,-0.6,353.7,1961.1,-197.4,0,1416,0,97,0, 
0.7900,28.8,84.0,1180.2,325.5,-45.6,-425.7,1240.8,162.6,-8521.5,1605.6,-1430.1,-479.1,-1350.6,1169.1,-6247.2,906.0,-6.6,-6.0,-95.7,938.1,-1.2,345.9,1955.1,-147.0,0,1422,0,98,0, 
0.7933,40.5,94.5,1180.2,328.5,-46.8,-437.4,1235.4,161.7,-8299.2,1587.3,-1124.1,-330.0,-1292.7,1119.0,-5982.0,917.1,-6.9,-6.0,-99.0,937.5,-0.9,331.2,1948.8,-183.6,0,1428,0,99,0, 
0.7967,35.1,103.2,1193.1,331.5,-47.4,-444.6,1232.7,168.0,-6150.3,1593.9,-1032.6,-342.0,-1227.0,1200.3,-3872.4,919.2,-7.2,-6.0,-98.7,939.0,-0.6,343.8,1943.4,-214.5,0,1434,0,100,0, 
0.8000,32.4,73.5,1176.9,323.1,-51.0,-437.1,1238.1,167.4,-5112.9,1564.8,-1172.1,-385.8,-1207.5,1342.8,-2802.3,924.0,-6.9,-6.0,-118.5,939.6,-1.2,343.5,1963.5,-209.1,0,1440,0,101,0, 
0.8033,27.6,75.6,1176.9,321.6,-49.8,-434.1,1240.8,168.3,-6669.0,1585.8,-1394.7,-411.0,-1348.5,1287.0,-4282.8,922.5,-6.6,-5.7,-121.5,949.2,-0.9,355.5,1955.7,-233.7,0,1446,0,102,0, 
0.8067,27.0,69.6,1173.6,321.0,-50.1,-442.5,1232.7,158.1,-8447.4,1571.4,-1500.6,-474.3,-1384.2,1179.6,-6276.3,933.6,-7.2,-6.0,-116.7,948.9,-0.9,359.7,1954.2,-274.2,0,1452,0,103,0, 
0.8100,24.9,64.5,1170.3,318.6,-51.0,-440.7,1230.0,160.2,-8076.9,1581.9,-1309.5,-412.2,-1314.3,1142.7,-6013.2,931.5,-7.2,-5.7,-106.5,953.4,-0.6,357.6,1962.3,-269.1,0,1458,0,104,0, 
0.8133,33.3,69.0,1179.0,322.8,-49.5,-441.3,1234.2,162.9,-6150.3,1593.6,-1188.9,-447.6,-1236.0,1251.0,-3873.0,928.8,-7.2,-5.7,-97.8,955.5,-0.6,360.3,1972.2,-256.5,0,1464,0,105,0, 
0.8167,29.1,83.7,1179.3,328.8,-44.7,-441.0,1235.1,167.7,-5112.9,1586.1,-1377.0,-457.5,-1237.5,1358.4,-2819.4,922.5,-7.2,-5.4,-105.6,964.2,-0.6,360.3,1978.5,-243.3,0,1470,0,106,0, 
0.8200,39.0,89.4,1196.4,342.9,-30.0,-421.8,1245.0,175.8,-6743.1,1604.1,-1579.8,-486.6,-1213.5,1326.3,-4270.5,930.6,-6.6,-5.7,-83.1,972.9,-1.2,359.4,1968.9,-211.8,0,1476,0,107,0, 
0.8233,30.9,76.5,1186.5,338.4,-35.1,-421.8,1239.9,162.3,-8447.4,1603.2,-1621.2,-400.8,-1289.4,1171.8,-6270.0,926.4,-6.9,-5.4,-82.8,969.3,-0.9,352.8,1966.5,-207.6,0,1482,0,108,0, 
0.8267,33.3,75.3,1187.7,339.9,-32.7,-426.0,1237.2,162.6,-8151.0,1599.6,-1584.9,-303.3,-1293.0,1113.9,-6045.0,921.0,-6.9,-5.7,-72.0,978.0,-0.9,357.3,1952.7,-201.9,0,1488,0,109,0, 
0.8300,22.5,69.3,1183.2,335.7,-34.8,-424.2,1238.4,162.9,-6150.3,1583.4,-1459.2,-292.8,-1274.7,1209.3,-3938.4,921.3,-6.9,-5.7,-61.2,983.7,-1.2,354.9,1973.4,-170.1,0,1494,0,110,0, 
0.8333,26.4,74.1,1187.4,345.6,-28.8,-416.7,1240.5,169.8,-5038.8,1590.0,-1419.3,-420.9,-1248.0,1331.4,-2860.5,926.7,-6.6,-6.0,-48.3,999.6,-0.6,351.6,1972.8,-174.0,0,1500,0,111,0, 
0.8367,37.5,95.1,1197.9,349.2,-29.7,-424.5,1239.6,169.5,-6669.0,1579.2,-1735.2,-544.8,-1281.9,1308.6,-4300.8,927.9,-7.2,-5.7,-45.9,1003.5,-1.2,353.4,1944.6,-192.6,0,1506,0,112,0, 
0.8400,36.3,99.9,1196.4,350.1,-31.2,-431.4,1239.0,165.3,-8521.5,1579.8,-1713.3,-550.2,-1348.5,1174.2,-6283.2,924.9,-6.9,-6.0,-60.0,1003.5,-0.6,357.0,1950.3,-212.7,0,1512,0,113,0, 
0.8433,29.4,89.1,1196.4,351.9,-24.0,-431.7,1244.7,163.8,-8299.2,1570.2,-1239.3,-468.0,-1291.2,1099.2,-6049.2,937.2,-6.6,-5.7,-51.6,1018.2,-0.3,355.8,1974.3,-211.8,0,1518,0,114,0, 
0.8467,41.1,97.5,1209.0,363.9,-10.8,-421.8,1246.2,175.8,-6150.3,1585.5,-986.1,-274.2,-1275.9,1214.4,-3927.6,919.2,-7.2,-5.4,-29.1,1038.3,-0.3,362.4,1969.2,-213.9,0,1524,0,115,0, 
0.8500,39.3,107.4,1212.0,368.7,-3.6,-425.1,1238.7,175.8,-5187.0,1589.7,-1131.6,-303.9,-1219.2,1334.7,-2838.3,909.9,-6.9,-5.4,-1.5,1047.6,-0.3,369.0,1952.1,-202.5,0,1530,0,116,0, 
0.8533,42.3,111.6,1215.0,373.5,-1.2,-416.7,1239.9,176.7,-6817.2,1594.2,-1411.8,-335.1,-1271.4,1298.7,-4301.4,899.1,-6.6,-5.7,6.9,1056.6,-0.6,354.9,1945.5,-179.1,0,1536,0,117,0, 
0.8567,39.3,87.3,1210.5,371.1,-5.1,-419.7,1236.9,168.9,-8521.5,1584.9,-1484.1,-459.3,-1307.4,1167.0,-6281.4,900.3,-6.9,-6.0,17.7,1054.2,-0.9,345.6,1954.8,-203.1,0,1542,0,118,0, 
0.8600,35.1,93.3,1215.6,379.5,0.9,-420.6,1237.5,171.9,-8225.1,1604.4,-1308.6,-363.6,-1281.3,1111.5,-6018.0,910.5,-6.6,-6.0,24.0,1065.9,-0.6,348.3,1946.7,-224.7,0,1548,0,119,0, 
0.8633,34.5,86.7,1217.1,382.2,9.6,-418.5,1245.9,182.1,-6076.2,1597.8,-1112.7,-337.5,-1239.3,1230.6,-3885.6,923.1,-6.9,-5.7,30.3,1077.3,-0.3,348.0,1971.3,-218.1,0,1554,0,120,0, 
0.8667,40.8,88.5,1224.6,388.5,14.4,-411.9,1240.8,186.9,-5112.9,1608.0,-1259.4,-293.4,-1218.9,1360.8,-2798.1,911.7,-6.6,-6.0,39.9,1098.0,-0.3,352.8,1950.0,-199.5,0,1560,0,121,0, 
0.8700,38.4,90.3,1220.7,389.4,12.9,-404.4,1247.1,178.8,-6520.8,1590.9,-1413.3,-337.2,-1355.1,1315.8,-4251.6,918.9,-6.9,-5.4,43.2,1106.1,-0.9,357.6,1976.4,-180.9,0,1566,0,122,0, 
0.8733,35.1,95.1,1220.7,393.6,18.0,-406.8,1245.9,175.5,-8595.6,1587.0,-1345.2,-164.7,-1317.6,1178.4,-6226.8,928.5,-6.9,-5.7,51.3,1119.9,-0.6,361.5,1965.9,-187.8,0,1572,0,123,0, 
0.8767,37.2,76.2,1218.0,393.3,19.8,-406.8,1241.4,170.4,-8076.9,1583.4,-1159.5,-76.2,-1252.2,1141.8,-5956.2,914.7,-7.2,-5.7,47.7,1140.3,-0.9,368.1,1961.4,-185.4,0,1578,0,124,0, 
0.8800,34.8,86.4,1221.0,395.1,27.0,-410.1,1245.0,177.0,-6150.3,1603.5,-791.7,-18.9,-1224.6,1229.7,-3841.8,918.3,-7.2,-5.7,66.9,1142.7,-0.9,373.8,1969.5,-180.0,0,1584,0,125,0, 
0.8833,40.5,105.3,1223.4,389.7,18.0,-417.3,1239.9,174.3,-4964.7,1580.4,-941.1,-152.7,-1191.0,1335.3,-2753.1,921.6,-6.9,-5.7,74.7,1132.5,-0.3,349.2,1949.7,-199.2,0,1590,0,126,0, 
0.8867,37.8,125.7,1224.9,391.5,21.3,-414.0,1244.7,171.3,-6594.9,1571.1,-1055.4,-218.1,-1333.2,1283.7,-4233.0,911.4,-6.3,-5.7,83.4,1132.2,-0.3,349.8,1976.7,-198.6,0,1596,0,127,0, 
0.8900,27.9,116.1,1215.3,380.7,13.8,-415.5,1239.9,158.4,-8447.4,1565.4,-981.6,-171.0,-1464.0,1157.1,-6217.5,907.5,-6.9,-6.0,72.9,1128.3,-0.9,337.2,1941.3,-198.6,0,1602,0,128,0, 
0.8933,28.2,101.4,1212.3,375.6,9.0,-421.2,1229.7,152.4,-8299.2,1559.1,-627.6,-45.6,-1277.1,1104.6,-5956.8,908.4,-7.2,-6.0,69.6,1130.4,-0.6,326.7,1945.5,-211.8,0,1608,0,129,0, 
0.8967,26.4,84.9,1208.7,372.3,8.7,-431.1,1227.3,156.3,-6150.3,1548.6,-481.2,-30.0,-1160.7,1215.6,-3821.1,935.7,-7.5,-5.4,68.7,1125.6,-0.6,332.4,1968.6,-238.5,0,1614,0,130,0, 
0.9000,28.5,65.4,1206.6,382.2,15.3,-422.7,1229.7,164.7,-5187.0,1566.9,-675.0,-83.7,-1194.3,1329.6,-2749.5,919.2,-6.9,-5.7,67.8,1138.2,-0.6,338.1,1968.6,-223.5,0,1620,0,131,0, 
0.9033,31.8,85.8,1221.9,391.2,20.4,-418.2,1230.0,164.4,-6594.9,1585.8,-705.3,-80.4,-1282.2,1305.3,-4199.7,912.6,-6.6,-6.0,89.7,1142.1,-0.3,341.4,1945.5,-225.3,0,1626,0,132,0, 
0.9067,36.3,93.9,1240.2,405.3,33.6,-399.3,1238.4,167.7,-8521.5,1600.5,-660.3,0.3,-1309.5,1178.4,-6173.1,914.1,-6.9,-5.4,111.6,1154.7,-0.6,351.0,1949.1,-184.5,0,1632,0,133,0, 
0.9100,36.0,89.1,1238.1,403.2,33.6,-402.3,1238.4,163.2,-8225.1,1593.9,-408.6,200.7,-1245.0,1132.8,-5931.9,924.3,-6.9,-5.7,118.2,1156.2,-0.9,353.4,1953.6,-194.4,0,1638,0,134,0, 
0.9133,36.6,86.7,1243.5,403.8,37.8,-398.7,1237.2,169.5,-5853.9,1600.2,-100.5,184.5,-1190.7,1240.5,-3802.2,927.6,-6.9,-6.0,125.7,1161.9,-0.9,349.8,1959.9,-199.8,0,1644,0,135,0, 
0.9167,48.3,102.9,1246.5,405.6,38.1,-394.5,1237.2,176.4,-5038.8,1596.0,-46.8,133.5,-1170.6,1377.9,-2711.4,909.6,-6.9,-5.7,122.7,1165.8,-0.3,356.4,1939.5,-203.4,0,1650,0,136,0, 
0.9200,39.3,100.2,1236.6,402.6,33.6,-399.3,1238.7,171.6,-6520.8,1603.5,-246.6,71.4,-1349.1,1326.3,-4169.1,919.5,-7.2,-5.7,109.2,1159.5,-0.9,353.7,1967.7,-220.8,0,1656,0,137,0, 
0.9233,41.1,111.3,1239.0,398.1,28.2,-400.8,1235.7,169.8,-8447.4,1607.7,-186.9,128.7,-1392.9,1189.5,-6163.8,924.6,-6.9,-6.0,115.2,1147.8,-0.6,354.6,1959.0,-233.7,0,1662,0,138,0, 
0.9267,45.9,107.4,1241.7,397.2,23.4,-404.1,1233.0,167.1,-8002.8,1602.3,53.7,277.5,-1236.0,1143.6,-5906.4,911.1,-6.9,-6.0,107.1,1143.6,-0.6,361.2,1963.5,-220.8,0,1668,0,139,0, 
0.9300,48.6,104.4,1232.7,388.5,20.7,-411.9,1230.9,168.0,-6002.1,1584.0,251.1,314.1,-1211.1,1259.7,-3773.7,921.0,-6.6,-6.0,94.5,1140.6,-1.2,345.9,1951.2,-222.6,0,1674,0,140,0, 
0.9333,47.1,110.7,1224.6,386.4,16.2,-411.9,1229.7,170.4,-5038.8,1589.7,141.3,290.7,-1212.6,1380.6,-2696.1,910.5,-7.2,-5.4,93.3,1126.2,-0.9,345.9,1947.0,-203.4,0,1680,0,141,0, 
0.9367,49.5,121.2,1230.6,383.1,21.9,-399.6,1235.7,171.3,-6520.8,1590.0,-9.6,252.9,-1316.7,1340.1,-4151.1,919.5,-6.9,-5.7,100.5,1125.6,-0.9,361.2,1937.1,-160.5,0,1686,0,142,0, 
0.9400,49.8,121.8,1231.2,383.4,24.0,-385.5,1241.4,168.6,-8595.6,1600.8,-63.0,368.7,-1344.6,1187.4,-6158.4,908.7,-6.6,-5.4,93.0,1131.6,-0.9,352.8,1963.8,-151.8,0,1692,0,143,0, 
0.9433,49.2,119.1,1232.7,387.0,20.4,-402.3,1238.7,167.4,-8299.2,1595.7,231.0,494.7,-1299.9,1119.3,-5923.8,917.4,-7.2,-6.0,82.8,1119.6,-0.9,346.5,1949.7,-173.1,0,1698,0,144,0, 
0.9467,41.7,103.5,1224.3,382.5,8.1,-419.1,1227.9,165.3,-6002.1,1588.2,381.0,575.1,-1167.0,1220.7,-3807.0,919.2,-7.2,-6.0,73.2,1101.0,-0.9,355.5,1931.7,-210.9,0,1704,0,145,0, 
0.9500,27.6,85.8,1221.6,373.2,11.4,-423.0,1230.0,164.4,-4964.7,1596.3,268.2,543.9,-1161.6,1344.0,-2725.2,918.0,-6.6,-5.4,71.4,1087.8,-0.9,344.7,1947.9,-217.2,0,1710,0,146,0, 
0.9533,32.7,82.5,1213.5,369.6,3.0,-417.0,1233.3,160.5,-6669.0,1598.4,-72.6,357.6,-1248.9,1326.0,-4171.5,919.5,-7.8,-6.0,59.1,1078.5,-0.9,345.9,1963.8,-235.8,0,1716,0,147,0, 
0.9567,27.3,64.5,1196.7,355.2,-9.6,-422.7,1226.7,146.1,-8521.5,1590.6,-81.9,308.7,-1365.0,1178.4,-6173.4,932.1,-6.6,-6.0,53.4,1063.5,-0.9,345.3,1952.4,-217.2,0,1722,0,148,0, 
0.9600,25.5,80.1,1199.4,356.7,-9.3,-416.1,1226.4,146.1,-8076.9,1584.9,161.1,463.2,-1315.5,1114.2,-5938.5,914.7,-7.2,-6.0,52.5,1060.2,-0.9,337.5,1934.7,-177.9,0,1728,0,149,0, 
0.9633,44.1,92.7,1201.8,360.9,-9.6,-421.8,1228.8,156.9,-6002.1,1588.2,344.1,501.0,-1175.4,1225.8,-3813.6,904.8,-6.6,-6.0,45.0,1048.5,-0.6,337.2,1944.3,-217.5,0,1734,0,150,0, 
0.9667,25.5,69.9,1186.8,352.2,-17.1,-429.6,1228.5,150.3,-5187.0,1584.9,203.4,507.0,-1216.2,1308.9,-2750.1,922.2,-6.9,-5.4,30.0,1036.2,-0.6,330.3,1966.5,-241.8,0,1740,0,151,0, 
0.9700,45.3,90.9,1204.8,361.2,-7.2,-423.0,1229.7,159.6,-6594.9,1609.5,30.0,453.3,-1227.9,1316.4,-4180.5,927.0,-6.9,-6.0,48.3,1045.8,-0.9,353.7,1917.0,-226.8,0,1746,0,152,0, 
0.9733,44.4,88.5,1198.5,358.2,-10.5,-422.1,1228.5,152.4,-8595.6,1584.3,92.4,530.4,-1353.6,1182.6,-6158.1,905.4,-7.2,-5.1,21.9,1036.2,-0.6,348.3,1923.9,-200.1,0,1752,0,153,0, 
0.9767,48.0,99.0,1203.0,360.3,-16.8,-430.5,1224.6,153.6,-8076.9,1587.6,259.5,681.3,-1389.6,1128.9,-5938.2,915.0,-7.2,-5.4,21.9,1037.1,-0.6,337.8,1947.9,-236.1,0,1758,0,154,0, 
0.9800,46.8,96.9,1203.9,361.8,-8.7,-422.1,1227.6,161.4,-6002.1,1602.3,394.5,678.9,-1298.7,1233.0,-3814.2,906.0,-6.9,-5.7,13.5,1035.0,-0.6,356.7,1971.3,-245.1,0,1764,0,155,0, 
0.9833,41.7,105.0,1203.3,357.6,-16.5,-412.5,1230.6,166.5,-4964.7,1581.6,362.4,586.5,-1313.7,1335.6,-2727.0,918.0,-6.6,-5.4,0.3,1021.5,-0.6,344.1,1975.2,-226.8,0,1770,0,156,0, 
0.9867,45.3,96.6,1202.4,359.1,-13.8,-404.4,1230.6,165.3,-6520.8,1594.2,125.7,587.1,-1357.2,1322.1,-4170.6,913.5,-6.6,-5.7,5.4,1023.0,-0.9,345.6,1943.1,-194.7,0,1776,0,157,0, 
0.9900,42.0,86.7,1188.3,347.1,-26.4,-429.3,1223.7,151.8,-8373.3,1583.1,0.3,565.2,-1365.6,1197.9,-6150.3,905.4,-7.2,-5.4,8.1,1009.8,-0.6,343.8,1936.5,-235.5,0,1782,0,158,0, 
0.9933,45.3,72.3,1188.6,346.2,-21.3,-421.8,1232.7,149.7,-8002.8,1599.0,188.7,618.6,-1209.9,1143.0,-5894.4,919.2,-6.9,-5.4,11.1,1006.2,-0.6,356.1,1958.1,-226.5,0,1788,0,159,0, 
0.9967,45.3,72.0,1184.4,336.0,-34.8,-423.6,1225.2,150.9,-6002.1,1597.2,328.8,688.5,-1182.3,1245.3,-3778.5,905.7,-6.9,-5.7,-3.0,990.0,-0.9,341.4,1921.8,-222.9,0,1794,0,160,0, 
1.0000,33.9,68.1,1173.9,330.9,-39.0,-430.8,1218.9,148.2,-5112.9,1594.2,241.5,632.1,-1157.7,1348.8,-2695.8,910.2,-6.9,-5.7,-18.9,976.5,-1.2,340.2,1935.0,-243.0,0,1800,0,161,0, 
1.0033,39.0,54.0,1175.4,336.0,-33.0,-438.9,1218.9,148.5,-6520.8,1606.2,-44.7,530.7,-1218.3,1339.5,-4112.1,921.3,-6.6,-5.4,-13.2,986.1,-0.3,355.5,1938.9,-274.2,0,1806,0,162,0, 
1.0067,45.6,67.5,1172.1,326.4,-46.8,-439.5,1215.9,143.7,-8447.4,1595.1,-175.2,442.5,-1301.4,1206.6,-6108.6,916.8,-7.2,-5.7,-17.1,973.8,-0.6,346.5,1926.6,-256.8,0,1812,0,163,0, 
1.0100,37.5,62.7,1173.3,329.7,-43.8,-430.2,1219.5,142.2,-8002.8,1604.1,60.3,577.8,-1272.0,1131.9,-5891.4,919.2,-6.9,-5.4,-29.1,970.8,-0.6,349.2,1922.1,-219.9,0,1818,0,164,0, 
1.0133,37.8,65.7,1170.9,326.7,-44.4,-430.2,1220.4,149.4,-6002.1,1584.0,251.1,606.9,-1201.2,1247.7,-3777.6,904.2,-6.9,-5.4,-31.2,971.7,-1.2,335.4,1932.9,-217.2,0,1824,0,165,0, 
1.0167,45.0,81.0,1173.3,325.2,-45.0,-431.1,1225.2,160.5,-5112.9,1567.8,103.5,510.6,-1168.5,1350.9,-2694.3,912.9,-6.9,-5.7,-32.4,964.5,-0.9,325.2,1945.5,-224.4,0,1830,0,166,0, 
1.0200,30.9,79.5,1170.3,322.5,-48.9,-425.4,1227.9,153.9,-6520.8,1580.7,-169.8,466.5,-1329.3,1259.4,-4164.6,926.4,-7.2,-5.7,-36.0,951.6,-0.9,342.3,1950.0,-210.9,0,1836,0,167,0, 
1.0233,31.5,83.4,1168.5,321.3,-49.5,-423.0,1227.6,151.2,-8447.4,1574.7,-162.0,478.5,-1436.4,1157.4,-6156.3,906.6,-6.3,-5.7,-34.8,947.4,-1.2,347.7,1941.6,-203.1,0,1842,0,168,0, 
1.0267,32.7,97.2,1171.2,320.1,-52.2,-433.2,1219.2,148.2,-8076.9,1582.2,93.9,592.5,-1461.3,1127.4,-5928.6,910.5,-6.9,-5.7,-37.8,944.4,-0.9,329.7,1935.9,-228.9,0,1848,0,169,0, 
1.0300,39.6,84.0,1172.4,325.2,-50.7,-441.3,1218.6,157.2,-5928.0,1587.6,265.8,672.3,-1262.7,1251.0,-3788.1,915.6,-6.6,-5.7,-35.7,942.6,-0.9,332.7,1939.8,-240.3,0,1854,0,170,0, 
1.0333,36.3,74.1,1160.1,318.3,-55.5,-438.3,1219.5,153.0,-5038.8,1578.3,24.9,593.7,-1206.9,1372.8,-2680.8,913.2,-7.5,-5.7,-45.9,936.0,-0.9,334.2,1936.8,-218.7,0,1860,0,171,0, 
1.0367,31.5,64.8,1159.2,316.8,-51.9,-435.6,1224.6,152.1,-6446.7,1611.3,-210.0,572.1,-1257.6,1318.8,-4141.8,912.3,-6.6,-5.7,-41.7,930.6,-0.9,336.6,1929.0,-224.7,0,1866,0,172,0, 
1.0400,36.0,82.2,1160.1,318.0,-59.1,-442.8,1222.5,144.3,-8373.3,1621.8,-251.4,522.9,-1296.3,1164.3,-6137.1,904.5,-6.3,-6.0,-38.7,928.8,-0.9,346.5,1926.3,-255.3,0,1872,0,173,0, 
1.0433,34.8,64.5,1146.3,309.0,-69.6,-443.1,1220.7,135.3,-8076.9,1584.3,-76.2,602.1,-1285.5,1153.5,-5919.0,905.7,-6.9,-5.7,-49.5,919.5,-1.2,343.2,1944.3,-257.1,0,1878,0,174,0, 
1.0467,35.4,73.8,1145.7,306.6,-70.8,-453.0,1223.7,140.1,-6002.1,1588.8,57.6,676.8,-1230.9,1227.0,-3808.5,899.7,-6.9,-5.7,-50.1,921.6,-0.6,340.2,1951.5,-261.0,0,1884,0,175,0, 
1.0500,44.4,93.0,1154.4,313.2,-63.9,-444.0,1222.2,156.0,-4964.7,1575.3,-184.8,626.1,-1248.6,1358.4,-2696.7,906.6,-6.6,-6.0,-52.2,924.6,-0.3,345.6,1917.3,-245.1,0,1890,0,176,0, 
1.0533,33.9,89.1,1158.0,321.9,-52.2,-427.2,1233.6,161.4,-6669.0,1593.3,-358.5,554.1,-1255.8,1330.2,-4120.8,915.0,-7.2,-5.7,-41.7,933.3,-0.6,350.4,1916.4,-204.6,0,1896,0,177,0, 
1.0567,37.2,74.7,1145.4,309.6,-60.3,-430.8,1231.8,151.2,-8447.4,1596.9,-469.8,521.7,-1338.6,1200.3,-6122.7,919.8,-7.2,-5.7,-46.2,926.1,-0.3,341.4,1941.3,-216.6,0,1902,0,178,0, 
1.0600,40.2,70.5,1137.9,301.2,-67.2,-446.7,1224.0,143.7,-8225.1,1596.3,-130.8,684.6,-1321.5,1143.9,-5914.8,926.7,-6.6,-6.0,-63.0,919.2,-0.9,344.4,1936.5,-266.4,0,1908,0,179,0, 
1.0633,39.9,68.4,1141.8,298.5,-75.9,-445.2,1221.0,147.9,-6002.1,1587.6,-92.4,722.1,-1203.0,1254.3,-3783.0,920.7,-7.2,-5.7,-61.8,906.9,-0.6,340.5,1928.1,-279.3,0,1914,0,180,0, 
1.0667,42.0,70.2,1142.7,296.7,-76.8,-439.5,1224.9,151.5,-4890.6,1596.0,-209.4,612.0,-1160.4,1370.7,-2684.4,912.9,-7.2,-6.0,-52.5,915.6,-0.9,350.1,1929.3,-263.1,0,1920,0,181,0, 
1.0700,39.0,73.8,1146.0,302.1,-71.7,-428.4,1229.4,151.2,-6594.9,1606.8,-440.4,523.5,-1235.4,1332.3,-4138.8,917.1,-6.9,-5.7,-58.2,923.1,-0.6,356.7,1939.2,-240.9,0,1926,0,182,0, 
1.0733,44.7,88.8,1155.0,310.2,-61.5,-428.4,1228.8,153.0,-8447.4,1613.4,-488.1,465.9,-1329.9,1206.6,-6129.3,922.8,-6.9,-5.4,-56.4,925.2,-0.6,353.4,1938.3,-233.7,0,1932,0,183,0, 
1.0767,53.4,102.9,1164.0,313.5,-55.2,-414.3,1235.7,156.0,-8225.1,1631.1,-270.6,577.2,-1275.9,1147.2,-5913.9,919.2,-7.2,-5.4,-35.1,926.7,-0.6,362.4,1938.6,-209.7,0,1938,0,184,0, 
1.0800,45.3,87.0,1156.5,306.3,-64.2,-415.2,1228.8,150.6,-6002.1,1613.4,-148.5,581.4,-1233.9,1252.5,-3795.9,927.0,-7.2,-6.0,-52.5,918.3,-0.9,353.4,1951.2,-190.8,0,1944,0,185,0, 
1.0833,45.6,89.4,1153.5,312.0,-59.4,-410.7,1234.8,155.1,-5112.9,1604.1,-189.3,541.8,-1266.3,1376.1,-2695.2,929.4,-6.6,-5.4,-62.4,924.9,-0.3,355.5,1944.0,-199.2,0,1950,0,186,0, 
1.0867,42.3,92.7,1150.5,307.2,-66.6,-424.5,1226.7,148.2,-6520.8,1601.7,-480.6,353.1,-1388.4,1334.1,-4146.9,918.3,-6.9,-6.0,-84.0,919.5,-0.6,358.8,1947.3,-229.5,0,1956,0,187,0, 
1.0900,37.8,105.9,1148.7,303.6,-70.2,-427.5,1230.6,141.9,-8521.5,1594.8,-453.0,390.0,-1397.4,1179.0,-6146.7,930.3,-6.6,-5.7,-85.8,911.1,-0.6,350.1,1949.7,-220.8,0,1962,0,188,0, 
1.0933,41.7,89.1,1149.6,308.7,-61.5,-429.6,1230.0,150.9,-8076.9,1594.8,-189.6,492.9,-1277.4,1141.5,-5926.5,902.4,-6.9,-6.0,-78.6,929.4,-1.2,363.0,1950.9,-194.1,0,1968,0,189,0, 
1.0967,36.3,62.1,1133.1,290.1,-78.9,-443.4,1225.5,147.3,-6076.2,1607.4,-188.1,430.8,-1170.9,1230.3,-3814.2,914.7,-7.2,-5.7,-85.5,907.2,-0.9,337.2,1957.5,-214.5,0,1974,0,190,0, 
1.1000,51.6,82.8,1139.1,282.6,-89.7,-458.1,1215.3,155.7,-4964.7,1596.3,-410.4,303.6,-1227.9,1373.7,-2712.9,920.4,-6.9,-5.7,-84.9,888.9,-0.9,339.6,1928.4,-283.5,0,1980,0,191,0, 
1.1033,48.6,85.5,1142.1,288.9,-86.7,-452.1,1215.9,156.3,-6520.8,1599.6,-692.4,229.8,-1246.2,1311.6,-4160.7,912.3,-6.6,-5.7,-84.6,898.2,-0.9,348.0,1917.9,-291.9,0,1986,0,192,0, 
1.1067,45.6,78.9,1147.5,300.3,-78.6,-436.5,1230.3,158.1,-8447.4,1607.4,-679.5,263.4,-1270.5,1183.8,-6146.7,924.0,-6.9,-5.7,-72.0,904.2,-0.9,365.1,1941.0,-268.2,0,1992,0,193,0, 
1.1100,38.7,59.1,1132.2,296.4,-90.9,-443.1,1222.2,152.7,-8151.0,1601.1,-488.1,372.6,-1242.3,1147.2,-5941.8,927.9,-7.2,-6.0,-83.7,894.3,-0.9,351.0,1933.2,-265.5,0,1998,0,194,0, 
1.1133,35.7,67.2,1135.2,298.5,-80.4,-445.5,1217.7,158.1,-6150.3,1607.7,-367.8,390.9,-1207.5,1245.0,-3832.5,915.6,-6.9,-5.7,-74.7,909.6,-0.9,358.8,1935.9,-264.6,0,2004,0,195,0, 
1.1167,31.5,73.8,1133.7,299.7,-75.3,-433.8,1224.6,162.3,-5112.9,1609.8,-519.0,341.4,-1201.2,1360.5,-2709.9,917.4,-6.9,-5.7,-70.5,911.1,-0.9,360.9,1935.0,-239.1,0,2010,0,196,0, 
1.1200,36.3,87.3,1139.1,304.2,-71.7,-424.2,1234.8,159.3,-6372.6,1624.2,-778.8,224.4,-1349.7,1350.0,-4148.7,921.3,-6.3,-5.7,-61.8,911.4,-0.6,365.7,1934.7,-212.1,0,2016,0,197,0, 
1.1233,33.0,87.0,1136.4,303.0,-71.4,-428.1,1233.3,144.3,-8447.4,1600.8,-873.0,249.0,-1354.5,1201.2,-6131.1,923.4,-6.9,-6.3,-75.9,913.8,-0.6,357.6,1941.3,-216.0,0,2022,0,198,0, 
1.1267,34.2,76.2,1136.4,305.4,-66.6,-430.2,1234.5,144.9,-8002.8,1614.0,-705.6,316.8,-1285.2,1156.8,-5911.5,931.2,-7.2,-5.7,-69.0,918.9,-0.9,370.2,1951.5,-238.8,0,2028,0,199,0, 
1.1300,37.5,70.5,1127.7,297.6,-75.9,-436.2,1226.1,143.4,-6076.2,1584.0,-549.3,401.4,-1219.5,1275.9,-3793.8,925.5,-6.9,-6.0,-75.9,900.3,-0.9,359.1,1943.1,-250.5,0,2034,0,200,0, 
1.1333,33.0,65.1,1122.9,288.0,-80.7,-432.6,1225.2,142.8,-5112.9,1597.8,-728.4,301.2,-1208.1,1383.3,-2698.5,920.7,-6.9,-5.7,-79.8,898.2,-0.3,354.6,1942.2,-239.1,0,2040,0,201,0, 
1.1367,37.8,66.6,1125.0,288.3,-84.6,-432.9,1228.5,143.4,-6446.7,1595.7,-980.4,185.7,-1267.5,1355.4,-4123.2,931.8,-6.9,-5.7,-74.7,891.3,-0.9,337.8,1941.0,-218.4,0,2046,0,202,0, 
1.1400,30.3,55.5,1114.5,283.5,-89.1,-435.0,1232.1,133.8,-8447.4,1591.8,-1004.1,193.5,-1339.2,1204.5,-6117.0,926.7,-6.9,-5.7,-80.4,884.1,-1.2,346.8,1948.8,-232.2,0,2052,0,203,0, 
1.1433,34.8,57.0,1117.8,286.2,-96.0,-448.5,1226.7,136.2,-8151.0,1590.6,-856.8,276.3,-1286.7,1157.4,-5895.3,922.8,-6.9,-6.0,-90.0,882.6,-0.6,346.5,1938.9,-257.1,0,2058,0,204,0, 
1.1467,39.3,64.2,1114.2,276.0,-96.9,-447.3,1224.9,137.4,-6002.1,1584.6,-798.3,272.7,-1285.8,1259.7,-3789.9,932.1,-7.2,-5.7,-111.0,873.0,-0.6,332.4,1941.6,-238.5,0,2064,0,205,0, 
1.1500,45.3,91.8,1122.6,279.6,-88.5,-439.2,1230.9,149.1,-5038.8,1581.6,-841.5,299.1,-1140.3,1352.4,-2680.5,922.2,-6.6,-5.7,-124.2,872.7,-0.9,334.2,1939.2,-217.8,0,2070,0,206,0, 
1.1533,42.9,76.5,1115.4,273.3,-95.7,-447.9,1225.8,144.9,-6446.7,1590.0,-1108.2,255.9,-1205.1,1314.0,-4109.7,922.5,-6.6,-6.0,-142.8,860.7,-0.3,313.5,1953.0,-234.9,0,2076,0,207,0, 
1.1567,45.0,67.2,1105.5,274.5,-101.1,-449.4,1226.7,138.3,-8447.4,1577.1,-1172.1,273.3,-1317.3,1194.0,-6123.0,924.3,-6.9,-6.0,-142.2,853.5,-0.6,333.6,1939.8,-262.2,0,2082,0,208,0, 
1.1600,48.6,94.8,1139.7,303.3,-73.2,-440.7,1226.4,152.4,-8151.0,1614.0,-1016.7,386.7,-1377.6,1124.7,-5923.5,909.6,-6.6,-6.0,-85.8,889.2,-0.9,365.4,1914.0,-280.5,0,2088,0,209,0, 
1.1633,38.4,94.5,1140.6,308.4,-68.7,-428.4,1237.5,162.6,-6002.1,1606.2,-771.9,478.8,-1242.9,1236.6,-3813.9,912.0,-6.9,-5.7,-76.8,905.1,-0.9,362.7,1949.1,-261.6,0,2094,0,210,0, 
1.1667,37.8,74.4,1132.5,302.4,-70.8,-428.1,1232.1,161.1,-5038.8,1606.8,-893.4,378.6,-1221.3,1376.7,-2690.7,921.6,-7.2,-5.7,-102.0,899.7,-0.6,365.4,1930.8,-247.5,0,2100,0,211,0, 
1.1700,33.0,81.0,1128.9,298.2,-79.5,-435.0,1235.1,157.5,-6594.9,1606.8,-1167.9,252.0,-1365.3,1326.9,-4143.3,915.6,-7.2,-5.7,-110.1,880.8,-0.9,358.2,1940.7,-260.1,0,2106,0,212,0, 
1.1733,46.2,107.7,1143.9,300.3,-78.3,-435.6,1234.8,157.2,-8299.2,1610.7,-1114.2,354.3,-1406.4,1206.9,-6124.5,920.4,-6.6,-6.0,-96.9,868.2,-0.9,340.8,1934.7,-252.6,0,2112,0,213,0, 
1.1767,47.4,106.8,1146.3,301.2,-78.9,-427.2,1242.0,156.9,-8151.0,1611.0,-894.0,423.6,-1320.3,1136.4,-5916.9,916.2,-6.9,-6.3,-88.5,863.4,-0.9,350.4,1932.3,-242.7,0,2118,0,214,0, 
1.1800,51.3,75.3,1132.2,289.5,-80.1,-433.5,1235.7,154.8,-6002.1,1593.3,-727.8,427.8,-1149.6,1240.2,-3804.3,907.2,-7.2,-5.7,-99.9,842.1,-0.3,330.6,1917.9,-231.6,0,2124,0,215,0, 
1.1833,43.5,73.2,1132.5,291.6,-77.7,-434.1,1232.1,159.3,-5112.9,1604.7,-815.4,316.5,-1182.3,1332.0,-2718.0,915.3,-7.2,-5.4,-84.9,847.5,-0.6,327.0,1928.4,-233.1,0,2130,0,216,0, 
1.1867,35.7,77.7,1148.1,307.2,-68.4,-436.2,1227.6,160.5,-6446.7,1622.7,-968.1,225.0,-1224.9,1316.4,-4147.5,916.5,-7.2,-6.3,-61.5,856.5,-0.6,343.2,1912.8,-260.4,0,2136,0,217,0, 
1.1900,39.9,72.3,1147.2,311.1,-64.8,-435.9,1232.7,159.0,-8595.6,1626.9,-1030.8,210.6,-1296.6,1195.5,-6132.3,928.8,-7.2,-5.7,-63.9,858.6,-0.6,346.8,1910.1,-245.4,0,2142,0,218,0, 
1.1933,36.3,74.4,1142.1,307.5,-71.7,-434.4,1230.3,155.1,-8151.0,1619.1,-747.6,405.6,-1331.4,1149.9,-5929.5,924.9,-6.6,-6.0,-69.6,858.9,-0.6,329.4,1916.4,-252.0,0,2148,0,219,0, 
1.1967,44.7,97.2,1154.1,314.7,-66.6,-439.5,1226.1,160.5,-6076.2,1621.8,-735.9,371.4,-1223.4,1247.4,-3830.7,923.7,-6.9,-5.7,-65.4,852.9,-0.6,330.0,1927.8,-294.9,0,2154,0,220,0, 
1.2000,38.7,90.3,1152.3,313.8,-70.5,-442.8,1226.4,164.1,-5112.9,1614.6,-815.4,336.0,-1159.2,1377.3,-2709.3,925.8,-6.9,-6.0,-63.0,843.3,-0.6,339.3,1925.1,-288.6,0,2160,0,221,0, 
1.2033,41.4,87.6,1151.1,310.8,-72.9,-434.7,1229.7,159.0,-6520.8,1638.0,-1209.0,173.1,-1281.6,1343.4,-4139.7,924.6,-6.9,-5.7,-63.6,840.6,-0.3,333.0,1932.3,-252.6,0,2166,0,222,0, 
1.2067,46.8,111.9,1158.3,313.5,-79.5,-428.4,1228.5,158.1,-8373.3,1643.1,-1210.2,201.9,-1281.0,1175.4,-6130.8,920.1,-6.9,-6.0,-63.9,832.8,-1.2,333.6,1923.0,-252.0,0,2172,0,223,0, 
1.2100,45.6,95.1,1143.6,298.8,-94.5,-440.4,1225.5,149.1,-8076.9,1612.2,-906.0,220.8,-1259.7,1150.8,-5922.0,940.5,-6.9,-5.7,-89.1,814.5,-0.9,322.5,1936.2,-298.2,0,2178,0,224,0, 
1.2133,42.6,98.7,1137.6,291.6,-98.4,-438.6,1230.0,151.5,-6076.2,1602.6,-805.8,202.8,-1239.0,1257.9,-3790.8,941.1,-6.6,-6.0,-89.7,821.4,-0.9,323.4,1942.2,-284.4,0,2184,0,225,0, 
1.2167,46.5,96.9,1132.2,284.4,-100.2,-432.6,1228.5,150.3,-4964.7,1594.2,-954.6,146.7,-1171.8,1370.1,-2683.5,931.8,-6.9,-5.7,-95.4,814.2,-0.3,318.0,1945.8,-256.8,0,2190,0,226,0, 
1.2200,53.7,106.5,1143.0,293.1,-91.8,-425.1,1235.1,161.4,-6520.8,1612.2,-1266.6,48.0,-1264.5,1325.4,-4131.3,915.6,-6.9,-5.4,-72.9,833.7,-0.6,328.5,1955.1,-256.8,0,2196,0,227,0, 
1.2233,43.2,98.4,1144.5,297.0,-87.0,-424.5,1240.8,150.9,-8373.3,1626.9,-1269.0,128.1,-1408.5,1174.8,-6152.1,907.8,-6.9,-6.0,-67.8,844.2,-0.6,358.2,1941.3,-242.1,0,2202,0,228,0, 
1.2267,41.4,102.6,1132.8,284.7,-102.0,-444.0,1225.2,141.9,-8225.1,1608.3,-1056.6,198.6,-1380.9,1132.5,-5934.0,925.2,-6.6,-6.0,-73.8,826.2,-0.9,339.9,1916.7,-285.9,0,2208,0,229,0, 
1.2300,46.8,101.4,1128.9,281.7,-105.0,-444.3,1224.0,143.4,-6002.1,1594.8,-926.7,287.4,-1259.1,1249.2,-3831.0,908.7,-6.9,-5.7,-82.2,816.6,-0.9,331.2,1924.2,-272.4,0,2214,0,230,0, 
1.2333,42.6,86.1,1123.2,280.2,-108.3,-455.7,1222.8,151.5,-5187.0,1595.7,-1115.4,153.9,-1143.9,1348.5,-2717.4,909.9,-6.6,-5.7,-93.0,817.5,-0.9,316.2,1922.7,-285.3,0,2220,0,231,0, 
1.2367,34.2,93.6,1130.1,289.2,-96.6,-447.9,1232.7,156.9,-6446.7,1616.1,-1361.7,96.0,-1255.8,1309.8,-4166.4,897.6,-6.9,-6.0,-78.0,832.5,-0.9,331.5,1925.1,-276.3,0,2226,0,232,0, 
1.2400,31.5,85.5,1131.3,285.6,-100.5,-453.6,1222.2,150.3,-8373.3,1609.8,-1379.7,111.9,-1291.2,1183.2,-6150.0,893.1,-6.9,-5.4,-78.0,834.0,-1.2,341.7,1906.5,-295.2,0,2232,0,233,0, 
1.2433,38.1,93.9,1138.8,289.2,-103.5,-447.9,1220.7,147.3,-8151.0,1633.2,-1244.1,111.6,-1278.0,1125.6,-5939.7,891.0,-7.2,-5.4,-75.9,827.7,-0.9,345.9,1895.1,-283.5,0,2238,0,234,0, 
1.2467,29.7,80.7,1124.1,280.5,-105.6,-439.2,1225.8,143.4,-6150.3,1592.4,-1173.6,76.5,-1212.3,1228.8,-3850.2,902.7,-6.9,-5.7,-86.4,826.2,-0.9,328.8,1915.8,-243.3,0,2244,0,235,0, 
1.2500,38.1,93.6,1140.6,289.5,-98.1,-430.2,1228.5,155.4,-4964.7,1616.1,-1295.4,61.8,-1218.9,1327.5,-2751.0,907.2,-6.6,-5.4,-76.2,834.0,-0.9,334.2,1914.0,-213.6,0,2250,0,236,0, 
1.2533,31.8,88.5,1134.0,286.5,-102.0,-430.8,1227.3,147.3,-6520.8,1610.4,-1416.0,24.0,-1269.0,1297.8,-4153.8,895.5,-6.9,-5.4,-90.3,827.1,-0.3,333.9,1900.2,-222.0,0,2256,0,237,0, 
1.2567,37.8,91.5,1137.0,287.7,-99.9,-440.4,1224.6,147.3,-8373.3,1611.3,-1438.2,7.8,-1332.0,1167.0,-6128.1,905.4,-6.6,-5.7,-102.6,827.1,-0.3,328.8,1913.7,-248.7,0,2262,0,238,0, 
1.2600,41.1,107.1,1145.7,294.3,-96.6,-440.7,1227.3,153.6,-8299.2,1620.0,-1176.0,102.9,-1296.9,1116.0,-5923.5,894.6,-6.6,-6.0,-95.4,818.1,-0.6,323.7,1919.1,-260.7,0,2268,0,239,0, 
1.2633,36.0,95.1,1142.7,283.8,-101.4,-454.2,1223.4,155.1,-6076.2,1606.5,-991.8,106.2,-1220.4,1226.7,-3815.1,893.1,-6.9,-5.4,-106.5,814.2,-0.6,319.8,1905.6,-273.6,0,2274,0,240,0, 
1.2667,36.0,96.9,1145.7,286.8,-99.0,-457.5,1231.8,159.0,-5038.8,1611.6,-1099.8,26.1,-1242.9,1344.9,-2725.8,904.2,-6.9,-6.3,-106.2,817.5,-0.9,330.9,1937.4,-294.3,0,2280,0,241,0, 
1.2700,33.6,94.8,1131.3,278.7,-107.4,-456.3,1227.3,148.5,-6594.9,1592.1,-1368.0,-90.0,-1344.0,1326.3,-4157.7,910.5,-6.9,-5.4,-124.2,811.5,-0.9,335.1,1926.9,-301.5,0,2286,0,242,0, 
1.2733,32.4,83.1,1126.2,271.8,-113.1,-465.0,1221.3,136.8,-8299.2,1612.8,-1349.1,-115.5,-1373.7,1184.1,-6155.7,913.2,-6.9,-6.0,-118.5,811.8,-0.9,334.5,1912.5,-308.7,0,2292,0,243,0, 
1.2767,36.6,97.2,1138.8,272.1,-114.6,-473.4,1220.7,136.5,-8225.1,1615.8,-1224.0,-90.9,-1289.4,1127.1,-5960.7,904.5,-6.9,-5.7,-93.9,804.9,-0.6,327.3,1911.0,-304.8,0,2298,0,244,0, 
1.2800,36.9,92.4,1139.7,279.0,-107.4,-451.2,1228.8,148.5,-6002.1,1615.8,-1081.8,-15.0,-1169.4,1243.8,-3853.8,908.4,-6.6,-5.4,-97.2,815.1,-0.9,330.3,1908.6,-266.4,0,2304,0,245,0, 
1.2833,30.3,83.1,1132.8,279.6,-108.9,-456.6,1230.0,151.5,-5112.9,1608.3,-1145.7,-3.9,-1194.6,1351.5,-2748.3,911.7,-6.9,-5.4,-108.9,816.0,-0.6,329.7,1920.0,-287.7,0,2310,0,246,0, 
1.2867,30.3,73.2,1132.8,279.9,-111.6,-455.1,1230.9,148.5,-6520.8,1605.9,-1459.8,-94.8,-1288.2,1325.1,-4177.2,914.1,-7.2,-5.7,-117.9,811.5,-0.9,330.3,1914.3,-300.0,0,2316,0,247,0, 
1.2900,25.8,70.8,1125.3,279.3,-112.2,-453.3,1226.4,145.8,-8447.4,1590.6,-1512.3,-83.7,-1315.5,1203.6,-6155.4,911.7,-6.6,-6.0,-115.8,803.1,-0.6,321.6,1897.2,-288.3,0,2322,0,248,0, 
1.2933,31.5,88.2,1134.9,282.9,-107.1,-448.5,1228.5,149.4,-8076.9,1609.8,-1310.4,6.3,-1274.7,1149.0,-5952.6,915.6,-6.9,-5.4,-114.6,803.4,-0.9,327.3,1916.1,-279.6,0,2328,0,249,0, 
1.2967,36.3,76.8,1129.2,281.7,-104.7,-445.5,1223.7,153.6,-6150.3,1600.5,-1189.5,-16.8,-1208.1,1262.4,-3862.2,894.3,-6.9,-5.7,-121.2,812.7,-0.3,327.3,1905.0,-264.3,0,2334,0,250,0, 
1.3000,32.4,75.9,1132.8,282.3,-98.4,-439.5,1227.9,159.6,-5038.8,1607.1,-1381.2,-78.9,-1206.3,1363.5,-2766.0,900.3,-6.9,-5.7,-126.6,813.3,-0.9,320.7,1902.9,-251.7,0,2340,0,251,0, 
1.3033,40.8,92.4,1139.7,289.2,-98.4,-447.0,1229.7,163.8,-6594.9,1621.2,-1620.3,-181.5,-1293.6,1335.9,-4194.3,900.9,-6.9,-5.7,-120.9,813.9,-0.9,331.2,1910.1,-265.2,0,2346,0,252,0, 
1.3067,41.1,100.8,1138.2,283.2,-103.8,-445.2,1229.4,151.2,-8521.5,1623.0,-1550.4,-79.2,-1330.5,1204.2,-6174.0,904.8,-6.3,-5.7,-111.3,809.1,-0.6,329.4,1910.4,-281.4,0,2352,0,253,0, 
1.3100,38.4,107.1,1134.0,282.3,-107.7,-452.7,1222.8,142.8,-8151.0,1620.6,-1488.0,88.5,-1319.7,1136.7,-5995.2,900.9,-6.9,-5.7,-106.8,807.3,-0.9,328.8,1894.8,-272.4,0,2358,0,254,0, 
1.3133,38.1,98.4,1133.7,279.9,-99.0,-444.0,1231.8,144.3,-5928.0,1602.3,-1367.7,50.4,-1212.6,1243.8,-3906.3,902.4,-6.9,-6.0,-115.2,819.6,-0.6,329.4,1926.3,-232.2,0,2364,0,255,0, 
1.3167,30.9,96.9,1128.9,281.4,-101.7,-441.9,1233.0,147.6,-5112.9,1616.4,-1522.2,36.0,-1189.5,1359.9,-2800.8,896.7,-6.9,-5.7,-119.7,819.3,-0.6,335.4,1906.2,-232.5,0,2370,0,0,0, 
1.3200,42.0,94.8,1138.8,284.7,-96.3,-431.1,1242.9,152.7,-6594.9,1624.2,-1756.5,-88.2,-1238.4,1335.6,-4219.2,916.2,-6.6,-6.0,-115.2,821.4,-0.6,320.4,1919.7,-248.1,0,2376,0,1,0, 
1.3233,51.9,103.8,1146.0,288.0,-97.5,-450.6,1233.0,146.7,-8521.5,1616.4,-1789.8,-90.9,-1280.4,1199.1,-6186.9,925.5,-6.9,-5.7,-110.7,810.9,-0.6,333.9,1919.7,-302.7,0,2382,0,2,0, 
1.3267,43.8,98.7,1142.1,290.4,-87.3,-435.0,1243.5,150.9,-8076.9,1615.5,-1548.6,-10.5,-1267.5,1137.9,-5992.2,924.3,-6.9,-5.7,-108.6,819.0,-0.6,345.9,1941.0,-278.4,0,2388,0,3,0, 
1.3300,40.5,99.6,1142.1,291.6,-86.4,-434.1,1236.9,154.5,-6224.4,1622.4,-1307.1,-58.2,-1311.6,1225.5,-3898.5,909.6,-7.2,-6.0,-117.3,815.4,-0.9,338.4,1928.1,-265.8,0,2394,0,4,0, 
1.3333,47.1,118.5,1143.6,287.7,-97.5,-441.6,1235.4,156.3,-5112.9,1599.0,-1497.0,-282.3,-1263.6,1336.2,-2793.3,912.0,-6.6,-6.0,-123.0,805.8,-0.6,323.7,1927.2,-276.6,0,2400,0,5,0, 
1.3367,49.8,133.8,1148.1,290.7,-93.0,-435.0,1240.5,162.0,-6743.1,1595.1,-1771.8,-395.1,-1280.1,1290.0,-4223.4,918.0,-6.9,-5.7,-112.2,808.5,-0.6,324.6,1919.4,-272.7,0,2406,0,6,0, 
1.3400,47.4,130.5,1144.2,288.9,-101.1,-438.3,1233.9,156.9,-8595.6,1595.4,-1673.4,-356.1,-1358.7,1147.5,-6237.6,912.3,-6.9,-5.7,-108.6,794.7,-0.6,315.0,1899.3,-284.7,0,2412,0,7,0, 
1.3433,40.5,108.0,1135.5,282.0,-103.8,-448.8,1223.7,148.8,-8225.1,1610.1,-1402.8,-296.4,-1319.4,1083.0,-6027.3,913.8,-6.9,-5.4,-123.3,789.3,-0.6,305.7,1897.5,-303.6,0,2418,0,8,0, 
1.3467,45.3,104.4,1142.7,287.7,-93.6,-437.4,1235.7,158.7,-6076.2,1611.0,-1198.8,-207.6,-1172.4,1215.9,-3901.8,915.3,-6.6,-6.0,-117.0,807.6,-0.6,320.7,1896.9,-268.5,0,2424,0,9,0, 
1.3500,35.4,74.1,1132.5,284.1,-90.3,-433.8,1227.0,157.2,-5038.8,1603.8,-1364.7,-210.3,-1155.3,1346.7,-2772.3,893.4,-6.9,-5.7,-116.1,815.1,-0.6,320.4,1891.2,-250.2,0,2430,0,10,0, 
1.3533,26.1,71.4,1124.4,278.7,-97.2,-444.3,1224.3,146.1,-6446.7,1607.1,-1587.0,-217.5,-1246.5,1322.4,-4199.4,887.7,-6.6,-5.7,-132.3,807.6,-0.6,325.2,1893.0,-272.1,0,2436,0,11,0, 
1.3567,35.7,73.5,1122.9,279.6,-96.3,-453.6,1224.6,138.0,-8447.4,1612.5,-1550.7,-233.1,-1287.3,1184.7,-6185.1,914.4,-6.9,-5.7,-126.0,811.8,-0.6,312.0,1911.9,-297.0,0,2442,0,12,0, 
1.3600,31.2,78.9,1126.2,281.4,-96.3,-454.2,1224.0,137.7,-8151.0,1613.4,-1246.8,-189.0,-1293.9,1123.5,-5985.0,904.2,-6.9,-5.7,-108.6,810.9,-0.9,329.1,1895.7,-306.3,0,2448,0,13,0, 
1.3633,30.0,78.9,1120.5,278.7,-103.2,-463.5,1218.9,141.6,-6076.2,1603.2,-1099.8,-189.3,-1250.4,1233.0,-3884.7,886.8,-6.9,-5.7,-104.7,813.6,-0.3,325.2,1895.7,-314.4,0,2454,0,14,0, 
1.3667,44.1,102.6,1133.1,288.0,-90.9,-450.6,1227.6,158.1,-5038.8,1613.1,-1125.9,-215.1,-1226.1,1356.9,-2753.7,903.0,-6.6,-5.7,-92.1,818.1,-0.3,322.5,1892.1,-285.0,0,2460,0,15,0, 
1.3700,36.3,113.1,1132.5,285.9,-93.9,-447.9,1229.7,154.2,-6594.9,1599.0,-1333.2,-278.7,-1255.2,1303.5,-4175.1,894.3,-7.2,-5.7,-91.8,811.2,-0.9,298.5,1906.8,-253.2,0,2466,0,16,0, 
1.3733,33.3,105.0,1121.1,277.5,-103.5,-451.2,1228.8,144.9,-8595.6,1587.9,-1340.7,-329.7,-1319.1,1159.5,-6170.4,882.0,-6.6,-6.0,-103.5,796.8,-0.9,287.7,1909.8,-255.3,0,2472,0,17,0, 
1.3767,33.6,90.0,1126.5,275.1,-107.4,-453.6,1219.8,148.8,-8151.0,1597.2,-1096.5,-256.8,-1331.1,1104.0,-5986.5,883.8,-6.9,-5.7,-97.5,798.3,-0.9,309.0,1899.9,-301.2,0,2478,0,18,0, 
1.3800,37.5,87.0,1126.2,275.7,-99.9,-456.3,1223.1,155.4,-6150.3,1605.0,-862.2,-190.5,-1264.5,1221.0,-3876.9,896.4,-6.9,-6.0,-97.5,808.5,-0.9,322.8,1915.2,-331.5,0,2484,0,19,0, 
1.3833,37.2,90.0,1119.9,275.7,-99.0,-452.7,1223.1,155.7,-5187.0,1605.9,-1045.2,-326.4,-1224.3,1364.1,-2757.6,896.1,-7.2,-6.3,-99.9,807.0,-0.9,324.0,1884.0,-295.5,0,2490,0,20,0, 
1.3867,34.2,86.7,1116.3,269.7,-105.3,-452.7,1220.1,151.2,-6594.9,1595.4,-1326.3,-324.6,-1261.5,1326.3,-4186.5,896.1,-6.6,-5.4,-109.2,796.8,-0.9,315.9,1894.5,-300.9,0,2496,0,21,0, 
1.3900,30.6,74.4,1108.5,265.5,-103.2,-454.2,1222.2,141.0,-8373.3,1601.1,-1210.8,-270.6,-1304.1,1192.2,-6178.2,889.8,-6.6,-5.7,-121.5,790.8,-0.6,316.2,1899.0,-291.9,0,2502,0,22,0, 
1.3933,34.5,76.2,1121.1,272.4,-104.7,-454.5,1222.2,140.7,-8002.8,1603.5,-955.8,-89.7,-1262.7,1143.9,-5989.2,894.6,-6.9,-6.0,-92.1,798.3,-0.6,324.3,1897.8,-299.4,0,2508,0,23,0, 
1.3967,35.7,85.5,1137.6,280.5,-97.5,-450.9,1220.1,139.5,-6224.4,1627.2,-797.1,-11.7,-1201.8,1254.9,-3880.2,880.8,-7.2,-6.0,-60.3,810.0,-0.6,320.7,1887.9,-268.8,0,2514,0,24,0, 
1.4000,32.4,87.6,1140.3,282.9,-95.7,-448.5,1221.3,142.8,-4890.6,1624.8,-1052.1,-54.6,-1210.2,1369.8,-2761.5,883.2,-6.9,-5.4,-54.0,819.9,-0.9,321.9,1900.8,-267.3,0,2520,0,25,0, 
1.4033,39.0,98.7,1133.1,273.0,-104.7,-463.5,1217.1,142.2,-6446.7,1602.3,-1358.7,-149.1,-1220.4,1356.6,-4166.4,894.3,-6.9,-6.0,-81.6,800.4,-1.2,309.3,1917.6,-293.7,0,2526,0,26,0, 
1.4067,32.4,99.3,1126.5,261.6,-116.1,-462.9,1215.6,132.9,-8447.4,1592.4,-1218.3,-32.1,-1463.4,1195.5,-6198.3,886.8,-6.6,-6.0,-110.1,785.4,-0.9,307.5,1908.3,-278.1,0,2532,0,27,0, 
1.4100,45.9,129.9,1133.7,264.3,-114.0,-455.4,1225.5,137.7,-8299.2,1601.1,-956.4,19.5,-1376.7,1104.9,-6014.7,879.9,-7.2,-5.7,-109.2,776.1,-0.6,294.6,1928.4,-240.0,0,2538,0,28,0, 
1.4133,38.7,116.1,1139.1,266.4,-111.6,-461.1,1212.6,142.8,-6150.3,1589.1,-766.5,40.8,-1183.8,1193.4,-3906.3,885.6,-6.9,-5.4,-102.3,777.9,-0.9,305.4,1882.2,-263.1,0,2544,0,29,0, 
1.4167,34.5,94.5,1133.1,265.5,-108.3,-454.5,1227.0,149.7,-5112.9,1596.9,-879.6,10.8,-1192.8,1341.3,-2790.3,886.5,-7.5,-5.4,-111.3,783.3,-0.3,306.0,1903.8,-249.9,0,2550,0,30,0, 
1.4200,25.2,88.8,1139.1,267.6,-103.5,-453.9,1230.0,153.0,-6594.9,1602.9,-1021.8,-66.0,-1291.5,1297.8,-4210.2,894.6,-6.9,-5.4,-103.8,793.2,-0.9,309.6,1914.9,-238.8,0,2556,0,31,0, 
1.4233,25.2,73.5,1137.3,268.8,-102.9,-460.2,1225.8,145.2,-8373.3,1616.7,-1148.4,-77.1,-1308.9,1174.2,-6209.1,890.4,-6.9,-6.0,-107.1,797.7,-0.3,317.4,1921.2,-288.0,0,2562,0,32,0, 
1.4267,29.4,68.7,1131.6,264.3,-107.1,-469.2,1218.3,139.5,-8299.2,1602.0,-811.8,11.1,-1269.0,1129.2,-6015.9,888.3,-7.2,-6.0,-109.8,790.5,-0.6,325.2,1911.9,-312.6,0,2568,0,33,0, 
1.4300,27.9,64.5,1134.6,270.0,-105.3,-467.7,1225.5,149.4,-6298.5,1599.9,-748.2,66.0,-1204.2,1229.7,-3926.7,899.1,-6.6,-5.7,-96.3,793.5,-0.9,321.6,1919.7,-276.9,0,2574,0,34,0, 
1.4333,29.4,73.2,1141.5,271.5,-99.9,-468.6,1221.9,149.7,-5187.0,1609.5,-931.5,-51.0,-1185.3,1359.0,-2799.3,895.2,-6.9,-5.4,-84.0,795.6,-0.9,315.9,1902.6,-296.7,0,2580,0,35,0, 
1.4367,26.7,74.1,1140.3,272.4,-101.7,-472.2,1214.7,147.3,-6446.7,1618.2,-1235.7,-71.7,-1238.4,1327.5,-4193.4,901.5,-6.9,-6.0,-80.1,798.0,-0.9,327.0,1904.7,-319.5,0,2586,0,36,0, 
1.4400,25.8,80.4,1143.9,275.7,-98.1,-468.0,1216.5,137.7,-8595.6,1616.4,-1121.7,-78.6,-1294.5,1202.7,-6187.5,906.3,-6.6,-6.3,-72.0,805.8,-0.9,329.4,1918.2,-314.1,0,2592,0,37,0, 
1.4433,23.4,86.7,1153.2,286.5,-86.1,-454.8,1221.3,142.8,-8299.2,1622.1,-900.9,61.5,-1263.3,1124.7,-6025.8,905.1,-6.9,-6.3,-63.6,815.1,-0.6,338.7,1916.4,-274.5,0,2598,0,38,0, 
1.4467,18.0,88.5,1158.3,284.7,-85.8,-451.2,1227.0,144.6,-6150.3,1624.2,-852.0,66.3,-1245.6,1217.4,-3952.5,898.5,-7.2,-6.0,-69.6,809.1,0.0,318.6,1947.3,-243.0,0,2604,0,39,0, 
1.4500,18.3,82.2,1148.7,276.9,-98.1,-461.4,1214.7,139.8,-5112.9,1607.4,-991.8,-15.6,-1255.2,1346.7,-2838.6,889.5,-6.9,-5.7,-85.2,790.8,-0.9,320.4,1916.4,-251.7,0,2610,0,40,0, 
1.4533,19.5,90.9,1151.4,278.7,-103.8,-472.5,1219.2,138.9,-6669.0,1609.2,-1181.7,-32.1,-1349.1,1313.4,-4252.5,888.6,-6.9,-5.7,-78.3,791.1,-0.9,306.0,1920.3,-254.1,0,2616,0,41,0, 
1.4567,18.3,87.9,1155.3,275.7,-102.9,-464.1,1220.4,132.9,-8447.4,1623.3,-1080.3,42.3,-1398.0,1176.6,-6261.3,898.2,-6.6,-5.7,-81.6,794.7,-0.6,320.1,1907.1,-241.8,0,2622,0,42,0, 
1.4600,32.1,107.4,1176.6,286.5,-96.6,-464.1,1219.2,140.7,-8299.2,1635.9,-787.2,146.7,-1238.7,1129.2,-6054.3,895.2,-6.3,-6.0,-69.6,800.4,-0.9,333.0,1915.5,-249.6,0,2628,0,43,0, 
1.4633,28.2,104.4,1176.0,285.9,-98.7,-464.4,1220.1,143.4,-6076.2,1636.5,-608.1,254.7,-1198.8,1232.1,-3957.3,903.0,-6.9,-5.7,-78.9,799.5,-0.6,340.2,1914.6,-248.7,0,2634,0,44,0, 
1.4667,28.8,102.6,1170.9,282.6,-96.9,-455.7,1224.6,149.1,-5187.0,1616.4,-789.9,164.1,-1319.1,1336.5,-2893.5,891.3,-7.2,-6.0,-99.3,806.4,-0.6,331.2,1927.8,-234.6,0,2640,0,45,0, 
1.4700,28.5,84.6,1165.5,279.6,-95.4,-462.9,1227.9,145.2,-6669.0,1611.6,-1022.7,16.8,-1245.9,1323.0,-4285.2,915.6,-6.6,-5.7,-87.9,798.3,-0.9,325.2,1956.6,-268.2,0,2646,0,46,0, 
1.4733,30.6,75.0,1173.0,286.8,-94.5,-459.6,1220.1,143.7,-8595.6,1623.3,-978.0,79.8,-1257.6,1195.5,-6270.0,903.0,-7.2,-5.4,-73.2,806.4,-0.6,336.9,1928.1,-264.6,0,2652,0,47,0, 
1.4767,30.3,72.3,1179.9,292.2,-87.6,-454.2,1224.3,140.7,-8299.2,1652.4,-823.5,159.6,-1182.6,1142.7,-6057.9,915.6,-6.6,-6.0,-65.4,807.9,-0.9,335.1,1934.1,-251.4,0,2658,0,48,0, 
1.4800,30.9,84.3,1184.1,294.3,-83.1,-454.2,1224.6,149.1,-6150.3,1640.1,-614.1,225.0,-1114.2,1224.9,-3962.4,898.2,-6.9,-6.0,-65.7,811.2,-0.9,342.3,1939.8,-246.6,0,2664,0,49,0, 
1.4833,19.2,79.2,1182.0,298.2,-77.7,-444.3,1233.0,151.2,-5187.0,1628.7,-677.7,93.3,-1167.6,1317.3,-2861.7,904.5,-6.9,-5.4,-67.5,822.0,-0.6,346.5,1965.9,-246.0,0,2670,0,50,0, 
1.4867,25.5,86.1,1185.3,297.9,-81.0,-452.1,1222.8,151.8,-6669.0,1630.2,-941.7,10.8,-1233.9,1332.0,-4248.6,901.5,-6.6,-5.7,-60.0,817.2,-0.3,348.6,1939.2,-256.2,0,2676,0,51,0, 
1.4900,21.3,96.3,1189.5,297.6,-81.0,-463.8,1221.3,146.4,-8669.7,1645.2,-944.1,91.2,-1301.7,1177.5,-6257.1,892.2,-7.2,-5.7,-42.3,802.8,-0.6,344.4,1942.2,-297.9,0,2682,0,52,0, 
1.4933,26.4,100.5,1191.3,298.8,-79.2,-455.4,1222.2,147.0,-8151.0,1638.0,-778.2,235.5,-1287.9,1160.1,-6063.3,891.9,-6.9,-5.7,-44.7,808.2,-0.6,348.6,1922.1,-294.6,0,2688,0,53,0, 
1.4967,35.4,114.9,1202.1,303.9,-73.5,-445.8,1227.9,154.8,-6224.4,1647.9,-558.6,303.9,-1228.8,1253.1,-3958.8,903.0,-7.2,-6.0,-42.6,817.2,-0.9,357.6,1957.8,-273.3,0,2694,0,54,0, 
1.5000,38.1,120.6,1200.9,303.3,-75.9,-443.4,1231.5,156.9,-4964.7,1645.8,-774.9,144.0,-1229.4,1365.9,-2834.4,902.1,-7.2,-5.7,-48.9,820.2,-0.6,358.8,1961.1,-241.8,0,2700,0,55,0, 
1.5033,39.0,138.6,1199.7,301.2,-82.5,-442.8,1224.0,155.4,-6594.9,1622.7,-1013.7,40.5,-1446.0,1316.4,-4273.2,904.5,-6.9,-6.0,-61.5,807.6,-1.2,333.0,1911.6,-217.8,0,2706,0,56,0, 
1.5067,30.0,102.9,1189.2,296.1,-79.8,-445.8,1221.9,146.7,-8447.4,1630.5,-1012.2,89.4,-1405.5,1190.1,-6256.8,902.4,-6.9,-5.4,-69.6,801.6,0.0,333.0,1922.1,-233.1,0,2712,0,57,0, 
1.5100,18.9,75.3,1187.1,295.2,-84.6,-456.3,1216.2,144.0,-8151.0,1644.0,-796.8,171.0,-1215.0,1147.5,-6036.9,894.3,-7.2,-6.0,-62.4,792.0,-0.6,338.4,1906.2,-278.7,0,2718,0,58,0, 
1.5133,18.6,71.7,1179.6,290.1,-92.1,-462.3,1213.2,147.0,-6076.2,1620.9,-668.4,282.0,-1179.3,1265.1,-3931.5,902.7,-7.2,-5.4,-74.1,789.3,-0.9,329.7,1914.6,-278.7,0,2724,0,59,0, 
1.5167,23.4,82.2,1194.3,296.4,-89.7,-454.5,1211.7,156.3,-5112.9,1625.4,-808.2,149.1,-1129.5,1367.1,-2808.3,890.4,-6.9,-6.0,-56.1,791.4,-0.9,319.8,1899.0,-255.3,0,2730,0,60,0, 
1.5200,18.9,84.6,1188.9,297.9,-86.7,-447.6,1224.0,155.7,-6594.9,1621.2,-1008.6,66.0,-1252.5,1316.4,-4229.4,899.1,-7.2,-6.0,-68.1,791.1,-0.6,322.8,1911.3,-245.1,0,2736,0,61,0, 
1.5233,18.3,84.9,1182.6,292.8,-90.3,-447.6,1221.9,142.5,-8447.4,1615.2,-825.9,117.9,-1329.3,1178.7,-6238.2,897.3,-6.9,-6.0,-81.9,794.7,-0.9,328.2,1921.8,-252.9,0,2742,0,62,0, 
1.5267,10.5,68.4,1174.8,282.9,-96.3,-446.7,1216.8,130.8,-8151.0,1601.7,-742.2,220.2,-1266.9,1136.4,-6042.0,906.3,-6.6,-5.7,-96.9,799.2,-1.2,332.7,1929.0,-223.5,0,2748,0,63,0, 
1.5300,10.5,51.0,1173.9,284.7,-98.7,-443.1,1221.3,137.4,-6076.2,1612.5,-460.5,281.4,-1153.5,1253.1,-3930.0,902.4,-6.9,-5.4,-101.7,797.1,-0.9,329.1,1928.7,-216.6,0,2754,0,64,0, 
1.5333,1.2,54.6,1173.6,282.0,-98.7,-453.6,1215.3,137.7,-5112.9,1622.4,-620.7,208.5,-1135.5,1335.3,-2830.5,895.2,-6.9,-6.0,-92.4,797.1,-0.6,324.3,1925.4,-246.9,0,2760,0,65,0, 
1.5367,13.8,70.5,1186.5,289.8,-94.2,-461.4,1215.9,145.2,-6669.0,1625.7,-798.0,58.8,-1227.0,1318.8,-4250.1,908.7,-6.9,-6.0,-88.8,805.8,-0.9,335.7,1947.6,-285.9,0,2766,0,66,0, 
1.5400,15.6,100.2,1194.0,290.4,-94.2,-468.9,1209.9,137.7,-8521.5,1617.0,-864.3,70.8,-1329.0,1173.0,-6236.1,908.1,-6.6,-6.0,-84.0,797.7,-0.9,334.5,1947.0,-297.6,0,2772,0,67,0, 
1.5433,23.1,99.3,1189.2,289.5,-91.5,-462.9,1213.8,140.7,-8225.1,1617.6,-576.6,209.7,-1293.0,1126.5,-6022.8,899.4,-6.6,-5.7,-88.8,796.2,-0.3,326.4,1922.7,-275.1,0,2778,0,68,0, 
1.5467,19.2,110.7,1199.1,301.2,-78.9,-441.6,1221.9,154.2,-6224.4,1631.1,-439.2,219.0,-1299.6,1214.7,-3944.7,908.4,-6.6,-5.7,-68.4,811.5,-0.9,343.2,1941.9,-246.6,0,2784,0,69,0, 
1.5500,18.3,94.8,1191.6,299.1,-88.2,-451.2,1219.5,153.9,-5038.8,1627.2,-681.3,64.2,-1289.4,1349.1,-2803.8,910.8,-6.9,-6.0,-77.4,804.3,-0.9,336.0,1943.7,-263.4,0,2790,0,70,0, 
1.5533,23.7,93.9,1188.3,293.1,-85.8,-453.6,1213.2,146.7,-6520.8,1614.9,-847.2,28.5,-1237.2,1328.7,-4182.6,900.0,-6.9,-5.7,-91.2,796.2,-0.9,326.1,1934.4,-268.5,0,2796,0,71,0, 
1.5567,12.3,71.4,1183.2,292.2,-82.8,-438.6,1214.4,140.7,-8595.6,1638.6,-911.4,78.6,-1242.9,1187.1,-6192.0,904.5,-7.2,-6.0,-85.5,798.0,-0.6,348.0,1931.7,-211.8,0,2802,0,72,0, 
1.5600,17.4,81.3,1187.7,292.8,-79.5,-432.9,1217.4,143.4,-8225.1,1623.0,-534.3,176.1,-1244.1,1155.6,-5986.8,892.2,-6.6,-6.0,-83.1,800.1,-0.6,331.8,1928.7,-190.2,0,2808,0,73,0, 
1.5633,15.9,73.5,1183.5,294.6,-78.6,-436.5,1219.5,150.3,-6150.3,1625.4,-405.9,196.8,-1181.4,1250.7,-3855.9,902.7,-6.9,-6.3,-86.1,798.9,-0.6,332.4,1940.4,-212.7,0,2814,0,74,0, 
1.5667,17.1,87.3,1191.3,303.0,-74.1,-446.4,1217.4,156.6,-5112.9,1630.8,-560.7,134.1,-1138.8,1356.6,-2729.7,904.8,-7.2,-6.0,-72.9,803.7,-0.6,344.4,1924.2,-273.0,0,2820,0,75,0, 
1.5700,14.1,81.9,1189.8,301.8,-75.3,-443.7,1219.8,155.4,-6520.8,1629.3,-755.4,-1.2,-1271.4,1320.9,-4160.1,909.9,-7.2,-6.0,-63.9,803.7,-0.9,333.9,1926.6,-273.9,0,2826,0,76,0, 
1.5733,18.0,81.9,1189.2,296.4,-79.2,-453.9,1218.3,150.3,-8447.4,1630.2,-701.7,52.2,-1282.5,1190.1,-6161.1,904.2,-7.2,-5.7,-62.7,799.8,-0.3,355.2,1926.6,-277.2,0,2832,0,77,0, 
1.5767,24.3,90.9,1192.8,291.9,-77.7,-445.5,1224.9,147.9,-8299.2,1616.7,-399.0,199.2,-1270.2,1156.5,-5970.9,911.1,-6.6,-6.0,-70.5,796.5,-0.3,339.6,1939.8,-247.8,0,2838,0,78,0, 
1.5800,27.3,102.3,1200.0,294.3,-81.0,-462.0,1211.7,150.3,-6224.4,1625.4,-246.3,276.0,-1167.3,1248.0,-3878.1,899.4,-6.6,-5.7,-63.0,793.2,-0.9,340.5,1936.8,-282.9,0,2844,0,79,0, 
1.5833,26.1,89.1,1199.7,299.7,-78.3,-453.9,1213.5,153.6,-5038.8,1641.6,-306.3,271.2,-1157.7,1374.9,-2772.3,902.4,-6.9,-6.0,-53.4,801.9,-0.6,345.0,1932.6,-279.3,0,2850,0,80,0, 
1.5867,27.0,96.9,1201.8,302.1,-79.5,-453.6,1213.2,153.3,-6520.8,1659.3,-546.3,235.5,-1242.6,1335.9,-4187.1,905.4,-7.2,-5.4,-42.9,806.1,-0.6,352.8,1932.0,-269.4,0,2856,0,81,0, 
1.5900,29.1,92.1,1194.9,292.2,-84.9,-460.5,1211.7,143.7,-8521.5,1641.9,-561.0,287.4,-1293.6,1202.1,-6192.9,892.5,-7.2,-6.0,-44.7,789.9,-1.5,335.4,1928.4,-254.7,0,2862,0,82,0, 
1.5933,35.4,78.9,1181.4,284.7,-92.4,-459.3,1215.0,137.1,-8151.0,1625.4,-396.6,394.2,-1260.0,1167.6,-6001.2,903.3,-6.9,-5.7,-61.8,785.1,-0.6,327.0,1953.0,-232.2,0,2868,0,83,0, 
1.5967,40.2,105.0,1200.0,305.7,-78.3,-443.4,1222.2,155.1,-6150.3,1633.8,-147.6,558.3,-1220.4,1272.0,-3894.0,905.7,-6.9,-5.7,-46.5,801.6,-0.9,336.6,1940.1,-207.3,0,2874,0,84,0, 
1.6000,37.8,108.6,1208.7,311.7,-72.6,-444.0,1223.1,162.9,-5038.8,1650.9,-308.7,538.8,-1196.7,1393.8,-2764.2,896.7,-7.2,-6.0,-36.3,807.9,0.0,359.4,1926.6,-231.6,0,2880,0,85,0, 
1.6033,33.3,110.4,1201.8,309.9,-76.8,-445.8,1221.0,160.8,-6594.9,1634.7,-512.7,417.0,-1297.8,1344.6,-4176.3,906.0,-7.2,-6.0,-34.2,807.6,-0.9,369.6,1932.0,-241.2,0,2886,0,86,0, 
1.6067,25.8,100.2,1193.1,300.3,-84.9,-447.3,1222.5,152.1,-8521.5,1635.3,-447.9,423.0,-1402.8,1200.0,-6190.8,901.8,-6.6,-6.0,-42.0,798.6,-0.9,337.8,1932.9,-220.8,0,2892,0,87,0, 
1.6100,30.0,101.4,1191.6,298.8,-90.9,-450.9,1215.9,147.3,-8225.1,1632.3,-223.5,425.4,-1262.1,1137.0,-5998.5,900.6,-6.6,-5.7,-38.1,791.4,-0.9,337.5,1949.4,-232.2,0,2898,0,88,0, 
1.6133,29.1,87.6,1183.8,289.5,-92.7,-457.2,1206.6,150.3,-6150.3,1629.9,-51.0,441.6,-1148.4,1250.7,-3908.1,897.6,-6.6,-6.0,-39.0,780.0,-0.6,330.0,1929.9,-243.3,0,2904,0,89,0, 
1.6167,17.1,74.7,1181.1,283.2,-99.6,-464.4,1203.3,149.4,-5187.0,1635.6,-195.6,390.3,-1146.0,1362.6,-2795.4,900.6,-7.2,-5.7,-38.4,774.9,-0.9,333.0,1937.7,-266.4,0,2910,0,90,0, 
1.6200,19.5,84.3,1191.3,286.8,-93.3,-465.6,1208.1,141.9,-6594.9,1648.8,-389.4,286.5,-1229.7,1329.9,-4216.8,892.5,-6.6,-6.0,-28.5,791.7,-0.6,340.8,1926.6,-271.8,0,2916,0,91,0, 
1.6233,27.0,89.7,1187.1,284.1,-100.2,-466.2,1207.8,135.9,-8447.4,1619.1,-441.6,358.5,-1284.9,1188.9,-6222.3,894.3,-6.9,-6.3,-36.9,782.1,-0.6,336.0,1928.4,-265.5,0,2922,0,92,0, 
1.6267,26.7,99.3,1195.2,291.0,-89.4,-455.7,1217.4,145.5,-8299.2,1644.6,-222.3,541.5,-1273.5,1139.4,-6053.7,897.3,-6.9,-5.7,-29.7,790.5,-0.9,350.7,1945.2,-261.9,0,2928,0,93,0, 
1.6300,34.5,99.6,1196.4,299.7,-84.9,-452.7,1223.7,156.3,-6150.3,1642.8,47.7,630.6,-1164.9,1239.9,-3965.7,907.8,-6.9,-5.4,-28.5,798.9,-0.9,354.3,1959.6,-264.3,0,2934,0,94,0, 
1.6333,29.4,95.7,1191.6,299.1,-77.4,-454.2,1215.9,159.6,-5187.0,1629.0,-192.9,490.2,-1216.2,1359.0,-2842.2,898.8,-6.6,-6.3,-29.7,807.9,-0.9,359.7,1941.0,-255.3,0,2940,0,95,0, 
1.6367,38.4,128.7,1194.6,296.7,-76.2,-457.2,1220.1,156.0,-6669.0,1630.5,-424.5,417.0,-1287.0,1314.3,-4249.8,883.5,-7.2,-5.7,-34.2,800.7,-0.6,353.7,1949.4,-262.8,0,2946,0,96,0, 
1.6400,32.1,110.4,1196.1,301.8,-74.4,-450.9,1222.8,156.3,-8521.5,1647.0,-444.6,402.3,-1307.7,1170.3,-6247.5,898.2,-6.9,-6.0,-33.9,803.4,-0.9,361.2,1935.0,-255.6,0,2952,0,97,0, 
1.6433,27.3,92.7,1190.4,294.9,-85.8,-458.7,1215.0,149.1,-8373.3,1641.3,-225.9,499.5,-1253.1,1147.2,-6062.1,893.7,-7.2,-6.0,-47.7,798.0,-0.9,353.4,1921.5,-270.3,0,2958,0,98,0, 
1.6467,24.3,74.4,1176.3,283.8,-93.0,-464.4,1213.5,148.2,-6150.3,1629.3,-136.5,563.4,-1182.3,1258.5,-3943.5,891.6,-6.6,-5.7,-50.7,786.9,-0.6,347.1,1920.3,-278.7,0,2964,0,99,0, 
1.6500,27.0,81.3,1175.4,278.4,-92.7,-463.5,1218.9,152.4,-4964.7,1632.9,-263.1,484.8,-1288.5,1373.7,-2812.5,898.5,-6.9,-5.7,-53.1,782.1,-0.9,336.3,1962.6,-264.3,0,2970,0,100,0, 
1.6533,34.8,92.1,1175.1,280.8,-90.6,-455.4,1221.3,155.4,-6594.9,1635.3,-521.1,406.5,-1302.9,1337.1,-4231.5,910.2,-7.2,-6.0,-51.9,776.7,-1.2,341.7,1949.7,-249.3,0,2976,0,101,0, 
1.6567,32.1,86.1,1175.4,285.3,-83.4,-450.3,1218.3,151.5,-8373.3,1646.4,-516.9,479.7,-1305.0,1199.7,-6199.8,904.5,-6.6,-5.7,-43.8,780.9,-0.9,347.1,1912.5,-220.8,0,2982,0,102,0, 
1.6600,26.7,82.5,1186.2,284.7,-78.9,-440.4,1222.5,148.8,-8225.1,1638.3,-292.5,631.2,-1233.6,1144.5,-6000.3,894.9,-6.9,-5.7,-26.7,785.1,-0.6,352.2,1941.6,-207.0,0,2988,0,103,0, 
1.6633,29.7,89.1,1197.0,289.8,-79.2,-434.4,1218.3,159.3,-6002.1,1651.8,-141.9,623.1,-1189.2,1251.0,-3882.3,903.6,-6.6,-6.0,-21.6,796.5,-0.9,357.6,1931.7,-192.9,0,2994,0,104,0, 
1.6667,32.7,97.5,1189.8,287.4,-87.0,-436.8,1214.4,159.3,-5112.9,1650.0,-273.9,573.9,-1184.4,1353.9,-2764.8,890.4,-6.9,-5.7,-27.0,785.7,-0.6,354.6,1920.6,-185.1,0,3000,0,105,0, 
1.6700,34.8,111.3,1193.4,290.1,-83.7,-441.0,1219.2,159.6,-6446.7,1664.4,-485.1,519.3,-1192.2,1306.5,-4159.5,903.9,-6.9,-5.7,-27.6,790.8,-0.9,342.6,1929.0,-205.5,0,3006,0,106,0, 
1.6733,18.6,87.9,1182.3,285.0,-89.1,-454.5,1210.8,144.3,-8447.4,1651.5,-403.5,612.6,-1273.2,1188.3,-6172.8,903.3,-7.2,-6.0,-21.6,788.4,-0.6,359.1,1940.4,-272.4,0,3012,0,107,0, 
1.6767,25.2,73.8,1175.1,279.9,-91.2,-449.1,1214.4,141.6,-8225.1,1639.2,-168.3,676.5,-1255.5,1160.1,-5970.6,908.4,-7.2,-6.0,-37.8,784.2,-0.9,353.4,1934.1,-260.1,0,3018,0,108,0, 
1.6800,28.8,89.4,1180.5,284.1,-91.2,-447.6,1215.0,150.9,-6150.3,1632.6,-95.4,704.1,-1198.5,1251.6,-3879.9,898.8,-6.6,-5.7,-32.4,785.4,-0.9,347.1,1932.3,-253.5,0,3024,0,109,0, 
1.6833,14.1,90.6,1183.2,284.1,-84.3,-435.0,1221.3,156.9,-5038.8,1648.2,-174.0,633.0,-1197.0,1354.5,-2738.7,887.4,-6.6,-6.0,-30.9,796.8,-0.9,364.5,1938.6,-248.4,0,3030,0,110,0, 
1.6867,12.9,103.2,1179.0,276.6,-96.3,-455.4,1214.7,149.7,-6520.8,1622.7,-364.2,601.2,-1271.4,1334.7,-4140.6,888.9,-7.2,-6.0,-47.7,786.9,-1.2,341.1,1942.2,-275.7,0,3036,0,111,0, 
1.6900,8.1,84.9,1168.8,267.3,-108.9,-457.5,1206.6,139.5,-8373.3,1612.5,-343.5,602.7,-1334.7,1209.3,-6128.4,890.1,-7.2,-5.7,-48.3,773.4,-0.9,335.4,1933.8,-272.4,0,3042,0,112,0, 
1.6933,10.8,67.2,1160.4,265.2,-108.9,-452.1,1209.6,136.2,-8151.0,1615.5,-92.7,659.4,-1282.8,1156.8,-5946.9,887.7,-6.9,-6.0,-53.4,768.3,-0.9,327.9,1939.8,-257.1,0,3048,0,113,0, 
1.6967,19.8,81.9,1176.6,276.0,-98.1,-450.6,1211.4,149.4,-6076.2,1632.6,54.6,722.4,-1290.0,1245.6,-3855.9,890.4,-6.6,-5.7,-36.6,772.8,-0.9,336.6,1927.8,-270.3,0,3054,0,114,0, 
1.7000,12.9,85.5,1175.1,274.8,-95.4,-459.0,1204.8,147.0,-5112.9,1620.6,-209.4,618.3,-1225.8,1362.0,-2727.9,888.0,-6.9,-6.0,-29.4,771.3,-0.9,336.9,1917.6,-280.8,0,3060,0,115,0, 
1.7033,2.4,67.8,1172.4,273.3,-99.9,-465.9,1199.4,141.0,-6594.9,1622.1,-474.6,630.6,-1221.3,1333.8,-4122.3,885.3,-6.9,-5.7,-33.6,768.6,0.0,340.8,1926.3,-287.4,0,3066,0,116,0, 
1.7067,8.1,72.0,1168.2,272.1,-96.0,-466.8,1201.2,134.1,-8521.5,1629.9,-391.5,643.8,-1373.1,1194.6,-6131.1,887.7,-6.9,-5.7,-42.3,770.7,-0.9,334.5,1919.4,-264.6,0,3072,0,117,0, 
1.7100,10.2,87.6,1173.6,271.5,-102.9,-471.9,1203.9,135.9,-8225.1,1623.3,-145.2,759.3,-1350.9,1148.7,-5948.1,895.8,-7.2,-5.7,-40.8,770.4,-0.3,329.1,1917.9,-282.0,0,3078,0,118,0, 
1.7133,10.2,82.2,1165.8,271.8,-103.5,-473.1,1197.9,135.3,-6076.2,1616.1,-12.3,844.2,-1205.1,1260.9,-3828.0,889.8,-6.9,-5.7,-44.7,767.1,-0.6,327.6,1907.1,-278.1,0,3084,0,119,0, 
1.7167,16.8,77.4,1170.3,273.6,-102.3,-467.4,1194.0,138.9,-5112.9,1632.3,-167.1,764.4,-1143.3,1382.7,-2687.7,871.8,-6.6,-6.0,-35.7,767.4,0.0,338.1,1903.2,-256.8,0,3090,0,120,0, 
1.7200,27.0,79.8,1171.8,278.4,-96.6,-446.7,1209.6,139.5,-6446.7,1623.0,-361.2,692.1,-1270.5,1325.1,-4109.4,878.4,-6.9,-6.0,-39.6,777.0,-0.9,325.5,1916.4,-186.3,0,3096,0,121,0, 
1.7233,15.9,93.6,1178.1,279.3,-102.0,-451.2,1213.5,136.8,-8521.5,1618.5,-262.5,721.5,-1290.3,1161.6,-6127.5,913.8,-6.6,-6.0,-38.4,773.1,-0.9,330.6,1941.0,-230.7,0,3102,0,122,0, 
1.7267,20.1,95.7,1185.6,285.9,-90.0,-460.2,1210.2,139.8,-8299.2,1627.8,-62.1,804.3,-1280.1,1111.8,-5970.3,885.9,-7.2,-6.0,-31.8,775.5,-0.3,339.0,1942.5,-281.4,0,3108,0,123,0, 
1.7300,16.8,69.6,1180.5,287.7,-87.6,-462.6,1203.9,144.9,-6002.1,1608.6,83.4,900.9,-1186.5,1234.5,-3874.8,871.2,-6.9,-6.0,-28.5,776.4,-0.6,335.4,1925.1,-273.0,0,3114,0,124,0, 
1.7333,10.5,53.4,1172.1,290.4,-84.0,-453.6,1205.4,150.9,-5038.8,1623.6,-54.6,838.2,-1202.4,1359.3,-2734.5,880.5,-7.2,-6.0,-29.4,780.6,-0.6,341.4,1917.6,-264.0,0,3120,0,125,0, 
1.7367,13.5,70.5,1175.1,292.5,-87.0,-455.7,1207.2,150.6,-6594.9,1622.1,-299.1,717.6,-1311.6,1327.2,-4161.0,893.4,-7.2,-6.0,-33.3,780.0,-0.9,340.8,1915.2,-263.1,0,3126,0,126,0, 
1.7400,18.3,84.0,1173.3,291.6,-82.2,-449.1,1209.6,146.7,-8373.3,1608.3,-257.7,784.5,-1316.4,1192.5,-6177.0,882.6,-6.6,-5.7,-40.2,774.9,-0.9,335.4,1916.1,-245.7,0,3132,0,127,0, 
1.7433,8.7,67.5,1169.1,282.6,-95.4,-454.8,1206.9,140.7,-8225.1,1603.2,-5.1,926.7,-1294.5,1123.2,-6019.2,878.7,-6.9,-6.3,-49.2,766.8,-0.6,320.1,1911.6,-255.3,0,3138,0,128,0, 
1.7467,20.4,62.4,1169.1,279.9,-93.9,-464.4,1202.1,145.5,-6150.3,1614.0,70.2,896.1,-1223.4,1252.2,-3914.4,885.6,-7.2,-6.0,-54.3,768.0,-0.6,327.6,1931.1,-305.7,0,3144,0,129,0, 
1.7500,21.3,83.7,1185.6,291.3,-86.7,-463.5,1206.6,158.4,-5187.0,1637.1,-6.9,823.5,-1242.0,1354.8,-2814.9,883.2,-6.9,-5.7,-33.3,775.2,-1.2,337.5,1922.7,-282.0,0,3150,0,130,0, 
1.7533,28.2,98.7,1182.6,283.2,-94.8,-459.3,1211.7,150.0,-6594.9,1620.9,-339.6,717.3,-1323.0,1321.5,-4242.0,883.2,-7.2,-6.0,-38.7,761.4,-0.6,327.0,1946.7,-254.7,0,3156,0,131,0, 
1.7567,27.3,84.9,1167.6,268.8,-115.8,-469.2,1201.8,134.1,-8521.5,1612.8,-298.8,715.5,-1397.7,1202.1,-6245.1,887.4,-6.9,-5.7,-52.8,737.4,-0.9,309.0,1910.7,-269.4,0,3162,0,132,0, 
1.7600,29.4,102.3,1178.1,282.9,-97.8,-455.1,1207.5,141.6,-8225.1,1631.4,-90.6,773.1,-1298.4,1144.8,-6070.8,887.7,-7.2,-5.7,-43.5,771.0,-0.9,340.2,1914.0,-255.6,0,3168,0,133,0, 
1.7633,27.9,88.8,1183.5,286.2,-86.7,-446.7,1210.5,145.5,-6150.3,1644.0,3.0,838.5,-1162.8,1218.9,-3980.1,895.2,-6.9,-6.0,-24.9,795.3,-1.2,346.2,1918.8,-210.0,0,3174,0,134,0, 
1.7667,32.7,81.6,1181.1,289.2,-78.3,-438.6,1215.3,150.9,-5187.0,1638.3,0.0,720.9,-1201.5,1319.4,-2871.3,892.8,-7.2,-6.0,-22.5,801.3,-0.6,352.5,1944.0,-173.1,0,3180,0,135,0, 
1.7700,23.4,82.5,1182.9,287.1,-81.9,-447.0,1212.0,147.3,-6743.1,1624.2,-202.2,638.1,-1281.6,1290.3,-4308.0,888.9,-7.2,-6.0,-16.8,792.6,-1.2,350.7,1947.9,-210.6,0,3186,0,136,0, 
1.7733,15.6,64.8,1179.9,282.9,-81.0,-457.5,1212.0,141.6,-8669.7,1631.1,-284.1,615.3,-1319.4,1188.3,-6301.8,906.9,-6.9,-5.7,-23.4,791.4,-0.9,362.4,1940.1,-267.6,0,3192,0,137,0, 
1.7767,19.2,61.2,1179.9,283.5,-82.8,-459.6,1209.0,138.0,-8373.3,1641.9,-12.9,726.0,-1261.8,1136.1,-6125.1,899.7,-7.2,-5.7,-24.3,793.2,-0.3,357.0,1943.1,-284.4,0,3198,0,138,0, 
1.7800,19.8,70.8,1180.2,287.4,-86.4,-452.7,1207.5,140.4,-6224.4,1634.7,144.3,798.3,-1183.8,1221.6,-4031.7,898.5,-6.9,-5.4,-27.9,799.5,-0.3,338.4,1951.2,-279.0,0,3204,0,139,0, 
1.7833,15.9,66.0,1177.5,285.3,-89.7,-454.8,1207.2,146.1,-5261.1,1611.3,-115.8,639.9,-1196.4,1350.6,-2909.1,893.7,-6.9,-5.4,-39.0,806.4,-0.9,345.9,1931.7,-265.8,0,3210,0,140,0, 
1.7867,20.1,79.2,1175.4,282.9,-91.2,-451.8,1213.8,151.2,-6594.9,1596.9,-263.7,608.7,-1255.5,1308.0,-4314.6,900.6,-6.6,-5.7,-48.6,796.2,-0.6,342.3,1941.3,-265.8,0,3216,0,141,0, 
1.7900,15.0,56.7,1164.0,276.9,-94.2,-460.2,1213.8,138.0,-8521.5,1597.8,-278.7,536.1,-1322.4,1163.4,-6326.1,903.3,-7.2,-5.7,-53.1,791.1,-0.9,340.2,1940.7,-268.5,0,3222,0,142,0, 
1.7933,9.6,44.7,1154.7,278.1,-90.9,-452.7,1211.4,135.6,-8299.2,1617.0,30.6,610.5,-1301.7,1119.6,-6156.9,900.9,-6.9,-6.0,-51.9,804.9,-0.9,340.2,1933.5,-242.7,0,3228,0,143,0, 
1.7967,15.6,60.3,1164.0,285.9,-82.5,-454.2,1207.2,139.8,-6224.4,1626.6,66.6,542.1,-1211.7,1234.5,-4049.1,887.1,-6.9,-5.7,-35.4,803.7,-0.9,331.8,1924.8,-243.0,0,3234,0,144,0, 
1.8000,8.4,64.8,1164.9,287.1,-76.8,-453.3,1209.9,147.6,-5187.0,1625.7,67.8,458.4,-1208.4,1341.0,-2901.3,891.6,-6.9,-5.4,-33.6,803.7,-0.6,346.2,1925.7,-249.3,0,3240,0,145,0, 
1.8033,8.1,66.0,1158.3,277.5,-90.9,-459.0,1205.7,144.3,-6743.1,1605.3,-268.8,302.7,-1269.6,1311.0,-4304.7,888.0,-7.2,-5.4,-46.8,798.6,-0.9,344.4,1907.7,-250.8,0,3246,0,146,0, 
1.8067,13.5,72.3,1157.7,277.8,-93.6,-452.7,1212.9,140.7,-8521.5,1615.8,-346.2,344.4,-1330.2,1158.3,-6319.8,891.0,-6.9,-5.7,-39.9,794.4,-0.6,334.2,1924.2,-246.6,0,3252,0,147,0, 
1.8100,15.9,74.7,1155.9,270.0,-99.0,-456.0,1204.5,134.4,-8299.2,1605.6,-115.5,510.0,-1394.1,1115.7,-6177.6,893.7,-7.2,-6.0,-38.7,786.9,-0.6,328.8,1931.1,-265.5,0,3258,0,148,0, 
1.8133,19.5,82.2,1164.3,273.6,-93.6,-441.0,1209.9,142.5,-6150.3,1609.2,-18.6,501.0,-1285.5,1218.6,-4065.3,886.2,-6.9,-6.3,-32.4,789.6,-0.9,333.9,1935.0,-234.3,0,3264,0,149,0, 
1.8167,21.6,69.6,1157.1,277.2,-91.8,-436.8,1209.6,146.4,-5335.2,1597.8,-255.9,342.3,-1172.7,1337.4,-2917.5,888.3,-7.2,-5.7,-36.0,792.6,-0.9,329.1,1920.0,-221.4,0,3270,0,150,0, 
1.8200,23.4,81.6,1164.3,282.9,-88.5,-450.9,1206.3,145.2,-6669.0,1624.8,-449.7,251.7,-1335.9,1299.6,-4336.8,895.8,-7.2,-5.4,-24.9,791.4,-0.9,340.8,1919.7,-244.2,0,3276,0,151,0, 
1.8233,26.4,96.9,1168.5,278.7,-87.3,-440.7,1209.6,140.1,-8595.6,1605.6,-536.4,309.3,-1412.7,1133.7,-6370.8,904.8,-6.6,-6.0,-28.5,790.5,-0.6,334.5,1934.7,-192.0,0,3282,0,152,0, 
1.8267,16.8,79.5,1158.9,275.4,-93.3,-450.0,1205.1,137.4,-8373.3,1609.8,-270.3,339.9,-1336.8,1093.5,-6190.2,883.8,-6.9,-5.7,-27.9,791.1,-0.9,333.3,1947.6,-204.9,0,3288,0,153,0, 
1.8300,15.0,80.1,1167.3,282.3,-85.5,-455.1,1201.2,149.1,-6224.4,1636.5,-97.8,402.9,-1209.3,1191.9,-4065.9,879.9,-6.6,-5.4,-21.9,798.9,-0.9,343.8,1921.2,-252.9,0,3294,0,154,0, 
1.8333,5.4,47.1,1155.9,274.2,-84.9,-450.3,1203.3,148.2,-5038.8,1611.6,-258.0,270.9,-1181.7,1332.0,-2918.4,891.0,-6.6,-5.7,-39.0,797.7,-0.6,346.8,1935.9,-273.0,0,3300,0,155,0, 
1.8367,12.0,63.6,1168.8,281.4,-82.8,-456.3,1205.1,152.7,-6743.1,1633.5,-482.4,181.5,-1231.8,1315.8,-4298.7,888.9,-6.9,-6.0,-14.4,799.2,-0.6,352.2,1926.6,-303.3,0,3306,0,156,0, 
1.8400,16.8,47.4,1157.7,274.8,-87.3,-450.6,1212.0,148.2,-8595.6,1618.2,-464.7,280.5,-1298.7,1195.2,-6298.5,900.0,-6.9,-6.0,-31.2,798.9,-0.9,357.6,1949.1,-288.6,0,3312,0,157,0, 
1.8433,20.7,51.3,1158.9,280.2,-84.3,-456.9,1209.0,146.7,-8299.2,1622.1,-192.9,371.1,-1300.8,1128.3,-6132.3,897.9,-7.2,-5.7,-22.5,798.9,-0.6,353.7,1929.3,-290.4,0,3318,0,158,0, 
1.8467,13.5,59.7,1158.0,276.3,-87.3,-457.8,1208.4,149.1,-6224.4,1627.2,-229.5,355.2,-1236.9,1221.6,-4020.6,895.5,-6.9,-5.7,-17.1,804.6,-0.6,350.7,1926.9,-274.8,0,3324,0,159,0, 
1.8500,10.5,52.8,1147.8,265.5,-88.5,-449.4,1211.7,144.3,-5335.2,1609.5,-392.1,270.6,-1194.6,1331.7,-2868.6,893.7,-6.6,-6.0,-37.5,795.3,-0.6,334.8,1937.7,-214.2,0,3330,0,160,0, 
1.8533,12.0,54.3,1145.7,257.4,-102.9,-460.2,1206.3,135.3,-6669.0,1602.0,-555.3,223.8,-1330.5,1311.6,-4272.3,888.6,-6.6,-5.7,-49.8,783.9,-0.6,317.4,1915.2,-216.9,0,3336,0,161,0, 
1.8567,11.7,56.1,1137.6,254.4,-110.7,-470.4,1200.3,126.9,-8595.6,1591.5,-429.3,269.1,-1356.0,1167.3,-6284.1,889.8,-6.9,-6.0,-53.4,773.7,-0.3,324.6,1932.3,-271.5,0,3342,0,162,0, 
1.8600,7.2,57.0,1142.7,255.6,-111.0,-473.4,1196.1,121.8,-8299.2,1611.9,-202.8,349.8,-1308.9,1115.7,-6127.8,888.9,-7.2,-6.0,-37.2,779.1,-0.6,330.3,1918.8,-272.4,0,3348,0,163,0, 
1.8633,14.7,63.9,1143.3,255.9,-110.4,-470.7,1197.9,126.9,-6076.2,1592.4,-162.6,338.4,-1222.8,1230.0,-4015.2,891.0,-7.2,-6.0,-38.7,785.1,-0.6,321.9,1902.9,-268.8,0,3354,0,164,0, 
1.8667,13.2,61.2,1148.1,255.3,-114.9,-472.2,1197.9,127.2,-5112.9,1614.3,-237.9,265.8,-1175.7,1326.0,-2884.2,899.7,-6.9,-6.0,-38.7,784.5,-0.9,333.9,1925.4,-295.5,0,3360,0,165,0, 
1.8700,14.4,47.1,1135.8,247.2,-115.2,-464.4,1195.8,121.5,-6669.0,1615.5,-503.4,195.9,-1328.7,1309.8,-4291.2,889.5,-6.9,-5.4,-59.1,777.3,-0.6,334.5,1907.4,-292.2,0,3366,0,166,0, 
1.8733,3.6,64.5,1137.6,248.7,-114.3,-468.0,1199.4,116.7,-8521.5,1623.9,-512.7,168.6,-1353.9,1150.5,-6294.0,892.5,-7.2,-5.4,-56.4,781.8,-0.6,325.5,1920.6,-276.9,0,3372,0,167,0, 
1.8767,5.4,69.3,1131.9,247.2,-116.1,-471.0,1191.9,115.5,-8373.3,1597.2,-247.2,256.5,-1310.4,1089.3,-6139.8,889.8,-7.2,-5.7,-63.3,777.6,-0.9,317.1,1920.3,-269.1,0,3378,0,168,0, 
1.8800,3.0,73.2,1144.2,261.3,-106.5,-450.3,1199.1,136.8,-6224.4,1581.0,-158.4,281.7,-1265.1,1186.2,-4042.5,877.8,-6.9,-5.7,-65.4,782.7,0.0,330.9,1906.8,-225.9,0,3384,0,169,0, 
1.8833,-3.6,45.6,1143.3,267.0,-97.8,-442.8,1197.0,145.5,-5261.1,1614.3,-268.8,282.3,-1211.1,1317.9,-2899.2,878.4,-6.6,-6.0,-65.4,793.2,-0.9,343.5,1905.6,-216.6,0,3390,0,170,0, 
1.8867,3.3,58.5,1153.5,277.8,-89.4,-430.8,1204.8,153.3,-6743.1,1605.3,-506.4,247.5,-1320.6,1277.4,-4298.7,878.1,-6.3,-5.4,-60.0,802.2,-0.9,338.1,1938.3,-205.5,0,3396,0,171,0, 
1.8900,6.3,54.3,1161.9,284.1,-83.1,-439.5,1200.0,150.6,-8595.6,1609.5,-486.6,291.6,-1351.8,1161.6,-6298.8,881.7,-6.9,-5.7,-60.3,802.2,-0.6,348.0,1923.0,-250.2,0,3402,0,172,0, 
1.8933,9.3,51.6,1160.1,283.5,-86.7,-443.4,1196.1,143.4,-8151.0,1613.4,-231.6,345.9,-1249.5,1111.8,-6116.1,875.7,-6.9,-5.7,-52.5,795.6,-0.6,334.2,1918.2,-271.5,0,3408,0,173,0, 
1.8967,14.1,45.9,1161.3,282.3,-95.1,-453.3,1198.8,150.0,-6150.3,1610.1,-50.7,394.5,-1190.1,1227.0,-4006.5,885.9,-7.2,-5.7,-48.0,787.2,-0.6,330.6,1919.4,-312.6,0,3414,0,174,0, 
1.9000,9.0,42.0,1156.2,274.2,-99.9,-453.9,1202.4,147.3,-5112.9,1614.6,-122.7,327.0,-1186.5,1345.2,-2860.5,888.3,-7.2,-6.0,-54.0,780.9,-0.9,327.9,1928.7,-284.7,0,3420,0,175,0, 
1.9033,12.9,46.5,1152.6,269.4,-99.3,-456.3,1207.5,142.5,-6520.8,1606.2,-421.2,257.7,-1287.6,1312.2,-4245.3,889.5,-6.9,-6.0,-60.0,773.7,-0.9,322.5,1943.1,-268.2,0,3426,0,176,0, 
1.9067,12.3,67.2,1153.2,274.5,-101.4,-461.4,1201.2,132.9,-8521.5,1610.1,-468.0,252.3,-1421.1,1165.5,-6263.4,884.1,-6.6,-5.7,-63.3,778.5,-0.6,334.5,1923.3,-268.2,0,3432,0,177,0, 
1.9100,10.8,71.7,1155.0,272.7,-105.6,-452.7,1200.3,133.2,-8299.2,1603.5,-240.3,279.9,-1356.0,1111.8,-6076.8,874.8,-6.9,-5.7,-62.4,774.3,-0.9,321.9,1921.5,-263.1,0,3438,0,178,0, 
1.9133,9.6,67.8,1152.0,268.2,-113.4,-452.7,1196.7,137.4,-6224.4,1605.3,-6.9,306.3,-1257.0,1203.9,-3982.8,879.3,-6.9,-5.7,-70.2,765.9,-0.6,320.7,1923.9,-287.7,0,3444,0,179,0, 
1.9167,17.1,60.0,1152.0,273.0,-107.4,-443.7,1198.8,148.5,-5187.0,1595.1,-130.8,204.3,-1220.1,1318.8,-2817.0,877.8,-6.6,-5.7,-65.4,781.2,-0.6,325.2,1932.3,-276.0,0,3450,0,180,0, 
1.9200,15.9,51.3,1151.7,272.7,-106.5,-449.7,1193.4,145.8,-6669.0,1594.8,-320.4,238.8,-1258.5,1316.1,-4193.1,887.1,-6.9,-6.0,-60.9,783.6,-0.3,336.6,1904.7,-296.4,0,3456,0,181,0, 
1.9233,16.2,59.4,1155.6,281.7,-95.7,-431.7,1203.0,149.4,-8521.5,1588.8,-372.9,181.2,-1380.6,1176.6,-6209.7,875.4,-6.9,-6.0,-52.5,788.1,-0.9,330.9,1912.5,-240.9,0,3462,0,182,0, 
1.9267,5.1,51.9,1146.9,274.8,-101.4,-436.2,1200.9,144.3,-8151.0,1605.6,-180.6,310.8,-1362.3,1105.5,-6054.3,876.0,-6.9,-5.7,-60.6,783.6,-0.9,326.7,1911.6,-217.8,0,3468,0,183,0, 
1.9300,-0.6,46.8,1148.4,268.5,-99.0,-436.5,1199.4,151.2,-6298.5,1591.5,-60.0,403.2,-1188.0,1224.9,-3934.2,893.4,-7.2,-6.3,-54.0,777.3,-0.9,324.3,1933.8,-220.5,0,3474,0,184,0, 
1.9333,5.1,39.9,1147.8,270.3,-96.3,-442.8,1196.7,146.4,-5112.9,1612.2,-99.9,321.9,-1173.6,1353.6,-2783.1,869.1,-6.9,-5.7,-34.8,780.6,-0.9,318.6,1912.8,-253.2,0,3480,0,185,0, 
1.9367,-1.8,47.1,1149.6,271.5,-96.6,-444.6,1193.1,144.3,-6669.0,1618.2,-363.0,258.3,-1249.2,1307.7,-4187.4,865.2,-6.6,-5.7,-33.0,781.2,-0.6,331.2,1919.4,-266.4,0,3486,0,186,0, 
1.9400,13.8,74.1,1155.6,275.7,-94.8,-438.3,1200.6,143.7,-8595.6,1607.1,-283.8,459.6,-1295.1,1158.0,-6214.8,861.0,-7.2,-5.4,-35.1,789.0,-0.6,329.1,1926.3,-255.9,0,3492,0,187,0, 
1.9433,11.4,64.2,1141.8,268.8,-100.5,-444.9,1197.6,138.0,-8299.2,1599.0,-113.4,436.5,-1293.9,1109.4,-6063.0,868.2,-6.9,-5.7,-47.7,775.2,-0.9,319.5,1910.7,-256.5,0,3498,0,188,0, 
1.9467,5.4,63.6,1145.1,266.4,-95.1,-438.0,1196.7,138.3,-6002.1,1590.6,1.8,461.7,-1237.2,1212.6,-3978.0,871.8,-7.2,-6.0,-55.5,777.0,-0.9,310.5,1909.5,-246.6,0,3504,0,189,0, 
1.9500,16.2,83.1,1152.6,268.5,-96.9,-447.3,1198.5,145.5,-5187.0,1602.6,-114.0,394.5,-1278.9,1310.7,-2850.3,879.6,-6.9,-5.1,-52.2,770.7,-0.9,318.6,1931.1,-270.9,0,3510,0,190,0, 
1.9533,4.5,83.1,1154.4,270.9,-90.6,-445.2,1201.8,142.8,-6594.9,1612.2,-167.4,347.1,-1372.2,1269.0,-4260.0,879.6,-6.6,-6.0,-42.9,780.3,-1.2,330.6,1939.8,-273.9,0,3516,0,191,0, 
1.9567,0.6,67.8,1141.8,266.4,-96.9,-447.3,1196.1,135.0,-8669.7,1591.5,-241.2,428.4,-1390.5,1155.0,-6265.2,879.3,-6.6,-5.7,-46.8,778.2,-0.9,326.1,1922.4,-270.3,0,3522,0,192,0, 
1.9600,-2.4,50.7,1133.1,258.9,-106.2,-450.0,1193.4,127.2,-8373.3,1592.1,-116.7,480.3,-1364.7,1091.7,-6112.8,875.7,-7.2,-6.0,-43.5,767.4,-0.9,305.4,1917.3,-255.6,0,3528,0,193,0, 
1.9633,-0.3,32.7,1135.5,265.8,-103.8,-457.8,1194.3,132.3,-6224.4,1593.6,122.4,539.1,-1222.2,1209.9,-3988.8,879.0,-6.3,-6.0,-32.4,777.0,-0.6,316.5,1920.0,-278.4,0,3534,0,194,0, 
1.9667,6.3,39.6,1142.7,265.5,-99.9,-456.3,1193.7,140.1,-5038.8,1606.5,-96.3,505.5,-1236.3,1353.3,-2842.5,874.2,-6.9,-6.3,-37.2,783.9,-1.2,323.7,1890.0,-295.8,0,3540,0,195,0, 
1.9700,3.0,30.3,1125.6,256.5,-109.8,-458.7,1187.7,125.7,-6817.2,1592.4,-288.9,456.9,-1292.4,1314.9,-4252.8,872.7,-6.6,-5.7,-56.1,769.2,-0.6,319.2,1892.4,-276.6,0,3546,0,196,0, 
1.9733,8.4,49.2,1140.9,263.7,-105.3,-457.8,1190.1,131.1,-8521.5,1611.6,-324.9,400.5,-1289.4,1174.8,-6264.3,878.4,-6.9,-5.4,-41.4,779.7,-0.3,318.0,1907.1,-292.2,0,3552,0,197,0, 
1.9767,11.4,52.8,1149.3,269.7,-100.5,-458.1,1188.6,133.8,-8373.3,1605.6,-115.5,525.6,-1252.2,1123.8,-6113.1,866.4,-6.6,-6.3,-39.3,787.5,-0.9,331.5,1904.4,-308.7,0,3558,0,198,0, 
1.9800,11.4,59.7,1149.6,272.1,-92.1,-449.1,1195.2,141.3,-6224.4,1602.9,144.9,535.8,-1196.1,1204.5,-4027.2,871.8,-7.2,-6.0,-42.6,788.4,-0.9,334.5,1901.4,-271.8,0,3564,0,199,0, 
1.9833,7.8,51.3,1145.1,266.7,-88.5,-448.8,1194.6,144.6,-5187.0,1591.8,-116.1,441.0,-1208.1,1323.9,-2906.7,864.6,-7.2,-5.7,-50.7,786.3,-0.9,325.8,1896.6,-257.4,0,3570,0,200,0, 
1.9867,10.2,61.8,1152.0,274.8,-91.2,-453.0,1193.1,142.8,-6743.1,1621.2,-314.4,399.9,-1281.6,1280.7,-4305.6,859.5,-6.3,-5.7,-38.1,792.3,-0.6,329.1,1905.6,-290.1,0,3576,0,201,0, 
1.9900,17.1,75.3,1150.8,276.0,-92.1,-450.3,1198.5,140.1,-8595.6,1614.3,-342.9,503.7,-1332.0,1156.5,-6323.1,863.1,-7.5,-6.0,-33.0,787.5,-1.2,333.3,1902.0,-282.9,0,3582,0,202,0, 
1.9933,12.9,82.5,1151.7,271.8,-94.5,-437.1,1205.1,138.9,-8373.3,1599.9,-236.1,588.9,-1314.3,1093.5,-6173.1,862.2,-6.6,-5.7,-33.3,789.3,-0.9,319.2,1923.0,-242.7,0,3588,0,203,0, 
1.9967,10.5,70.5,1149.0,272.4,-89.1,-435.6,1206.6,139.2,-6298.5,1606.5,-61.8,482.1,-1239.6,1199.7,-4076.1,887.7,-6.9,-6.0,-32.1,791.1,-1.2,318.9,1928.4,-221.7,0,3594,0,204,0, 
2.0000,14.4,75.0,1154.7,275.4,-91.5,-444.6,1198.5,142.2,-5112.9,1615.2,-227.1,453.0,-1232.4,1330.8,-2921.4,879.6,-6.9,-5.7,-33.0,796.2,-0.6,332.7,1920.3,-256.5,0,3600,0,205,0, 
2.0033,13.5,75.9,1157.1,280.5,-82.8,-426.0,1211.7,142.5,-6669.0,1608.9,-484.2,348.9,-1266.9,1301.4,-4310.1,873.0,-6.9,-6.0,-34.8,810.6,-0.9,348.3,1939.8,-228.6,0,3606,0,206,0, 
2.0067,24.0,94.8,1158.3,277.5,-92.4,-440.4,1199.7,134.1,-8521.5,1611.0,-552.6,375.9,-1368.6,1162.8,-6315.6,876.0,-6.6,-5.7,-46.5,804.6,-0.6,344.7,1925.4,-232.2,0,3612,0,207,0, 
2.0100,19.8,78.3,1156.5,281.4,-79.8,-431.4,1203.3,135.3,-8373.3,1628.1,-340.8,460.5,-1377.3,1109.1,-6155.4,883.8,-7.2,-6.0,-40.2,811.5,-0.6,347.7,1916.4,-228.3,0,3618,0,208,0, 
2.0133,14.4,74.4,1155.6,280.8,-84.6,-439.5,1198.2,138.3,-6150.3,1623.3,-239.7,399.9,-1256.7,1225.2,-4054.5,878.1,-6.3,-5.4,-36.0,809.4,-0.6,350.4,1906.5,-260.7,0,3624,0,209,0, 
2.0167,22.2,75.6,1159.8,285.0,-80.7,-437.1,1200.9,147.6,-5187.0,1627.2,-281.1,372.9,-1204.8,1346.7,-2889.9,885.9,-7.2,-5.4,-36.6,815.4,-0.6,370.5,1920.3,-290.7,0,3630,0,210,0, 
2.0200,15.6,48.0,1145.1,278.1,-83.7,-432.6,1205.7,140.4,-6669.0,1620.0,-578.7,268.8,-1217.1,1301.1,-4279.5,887.1,-6.6,-5.7,-48.3,814.5,-0.9,357.6,1928.7,-254.7,0,3636,0,211,0, 
2.0233,12.3,48.9,1143.9,277.5,-89.7,-433.5,1197.6,135.0,-8669.7,1612.5,-575.1,271.2,-1275.9,1172.7,-6291.9,880.2,-6.9,-5.7,-50.4,807.9,-0.6,351.6,1908.6,-254.4,0,3642,0,212,0, 
2.0267,17.4,48.0,1146.3,273.3,-93.3,-438.6,1197.0,136.8,-8373.3,1632.6,-351.9,322.8,-1252.8,1114.2,-6128.7,891.0,-7.2,-6.0,-42.3,785.1,-0.6,342.0,1908.9,-265.2,0,3648,0,213,0, 
2.0300,14.4,48.0,1140.3,268.2,-106.8,-444.3,1199.1,137.7,-6298.5,1623.9,-252.0,339.6,-1205.7,1219.8,-4047.3,881.7,-6.9,-6.0,-63.9,759.3,-0.6,330.9,1908.0,-275.4,0,3654,0,214,0, 
2.0333,22.8,65.1,1149.9,270.0,-100.5,-454.2,1198.8,142.8,-5187.0,1620.9,-429.6,315.3,-1170.9,1325.1,-2921.4,877.5,-6.6,-5.7,-58.5,778.5,-0.6,332.4,1918.8,-291.0,0,3660,0,215,0, 
2.0367,18.9,95.1,1154.4,278.4,-89.7,-441.3,1203.9,143.7,-6743.1,1611.9,-584.7,258.6,-1377.6,1266.6,-4354.8,882.0,-7.2,-6.0,-47.1,798.3,-0.6,332.1,1937.1,-258.9,0,3666,0,216,0, 
2.0400,18.0,99.9,1151.7,272.1,-92.7,-448.2,1195.8,131.1,-8669.7,1602.0,-653.7,280.2,-1397.1,1131.0,-6374.1,875.4,-6.6,-6.0,-42.3,788.1,-0.9,330.6,1905.9,-268.2,0,3672,0,217,0, 
2.0433,26.1,81.3,1148.1,277.2,-84.0,-435.9,1204.5,137.4,-8447.4,1618.2,-533.4,371.4,-1338.9,1088.4,-6219.3,866.1,-6.9,-6.0,-34.5,793.8,-0.6,348.0,1907.1,-250.8,0,3678,0,218,0, 
2.0467,19.8,63.9,1134.9,270.9,-82.8,-435.6,1206.6,137.4,-6298.5,1601.1,-428.1,385.8,-1279.8,1192.2,-4123.2,878.4,-6.9,-6.0,-49.5,803.4,-0.3,340.2,1941.3,-249.0,0,3684,0,219,0, 
2.0500,14.7,65.1,1141.8,274.8,-82.5,-436.8,1203.9,141.6,-5335.2,1619.4,-537.3,295.2,-1173.3,1320.9,-2956.8,866.4,-6.9,-6.0,-52.5,814.5,-0.9,357.3,1912.8,-240.3,0,3690,0,220,0, 
2.0533,18.9,52.5,1141.2,276.0,-75.6,-427.2,1209.6,142.2,-6817.2,1619.1,-707.1,230.7,-1190.7,1284.9,-4344.3,876.6,-6.9,-6.0,-47.1,819.0,-0.6,352.8,1915.2,-213.9,0,3696,0,221,0, 
2.0567,16.5,46.5,1137.6,277.8,-75.3,-429.9,1208.1,136.5,-8817.9,1613.1,-740.4,141.3,-1314.0,1164.6,-6370.5,891.3,-6.9,-6.0,-49.2,826.5,-0.6,363.3,1933.8,-232.5,0,3702,0,222,0, 
2.0600,15.3,55.2,1136.1,269.1,-84.6,-444.0,1195.8,125.1,-8373.3,1609.5,-437.7,260.1,-1346.1,1121.7,-6219.3,882.6,-6.9,-5.7,-60.6,825.9,-0.6,354.6,1914.9,-268.8,0,3708,0,223,0, 
2.0633,18.0,60.0,1138.8,277.8,-78.3,-433.2,1201.8,142.2,-6224.4,1623.3,-391.2,206.7,-1260.9,1231.5,-4131.0,872.4,-6.9,-6.0,-59.7,831.0,-0.9,365.7,1913.4,-252.9,0,3714,0,224,0, 
2.0667,22.8,58.2,1133.4,272.7,-81.3,-433.5,1206.9,143.1,-5335.2,1613.7,-530.7,65.4,-1190.7,1349.7,-2977.2,877.5,-7.2,-6.0,-62.7,833.1,-0.9,367.5,1922.7,-244.8,0,3720,0,225,0, 
2.0700,14.7,49.8,1122.0,265.5,-91.2,-438.0,1205.4,138.3,-6743.1,1607.7,-726.6,29.7,-1231.5,1308.9,-4372.5,873.6,-6.9,-6.3,-80.1,832.2,-0.3,359.4,1937.1,-251.7,0,3726,0,226,0, 
2.0733,6.9,39.0,1113.6,258.0,-94.5,-433.5,1203.0,127.2,-8743.8,1589.7,-727.8,103.5,-1352.7,1164.6,-6399.0,876.3,-7.2,-6.0,-92.7,826.5,-0.6,347.4,1940.1,-229.2,0,3732,0,227,0, 
2.0767,9.9,48.9,1118.1,254.1,-99.0,-435.3,1197.6,128.4,-8447.4,1586.7,-497.1,169.5,-1316.7,1108.8,-6253.2,874.5,-6.6,-5.7,-95.1,816.0,-1.2,341.1,1913.7,-240.3,0,3738,0,228,0, 
2.0800,14.1,66.3,1121.4,258.9,-97.2,-432.0,1204.2,138.3,-6372.6,1592.7,-398.1,195.6,-1271.7,1206.3,-4160.1,880.8,-6.9,-5.7,-95.4,810.9,-0.3,343.5,1931.4,-255.0,0,3744,0,229,0, 
2.0833,11.1,60.9,1116.9,252.0,-101.1,-439.8,1200.6,134.4,-5261.1,1587.9,-630.9,25.8,-1233.3,1325.4,-2999.1,888.0,-6.6,-6.3,-104.7,806.1,-0.6,334.2,1924.5,-273.0,0,3750,0,230,0, 
2.0867,17.4,69.0,1131.6,264.9,-91.2,-436.2,1201.5,140.7,-6743.1,1608.9,-739.5,74.1,-1284.9,1312.8,-4375.2,884.4,-6.9,-5.7,-70.8,822.0,-0.6,342.3,1918.8,-264.0,0,3756,0,231,0, 
2.0900,17.4,51.3,1131.6,265.2,-89.4,-426.9,1197.6,131.4,-8595.6,1624.5,-756.9,59.4,-1297.5,1187.4,-6375.6,882.9,-6.9,-6.0,-61.2,822.3,-0.9,345.9,1911.9,-245.1,0,3762,0,232,0, 
2.0933,19.5,60.0,1139.4,270.9,-79.8,-424.2,1203.6,132.0,-8299.2,1623.9,-579.9,163.8,-1303.2,1125.0,-6234.6,897.6,-6.9,-5.4,-48.0,834.0,-0.9,355.2,1932.0,-243.0,0,3768,0,233,0, 
2.0967,14.1,68.7,1144.5,273.9,-77.1,-417.6,1209.6,139.2,-6446.7,1612.5,-447.9,133.5,-1242.6,1211.1,-4157.1,900.3,-6.3,-6.0,-60.6,838.2,-0.3,359.4,1949.4,-238.2,0,3774,0,234,0, 
2.1000,22.5,90.3,1152.3,278.7,-69.9,-415.2,1205.7,150.3,-5335.2,1615.8,-561.9,24.3,-1213.5,1321.2,-3018.6,875.1,-6.9,-5.7,-58.8,846.9,-0.6,371.1,1927.5,-226.5,0,3780,0,235,0, 
2.1033,13.8,63.3,1125.9,266.7,-76.8,-422.7,1203.6,136.8,-6891.3,1594.5,-781.8,-90.9,-1247.4,1283.7,-4409.1,883.8,-7.2,-6.0,-77.4,828.6,-0.9,358.8,1929.3,-207.0,0,3786,0,236,0, 
2.1067,10.8,58.5,1129.2,266.4,-75.3,-416.1,1211.1,135.0,-8669.7,1608.9,-712.8,3.3,-1294.8,1146.0,-6404.1,879.6,-7.2,-5.4,-69.3,826.8,-0.9,357.0,1955.4,-213.6,0,3792,0,237,0, 
2.1100,12.6,68.1,1139.7,277.8,-72.6,-415.8,1203.9,143.7,-8521.5,1621.5,-569.4,73.8,-1283.7,1096.8,-6240.9,883.2,-7.2,-6.3,-61.5,836.1,-0.6,364.5,1934.4,-234.6,0,3798,0,238,0, 
2.1133,7.5,60.9,1130.7,268.8,-80.1,-421.8,1206.0,148.8,-6372.6,1622.1,-385.8,126.6,-1223.4,1208.1,-4144.5,884.1,-7.2,-6.6,-68.7,823.2,-0.9,374.1,1923.6,-259.2,0,3804,0,239,0, 
2.1167,5.7,66.9,1130.7,259.8,-90.6,-424.2,1203.3,146.7,-5335.2,1628.4,-638.7,-39.0,-1221.3,1311.9,-2994.6,893.7,-7.2,-6.0,-75.3,813.0,-0.9,350.7,1925.4,-258.3,0,3810,0,240,0, 
2.1200,10.5,74.4,1134.9,267.0,-92.1,-424.5,1204.2,147.0,-6743.1,1611.3,-766.2,-93.0,-1309.8,1279.2,-4373.4,883.2,-6.9,-5.7,-62.4,814.2,-0.9,349.5,1921.2,-245.4,0,3816,0,241,0, 
2.1233,18.9,73.2,1139.7,272.4,-88.2,-428.7,1206.3,143.4,-8743.8,1615.8,-808.5,-81.9,-1416.9,1170.0,-6385.5,880.2,-6.6,-5.7,-60.3,825.0,-0.6,355.5,1914.3,-238.8,0,3822,0,242,0, 
2.1267,13.8,52.5,1125.0,268.5,-85.8,-424.2,1205.1,135.3,-8595.6,1604.1,-693.3,-50.1,-1335.3,1102.8,-6230.7,897.3,-6.6,-5.4,-64.5,829.5,-0.6,356.7,1922.1,-215.4,0,3828,0,243,0, 
2.1300,11.4,63.0,1128.0,274.2,-83.1,-425.1,1202.7,140.4,-6224.4,1611.0,-487.5,-52.5,-1217.4,1218.6,-4138.8,892.2,-6.3,-5.7,-56.7,833.7,-0.3,360.3,1929.3,-217.2,0,3834,0,244,0, 
2.1333,11.4,63.9,1133.7,279.6,-79.5,-426.3,1206.9,147.3,-5335.2,1627.8,-728.1,-154.8,-1225.2,1313.1,-2985.6,890.1,-6.9,-5.4,-45.6,840.3,-0.9,368.1,1945.5,-248.1,0,3840,0,245,0, 
2.1367,10.5,60.0,1135.2,277.2,-83.4,-429.6,1205.4,139.2,-6669.0,1617.6,-876.9,-192.9,-1251.3,1267.2,-4392.0,884.4,-6.9,-5.7,-40.8,833.7,-0.6,363.0,1932.3,-260.4,0,3846,0,246,0, 
2.1400,12.3,55.2,1136.4,274.5,-84.9,-421.8,1206.9,134.4,-8743.8,1601.4,-929.1,-198.3,-1292.4,1147.5,-6392.4,884.7,-6.9,-6.0,-49.2,826.5,-1.2,353.4,1930.5,-258.6,0,3852,0,247,0, 
2.1433,10.8,51.6,1128.9,269.1,-87.9,-436.8,1200.0,131.7,-8595.6,1607.7,-648.9,-108.3,-1262.1,1101.6,-6238.5,883.8,-6.9,-6.0,-57.9,817.2,-0.9,342.6,1935.9,-275.4,0,3858,0,248,0, 
2.1467,9.6,44.7,1115.4,259.8,-96.9,-432.6,1202.1,133.8,-6372.6,1593.3,-372.6,-123.9,-1219.5,1201.8,-4142.4,871.2,-6.9,-6.0,-76.5,799.2,-0.3,341.7,1923.0,-251.4,0,3864,0,249,0, 
2.1500,16.5,61.2,1117.5,254.4,-96.6,-432.6,1204.2,144.3,-5261.1,1585.5,-576.0,-251.4,-1210.2,1308.0,-2997.0,864.6,-6.6,-5.7,-91.5,798.0,-0.9,327.9,1909.8,-236.7,0,3870,0,250,0, 
2.1533,11.7,81.6,1137.9,277.5,-75.3,-426.6,1208.7,145.2,-6743.1,1617.9,-796.5,-265.2,-1303.2,1270.5,-4383.3,874.5,-6.9,-5.7,-62.1,843.9,-0.6,372.9,1912.2,-226.5,0,3876,0,251,0, 
2.1567,14.7,64.8,1132.5,277.5,-70.8,-413.1,1211.7,135.3,-8669.7,1619.7,-784.5,-174.9,-1324.2,1157.4,-6374.7,879.6,-6.9,-5.4,-51.0,856.5,-0.6,362.7,1920.3,-189.0,0,3882,0,252,0, 
2.1600,12.9,63.9,1126.5,269.7,-78.6,-421.2,1205.1,129.0,-8447.4,1610.4,-563.1,-108.0,-1266.9,1116.0,-6201.3,874.2,-6.9,-6.0,-69.3,847.8,-0.3,366.9,1926.3,-210.6,0,3888,0,253,0, 
2.1633,11.4,58.2,1122.3,262.8,-87.0,-429.6,1206.9,131.4,-6372.6,1618.2,-435.6,-93.0,-1231.8,1216.8,-4111.8,882.3,-6.9,-5.7,-88.2,826.8,-0.6,357.3,1929.6,-246.9,0,3894,0,254,0, 
2.1667,12.0,67.2,1128.0,266.1,-82.8,-427.2,1206.9,138.3,-5187.0,1615.2,-544.8,-172.8,-1177.8,1342.2,-2949.0,890.4,-6.9,-5.7,-85.2,834.6,-0.6,377.7,1956.0,-263.4,0,3900,0,255,0, 
2.1700,10.2,51.3,1122.3,263.1,-83.4,-437.7,1202.7,129.0,-6743.1,1623.3,-764.4,-250.2,-1235.4,1297.8,-4340.4,894.3,-6.9,-6.0,-77.1,830.4,-0.9,372.3,1956.6,-266.7,0,3906,0,0,0, 
2.1733,12.3,49.5,1121.7,262.5,-86.1,-431.4,1202.1,123.0,-8669.7,1629.9,-779.1,-177.6,-1333.8,1175.4,-6337.8,885.6,-6.9,-6.0,-75.6,818.7,-0.3,362.1,1948.5,-258.6,0,3912,0,1,0, 
2.1767,18.3,65.4,1128.0,265.5,-83.4,-426.0,1206.9,126.3,-8373.3,1612.2,-644.1,-121.2,-1317.0,1131.0,-6171.9,876.9,-6.9,-5.4,-65.7,825.3,-1.2,356.4,1941.9,-236.4,0,3918,0,2,0, 
2.1800,20.7,79.8,1134.9,270.6,-80.1,-420.3,1206.6,137.7,-6224.4,1603.5,-487.2,-140.7,-1261.2,1210.8,-4089.3,878.7,-6.9,-5.7,-60.6,827.7,-0.9,352.2,1937.1,-217.5,0,3924,0,3,0, 
2.1833,12.6,51.0,1121.1,264.6,-85.5,-414.3,1209.0,142.8,-5187.0,1595.4,-618.6,-204.3,-1216.8,1300.2,-2950.8,885.0,-6.9,-5.7,-66.6,819.0,-0.6,354.9,1930.8,-196.8,0,3930,0,4,0, 
2.1867,19.8,39.0,1123.5,270.6,-81.0,-404.4,1223.4,152.1,-6669.0,1598.1,-889.8,-316.2,-1355.1,1293.3,-4334.1,888.9,-6.6,-6.3,-64.5,828.6,-0.6,348.0,1944.0,-189.0,0,3936,0,5,0, 
2.1900,18.3,46.8,1131.9,276.0,-77.4,-411.6,1216.2,147.0,-8521.5,1606.2,-768.6,-245.4,-1397.1,1159.8,-6337.5,879.9,-6.6,-5.7,-61.8,834.0,-0.6,352.2,1956.9,-216.6,0,3942,0,6,0, 
2.1933,26.1,50.4,1143.9,279.0,-78.3,-429.0,1204.5,144.9,-8373.3,1618.5,-451.2,-138.3,-1251.3,1124.1,-6171.0,880.8,-6.6,-5.7,-54.0,836.1,-0.6,361.8,1953.0,-277.8,0,3948,0,7,0, 
2.1967,17.1,45.9,1145.4,273.9,-81.6,-423.3,1199.7,145.8,-6372.6,1632.9,-273.9,-142.2,-1182.0,1201.8,-4086.6,871.5,-6.6,-5.7,-51.0,832.2,-0.9,351.6,1936.5,-260.1,0,3954,0,8,0, 
2.2000,22.2,48.9,1141.2,271.2,-76.2,-424.8,1201.2,147.3,-5187.0,1604.7,-306.0,-164.7,-1175.4,1329.9,-2936.7,880.5,-6.9,-5.7,-60.3,828.6,-0.6,360.6,1943.7,-249.9,0,3960,0,9,0, 
2.2033,19.8,58.5,1148.1,273.9,-74.7,-422.1,1203.9,140.4,-6817.2,1608.3,-691.2,-261.0,-1230.9,1286.4,-4324.5,881.4,-7.2,-5.7,-63.6,833.7,-0.6,361.5,1946.4,-231.3,0,3966,0,10,0, 
2.2067,16.5,58.5,1144.2,274.8,-74.7,-423.6,1212.6,137.1,-8669.7,1602.0,-669.0,-250.2,-1348.8,1164.3,-6323.4,893.4,-6.9,-6.0,-63.6,836.4,-0.9,359.4,1974.0,-240.9,0,3972,0,11,0, 
2.2100,18.9,67.5,1156.5,283.5,-69.9,-406.2,1211.4,143.1,-8373.3,1621.5,-472.8,-202.8,-1355.4,1099.8,-6185.7,885.6,-6.9,-6.0,-45.6,845.1,-0.6,368.1,1948.2,-204.9,0,3978,0,12,0, 
2.2133,18.3,62.4,1151.7,278.4,-72.6,-411.9,1204.2,141.0,-6298.5,1603.8,-266.4,-119.1,-1236.6,1199.7,-4082.1,894.3,-6.9,-6.0,-57.6,845.4,-0.9,353.7,1955.1,-201.9,0,3984,0,13,0, 
2.2167,18.6,56.4,1159.2,289.8,-67.5,-411.0,1203.6,148.8,-5335.2,1627.2,-404.7,-85.2,-1167.9,1317.6,-2925.0,885.9,-6.6,-5.7,-46.2,855.0,-0.6,365.4,1942.5,-200.1,0,3990,0,14,0, 
2.2200,21.6,53.4,1150.5,285.6,-70.5,-408.6,1204.8,148.2,-6594.9,1609.2,-668.1,-250.8,-1216.8,1298.7,-4299.0,887.7,-6.9,-6.0,-60.9,848.1,-0.6,365.4,1957.5,-228.3,0,3996,0,15,0, 
2.2233,18.3,62.7,1154.7,284.4,-75.6,-422.4,1203.0,141.0,-8595.6,1622.7,-654.6,-211.8,-1304.4,1151.4,-6335.4,879.0,-6.9,-5.7,-60.0,839.4,-0.9,356.4,1956.3,-240.9,0,4002,0,16,0, 
2.2267,23.1,59.1,1160.7,285.3,-63.9,-406.2,1208.4,150.3,-8373.3,1611.9,-552.6,-107.7,-1305.6,1114.2,-6190.2,887.7,-6.6,-5.7,-51.0,850.2,-1.2,357.0,1954.5,-216.0,0,4008,0,17,0, 
2.2300,23.4,56.7,1173.3,292.5,-57.9,-403.5,1204.8,160.2,-6298.5,1636.5,-457.8,-101.1,-1208.1,1218.0,-4101.3,882.6,-6.6,-5.7,-33.6,854.4,-0.9,364.2,1943.4,-199.5,0,4014,0,18,0, 
2.2333,24.6,60.6,1167.0,286.8,-63.0,-406.8,1203.3,162.6,-5261.1,1617.9,-577.5,-237.9,-1244.1,1333.8,-2963.1,887.4,-7.2,-6.0,-39.9,846.9,-0.9,361.2,1948.8,-208.2,0,4020,0,19,0, 
2.2367,24.6,51.3,1154.7,274.8,-74.7,-422.1,1195.5,148.2,-6669.0,1617.0,-850.2,-291.3,-1310.4,1299.0,-4353.3,883.5,-6.9,-6.0,-56.4,834.9,-0.9,361.8,1941.0,-222.6,0,4026,0,20,0, 
2.2400,29.4,60.3,1156.5,272.7,-76.2,-417.3,1199.4,140.1,-8669.7,1605.6,-862.2,-168.0,-1390.8,1162.2,-6360.0,892.5,-6.9,-6.0,-53.7,836.1,-0.9,355.2,1948.2,-223.2,0,4032,0,21,0, 
2.2433,36.0,57.9,1159.8,279.9,-69.6,-413.4,1203.6,138.9,-8373.3,1614.6,-764.7,-122.4,-1305.0,1101.0,-6211.5,903.9,-6.9,-5.7,-62.1,841.5,-0.9,369.9,1954.8,-233.7,0,4038,0,22,0, 
2.2467,19.5,42.9,1159.5,277.2,-71.7,-416.7,1206.3,135.9,-6298.5,1602.6,-616.8,-26.7,-1158.0,1194.9,-4134.9,914.4,-7.2,-5.7,-61.8,835.8,-0.6,360.3,1991.1,-225.9,0,4044,0,23,0, 
2.2500,14.4,41.1,1163.4,276.3,-71.1,-417.6,1203.3,139.8,-5187.0,1620.0,-782.7,-99.6,-1241.4,1306.8,-2991.6,905.1,-6.6,-5.4,-53.4,837.6,-0.9,370.2,1950.9,-213.9,0,4050,0,24,0, 
2.2533,13.8,44.1,1164.3,273.9,-74.1,-416.7,1199.7,133.5,-6594.9,1612.2,-1093.8,-173.4,-1263.9,1304.7,-4354.5,891.9,-6.9,-5.7,-55.8,837.3,-0.9,371.7,1947.6,-224.7,0,4056,0,25,0, 
2.2567,19.8,62.4,1185.6,286.5,-62.4,-417.9,1202.4,138.3,-8743.8,1626.9,-1098.6,-110.7,-1327.8,1155.3,-6371.7,885.9,-6.6,-5.7,-42.9,846.3,-0.9,381.6,1961.1,-228.6,0,4062,0,26,0, 
